%OpenBCI Raw EEG Data
%Number of channels = 8
%Sample Rate = 250 Hz
%Board = OpenBCI_GUI$BoardCytonSerial
Sample Index, EXG Channel 0, EXG Channel 1, EXG Channel 2, EXG Channel 3, EXG Channel 4, EXG Channel 5, EXG Channel 6, EXG Channel 7, Accel Channel 0, Accel Channel 1, Accel Channel 2, Other, Other, Other, Other, Other, Other, Other, Analog Channel 0, Analog Channel 1, Analog Channel 2, Timestamp, Other, Timestamp (Formatted)
187.0, 55608.703864658346, 51049.66325159827, 20570.489236174733, -30043.33735028951, 5171.277245435387, -17478.9747570723, 21058.56192810082, 8574.062117822423, 0.0, 0.0, 0.0, 192.0, 0.0, 0.0, 0.0, 0.0, 0.0, 0.0, 0.0, 0.0, 0.0, 1.687804521703692E9, 0.0, 2023-06-26 13:35:21.703
188.0, 55595.0245970517, 51052.971309777655, 20663.69601055336, -29946.35313109793, 5264.148743647188, -17360.286994014623, 21157.870728715745, 8677.863619072868, 0.0, 0.0, 0.0, 192.0, 0.0, 0.0, 0.0, 0.0, 0.0, 0.0, 0.0, 0.0, 0.0, 1.687804521703713E9, 0.0, 2023-06-26 13:35:21.703
189.0, 55597.97502731979, 51070.182153008245, 20620.579495499074, -30010.860265595948, 5335.227291015064, -17405.951607936815, 21144.99612390949, 8608.774376961515, 0.0, 0.0, 0.0, 192.0, 0.0, 0.0, 0.0, 0.0, 0.0, 0.0, 0.0, 0.0, 0.0, 1.6878045217037249E9, 0.0, 2023-06-26 13:35:21.703
190.0, 55613.62124843851, 51072.03734779803, 20528.982046721227, -30116.181685469353, 5240.142970102188, -17519.766690703236, 21045.709675039016, 8502.558887309897, 0.0, 0.0, 0.0, 192.0, 0.0, 0.0, 0.0, 0.0, 0.0, 0.0, 0.0, 0.0, 0.0, 1.6878045217037363E9, 0.0, 2023-06-26 13:35:21.703
191.0, 55609.35206524755, 51063.16370524928, 20557.88285230194, -30067.588993023517, 5158.670861562594, -17487.155495542946, 21042.960410471012, 8555.018431546501, 0.0, 0.0, 0.0, 192.0, 0.0, 0.0, 0.0, 0.0, 0.0, 0.0, 0.0, 0.0, 0.0, 1.687804521703748E9, 0.0, 2023-06-26 13:35:21.703
192.0, 55619.41035025244, 51084.44256597073, 20677.062353737638, -29930.908075679312, 5250.9165109296455, -17345.33367697402, 21156.686086259615, 8691.72170063516, 0.0, 0.0, 0.0, 192.0, 0.0, 0.0, 0.0, 0.0, 0.0, 0.0, 0.0, 0.0, 0.0, 1.6878045217037592E9, 0.0, 2023-06-26 13:35:21.703
193.0, 55613.68830367188, 51079.36871997938, 20636.091606151058, -29992.84475956497, 5331.2710322464745, -17381.58820648053, 21149.98056292302, 8627.907470215257, 0.05, 1.002, 0.05, 192.0, 1.0, 144.0, 31.0, 80.0, 1.0, 144.0, 0.0, 0.0, 0.0, 1.6878045217037704E9, 0.0, 2023-06-26 13:35:21.703
194.0, 55627.076998600605, 51069.84687684142, 20520.466032083754, -30119.333281437554, 5251.721173730037, -17516.592742990582, 21043.183927915565, 8494.914590706181, 0.05, 1.002, 0.05, 192.0, 0.0, 0.0, 0.0, 0.0, 0.0, 0.0, 0.0, 0.0, 0.0, 1.687804521703784E9, 0.0, 2023-06-26 13:35:21.703
195.0, 55649.451094800366, 51074.361929221384, 20552.4513783993, -30075.23328962723, 5165.577550599283, -17495.80562064715, 21037.59599180174, 8537.092332493345, 0.05, 1.002, 0.05, 192.0, 0.0, 0.0, 0.0, 0.0, 0.0, 0.0, 0.0, 0.0, 0.0, 1.687804521703796E9, 0.0, 2023-06-26 13:35:21.703
196.0, 55642.11972261903, 51090.231667784654, 20666.892310010473, -29941.748671740137, 5227.201310062565, -17360.845787626004, 21140.481071529517, 8673.348566692897, 0.05, 1.002, 0.05, 192.0, 0.0, 0.0, 0.0, 0.0, 0.0, 0.0, 0.0, 0.0, 0.0, 1.687804521703807E9, 0.0, 2023-06-26 13:35:21.703
197.0, 55613.5765449496, 51064.08012677194, 20637.499766051744, -29987.346230428964, 5300.023293497956, -17388.405488539396, 21141.464548285552, 8622.252478868066, 0.05, 1.002, 0.05, 192.0, 0.0, 0.0, 0.0, 0.0, 0.0, 0.0, 0.0, 0.0, 0.0, 1.6878045217038188E9, 0.0, 2023-06-26 13:35:21.703
198.0, 55609.08384431408, 51052.837199310925, 20523.818793752052, -30122.976615783766, 5250.804752207369, -17517.55386800216, 21043.74272152695, 8488.276122602954, 0.05, 1.002, 0.05, 192.0, 0.0, 0.0, 0.0, 0.0, 0.0, 0.0, 0.0, 0.0, 0.0, 1.6878045217038305E9, 0.0, 2023-06-26 13:35:21.703
199.0, 55624.66301019943, 51051.361984176874, 20509.223104622735, -30123.24483671723, 5147.360878868209, -17539.212708379353, 21002.503753006906, 8488.276122602954, 0.05, 1.002, 0.05, 192.0, 0.0, 0.0, 0.0, 0.0, 0.0, 0.0, 0.0, 0.0, 0.0, 1.687804521703842E9, 0.0, 2023-06-26 13:35:21.703
200.0, 55642.96908890833, 51079.2569612571, 20644.160585899423, -29967.810805775025, 5191.058539278333, -17391.110049618488, 21111.75907990445, 8644.33600238991, 0.05, 1.002, 0.05, 192.0, 0.0, 0.0, 0.0, 0.0, 0.0, 0.0, 0.0, 0.0, 0.0, 1.6878045217038534E9, 0.0, 2023-06-26 13:35:21.703
0.0, 0.0, 0.0, 0.0, 0.0, 0.0, 0.0, 0.0, 0.0, 0.034, 0.988, 0.15, 192.0, 1.0, 16.0, 30.0, 224.0, 4.0, 176.0, 0.0, 0.0, 0.0, 1.6878045217889433E9, 0.0, 2023-06-26 13:35:21.788
1.0, 53954.74183019899, 50221.10643638449, 17829.830089787258, -30343.923609724476, 2674.162706632937, -17718.02666402181, 19843.16347159904, 7003.315627970175, 0.034, 0.988, 0.15, 192.0, 0.0, 0.0, 0.0, 0.0, 0.0, 0.0, 0.0, 0.0, 0.0, 1.687804521806013E9, 0.0, 2023-06-26 13:35:21.806
2.0, 53879.37174789569, 50142.629461601915, 17804.483211574938, -30342.537801568247, 2494.655846912366, -17670.26098612082, 19833.239297060885, 7050.746029704336, 0.034, 0.988, 0.15, 192.0, 0.0, 0.0, 0.0, 0.0, 0.0, 0.0, 0.0, 0.0, 0.0, 1.6878045218090267E9, 0.0, 2023-06-26 13:35:21.809
3.0, 53959.748620956976, 50217.41839854937, 17986.784039352424, -30095.77454278166, 2589.159022469404, -17445.0671607336, 20034.561459369834, 7273.414107968106, 0.034, 0.988, 0.15, 192.0, 0.0, 0.0, 0.0, 0.0, 0.0, 0.0, 0.0, 0.0, 0.0, 1.6878045218130484E9, 0.0, 2023-06-26 13:35:21.813
4.0, 53936.92748986811, 50214.22209909226, 17990.762649865468, -30154.023188832187, 2748.0128703132714, -17456.846530061546, 20056.086189280297, 7263.400526452127, 0.034, 0.988, 0.15, 192.0, 0.0, 0.0, 0.0, 0.0, 0.0, 0.0, 0.0, 0.0, 0.0, 1.6878045218170695E9, 0.0, 2023-06-26 13:35:21.817
5.0, 53946.024649861414, 50170.01034855966, 17841.34123818174, -30460.0409221698, 2701.6330005685095, -17755.018801095342, 19867.25865212186, 7019.431235722451, 0.034, 0.988, 0.15, 192.0, 0.0, 0.0, 0.0, 0.0, 0.0, 0.0, 0.0, 0.0, 0.0, 1.68780452182013E9, 0.0, 2023-06-26 13:35:21.820
6.0, 53777.11251701266, 50000.94175349972, 17684.208474660933, -30531.812373615787, 2481.5130211726455, -17840.648334103626, 19781.226787713385, 6981.187400959421, 0.034, 0.988, 0.15, 192.0, 0.0, 0.0, 0.0, 0.0, 0.0, 0.0, 0.0, 0.0, 0.0, 1.6878045218251436E9, 0.0, 2023-06-26 13:35:21.825
7.0, 53787.55078167329, 50090.66165574332, 17737.18210902001, -30240.65855034096, 2435.0660961945173, -17581.055173999688, 19917.773594590857, 7170.4172695180505, 0.034, 0.988, 0.15, 192.0, 0.0, 0.0, 0.0, 0.0, 0.0, 0.0, 0.0, 0.0, 0.0, 1.6878045218291352E9, 0.0, 2023-06-26 13:35:21.829
8.0, 54000.04881620989, 50319.632925943486, 18034.81793818688, -30021.70086165677, 2709.903146016973, -17412.63477952895, 20059.30484048186, 7279.493782459949, 0.024, 0.992, 0.188, 192.0, 0.0, 192.0, 31.0, 0.0, 5.0, 224.0, 0.0, 0.0, 0.0, 1.6878045218331473E9, 0.0, 2023-06-26 13:35:21.833
9.0, 54035.521034660465, 50237.11028541449, 17957.12327446023, -30336.949865454422, 2774.678501448453, -17651.530224267273, 19927.40719645109, 7099.428129127995, 0.024, 0.992, 0.188, 192.0, 0.0, 0.0, 0.0, 0.0, 0.0, 0.0, 0.0, 0.0, 0.0, 1.6878045218361645E9, 0.0, 2023-06-26 13:35:21.836
10.0, 53858.294052874335, 50064.08543158596, 17736.13157703061, -30489.813445784268, 2525.970640894251, -17812.216915156474, 19781.33854643566, 6971.777316543737, 0.024, 0.992, 0.188, 192.0, 0.0, 0.0, 0.0, 0.0, 0.0, 0.0, 0.0, 0.0, 0.0, 1.687804521840165E9, 0.0, 2023-06-26 13:35:21.840
11.0, 53781.94049381501, 50102.26221111563, 17809.154726166096, -30254.47192841434, 2484.530506674112, -17609.66540690248, 19926.75899586189, 7164.047022348288, 0.024, 0.992, 0.188, 192.0, 0.0, 0.0, 0.0, 0.0, 0.0, 0.0, 0.0, 0.0, 0.0, 1.687804521844198E9, 0.0, 2023-06-26 13:35:21.844
12.0, 53759.29817668178, 50083.37498705089, 17821.17996468305, -30276.8460246141, 2648.681717953887, -17521.55483025966, 20018.28938940637, 7230.81168303629, 0.024, 0.992, 0.188, 192.0, 0.0, 0.0, 0.0, 0.0, 0.0, 0.0, 0.0, 0.0, 0.0, 1.687804521848214E9, 0.0, 2023-06-26 13:35:21.848
13.0, 53870.542808835846, 50064.42070775279, 17748.581498692216, -30410.978843090397, 2627.1569880434263, -17775.247129827396, 19841.7329599539, 7010.4011309625075, 0.024, 0.992, 0.188, 192.0, 0.0, 0.0, 0.0, 0.0, 0.0, 0.0, 0.0, 0.0, 0.0, 1.6878045218532336E9, 0.0, 2023-06-26 13:35:21.853
14.0, 54065.874703630776, 50277.63399811197, 17904.283750567884, -30209.142590658976, 2598.680865607365, -17714.69625409797, 19810.462869460927, 7005.170822759966, 0.024, 0.992, 0.188, 192.0, 0.0, 0.0, 0.0, 0.0, 0.0, 0.0, 0.0, 0.0, 0.0, 1.687804521857242E9, 0.0, 2023-06-26 13:35:21.857
15.0, 53881.293997918845, 50183.577857444034, 17886.49176198146, -30185.807369447633, 2501.584887693511, -17562.257356912774, 19924.590876649723, 7157.296795522785, 0.024, 0.992, 0.188, 192.0, 0.0, 0.0, 0.0, 0.0, 0.0, 0.0, 0.0, 0.0, 0.0, 1.6878045218612976E9, 0.0, 2023-06-26 13:35:21.861
16.0, 53840.390305565634, 50167.8422293475, 17891.47620099499, -30122.77545008367, 2598.3679411849907, -17466.860111577524, 20011.53916258087, 7244.870930298678, 0.024, 0.992, 0.188, 192.0, 0.0, 0.0, 0.0, 0.0, 0.0, 0.0, 0.0, 0.0, 0.0, 1.6878045218642924E9, 0.0, 2023-06-26 13:35:21.864
17.0, 53894.21330621401, 50182.88495336592, 17923.97563743301, -30241.84319279709, 2765.089603077126, -17602.043462043224, 19960.66659220059, 7117.26482120333, 0.024, 0.992, 0.188, 192.0, 0.0, 0.0, 0.0, 0.0, 0.0, 0.0, 0.0, 0.0, 0.0, 1.6878045218683114E9, 0.0, 2023-06-26 13:35:21.868
18.0, 53914.10635877924, 50152.55363614007, 17758.818597652746, -30508.924187293553, 2614.237679748259, -17808.126545921154, 19813.994445084863, 6970.413860131963, 0.016, 0.99, 0.202, 192.0, 0.0, 128.0, 30.0, 240.0, 6.0, 80.0, 0.0, 0.0, 0.0, 1.6878045218723347E9, 0.0, 2023-06-26 13:35:21.872
19.0, 53933.462969477536, 50123.58577532599, 17833.987514255943, -30379.351124686138, 2486.586867164, -17712.952818030455, 19866.699858510477, 7089.25808540083, 0.016, 0.99, 0.202, 192.0, 0.0, 0.0, 0.0, 0.0, 0.0, 0.0, 0.0, 0.0, 0.0, 1.6878045218763523E9, 0.0, 2023-06-26 13:35:21.876
20.0, 53885.67493983209, 50201.146328585906, 17966.73452457601, -30106.033993486642, 2594.5234411386778, -17494.822143891113, 20032.169822713116, 7259.5783781502705, 0.016, 0.99, 0.202, 192.0, 0.0, 0.0, 0.0, 0.0, 0.0, 0.0, 0.0, 0.0, 0.0, 1.6878045218803835E9, 0.0, 2023-06-26 13:35:21.880
21.0, 53934.24528053347, 50245.112209929495, 17866.285784993863, -30183.72865721329, 2672.6874914988866, -17561.85502551258, 19956.84444389873, 7148.646670418581, 0.016, 0.99, 0.202, 192.0, 0.0, 0.0, 0.0, 0.0, 0.0, 0.0, 0.0, 0.0, 0.0, 1.687804521885412E9, 0.0, 2023-06-26 13:35:21.885
22.0, 54074.74834617953, 50271.48726838676, 17886.380003259183, -30292.46989398836, 2687.0820149281044, -17691.405736375542, 19845.465701277935, 7023.6110119355935, 0.016, 0.99, 0.202, 192.0, 0.0, 0.0, 0.0, 0.0, 0.0, 0.0, 0.0, 0.0, 0.0, 1.687804521888424E9, 0.0, 2023-06-26 13:35:21.888
23.0, 54007.8495750248, 50242.05002093912, 17922.83569846579, -30244.99478876529, 2558.850056988008, -17645.383494542064, 19914.823164322755, 7119.008257270844, 0.016, 0.99, 0.202, 192.0, 0.0, 0.0, 0.0, 0.0, 0.0, 0.0, 0.0, 0.0, 0.0, 1.687804521892437E9, 0.0, 2023-06-26 13:35:21.892
24.0, 53950.69616445257, 50222.93927942983, 18001.13385929273, -30129.570380398083, 2605.833423833063, -17515.60926623455, 20055.572099157824, 7266.730936375969, 0.016, 0.99, 0.202, 192.0, 0.0, 0.0, 0.0, 0.0, 0.0, 0.0, 0.0, 0.0, 0.0, 1.6878045218964512E9, 0.0, 2023-06-26 13:35:21.896
25.0, 53858.53992206335, 50196.4971657392, 17849.1643487411, -30286.725495663348, 2691.842936497085, -17600.903523076002, 19979.8667406877, 7154.882807121612, 0.016, 0.99, 0.202, 192.0, 0.0, 0.0, 0.0, 0.0, 0.0, 0.0, 0.0, 0.0, 0.0, 1.6878045219004924E9, 0.0, 2023-06-26 13:35:21.900
26.0, 53702.412987043026, 50054.451829725724, 17560.066885956156, -30565.585859487757, 2568.5283623371556, -17849.857252819213, 19742.066531427685, 6897.569524952117, 0.016, 0.99, 0.202, 192.0, 0.0, 0.0, 0.0, 0.0, 0.0, 0.0, 0.0, 0.0, 0.0, 1.6878045219045017E9, 0.0, 2023-06-26 13:35:21.904
27.0, 53958.31810931183, 50168.915113081355, 17759.42209475304, -30347.745758026336, 2490.0066840656623, -17784.098420631697, 19798.7729071108, 6996.855973822591, 0.016, 0.99, 0.202, 192.0, 0.0, 0.0, 0.0, 0.0, 0.0, 0.0, 0.0, 0.0, 0.0, 1.6878045219085257E9, 0.0, 2023-06-26 13:35:21.908
28.0, 53908.920754065606, 50156.73341235321, 17922.54512578787, -30194.748067229757, 2577.066728719083, -17505.12629808501, 20016.61300857222, 7233.806816793302, 0.01, 0.982, 0.218, 192.0, 0.0, 80.0, 30.0, 176.0, 6.0, 208.0, 0.0, 0.0, 0.0, 1.6878045219125535E9, 0.0, 2023-06-26 13:35:21.912
29.0, 53980.04400492239, 50326.80783591364, 18011.259199530985, -30120.070889004575, 2723.1800822234254, -17509.887219653992, 20046.96667754253, 7249.184816978553, 0.01, 0.982, 0.218, 192.0, 0.0, 0.0, 0.0, 0.0, 0.0, 0.0, 0.0, 0.0, 0.0, 1.6878045219165602E9, 0.0, 2023-06-26 13:35:21.916
30.0, 54126.49263459357, 50327.813664414134, 17947.534376088905, -30275.549623435694, 2689.2948376291797, -17710.60588486265, 19916.164268990073, 7094.019006969811, 0.01, 0.982, 0.218, 192.0, 0.0, 0.0, 0.0, 0.0, 0.0, 0.0, 0.0, 0.0, 0.0, 1.6878045219195929E9, 0.0, 2023-06-26 13:35:21.919
31.0, 53952.43960052009, 50201.70512219729, 17788.926397434047, -30315.67100473297, 2542.712097491276, -17741.94303058899, 19822.510459722336, 7008.903564084001, 0.01, 0.982, 0.218, 192.0, 0.0, 0.0, 0.0, 0.0, 0.0, 0.0, 0.0, 0.0, 0.0, 1.687804521924598E9, 0.0, 2023-06-26 13:35:21.924
32.0, 53825.48169201395, 50155.10173500797, 17875.382944987174, -30160.594601702047, 2549.5517312946, -17517.21859183533, 19946.786158893843, 7181.481383023427, 0.01, 0.982, 0.218, 192.0, 0.0, 0.0, 0.0, 0.0, 0.0, 0.0, 0.0, 0.0, 0.0, 1.6878045219286215E9, 0.0, 2023-06-26 13:35:21.928
33.0, 53882.74686130844, 50193.77025291565, 17851.600688886727, -30225.12408794452, 2643.227892306792, -17516.860963924046, 19995.267092617403, 7198.379301831639, 0.01, 0.982, 0.218, 192.0, 0.0, 0.0, 0.0, 0.0, 0.0, 0.0, 0.0, 0.0, 0.0, 1.6878045219326456E9, 0.0, 2023-06-26 13:35:21.932
34.0, 54014.57745010584, 50260.981948492765, 17895.41010801913, -30313.122905865064, 2704.426968625423, -17693.082117209688, 19869.203253889475, 7040.084247599155, 0.01, 0.982, 0.218, 192.0, 0.0, 0.0, 0.0, 0.0, 0.0, 0.0, 0.0, 0.0, 0.0, 1.6878045219366791E9, 0.0, 2023-06-26 13:35:21.936
35.0, 53870.47575360248, 50152.93361579581, 17687.695346795957, -30388.336525957173, 2552.166885395871, -17770.41915302505, 19776.599976611134, 6982.059118993177, 0.01, 0.982, 0.218, 192.0, 0.0, 0.0, 0.0, 0.0, 0.0, 0.0, 0.0, 0.0, 0.0, 1.6878045219407167E9, 0.0, 2023-06-26 13:35:21.940
36.0, 53932.904175866155, 50244.46400934029, 17885.59769220325, -30175.413808275916, 2505.8317191400197, -17569.275804671743, 19924.769690605368, 7174.127659097631, 0.01, 0.982, 0.218, 192.0, 0.0, 0.0, 0.0, 0.0, 0.0, 0.0, 0.0, 0.0, 0.0, 1.6878045219447484E9, 0.0, 2023-06-26 13:35:21.944
37.0, 54085.09720386234, 50362.123592153024, 18096.665215094712, -30005.585253904494, 2690.546535318677, -17456.39949517244, 20066.658564407655, 7298.962151880522, 0.01, 0.982, 0.218, 192.0, 0.0, 0.0, 0.0, 0.0, 0.0, 0.0, 0.0, 0.0, 0.0, 1.6878045219477484E9, 0.0, 2023-06-26 13:35:21.947
38.0, 53990.90695272767, 50241.826503494565, 17939.42069285163, -30251.052111512676, 2726.3316781916237, -17634.453491503416, 19928.100100529206, 7105.194879197465, 0.01, 0.982, 0.218, 192.0, 0.0, 0.0, 0.0, 0.0, 0.0, 0.0, 0.0, 0.0, 0.0, 1.687804521951768E9, 0.0, 2023-06-26 13:35:21.951
39.0, 53903.735149351975, 50184.27076152215, 17666.68470700797, -30422.44528799597, 2499.3720649924358, -17769.458028013472, 19742.826490739168, 6954.767639013248, 0.01, 0.966, 0.23800000000000002, 192.0, 0.0, 80.0, 30.0, 48.0, 7.0, 112.0, 0.0, 0.0, 0.0, 1.687804521956786E9, 0.0, 2023-06-26 13:35:21.956
40.0, 54013.3481041608, 50265.7652218062, 17991.701423132592, -30151.028055075178, 2596.1774702283706, -17578.57413036515, 19948.887222872643, 7188.410423804573, 0.01, 0.966, 0.23800000000000002, 192.0, 0.0, 0.0, 0.0, 0.0, 0.0, 0.0, 0.0, 0.0, 0.0, 1.6878045219608092E9, 0.0, 2023-06-26 13:35:21.960
41.0, 53968.331690827814, 50294.06253028662, 18008.733452407534, -30085.604499054494, 2679.772994491219, -17477.767762871714, 20052.35344795626, 7283.271227272896, 0.01, 0.966, 0.23800000000000002, 192.0, 0.0, 0.0, 0.0, 0.0, 0.0, 0.0, 0.0, 0.0, 0.0, 1.687804521964821E9, 0.0, 2023-06-26 13:35:21.964
42.0, 54031.967107292076, 50321.28695503318, 17955.111617459253, -30190.635346249983, 2725.5940706245983, -17614.91806684948, 19924.14384176062, 7126.496091663372, 0.01, 0.966, 0.23800000000000002, 192.0, 0.0, 0.0, 0.0, 0.0, 0.0, 0.0, 0.0, 0.0, 0.0, 1.687804521968852E9, 0.0, 2023-06-26 13:35:21.968
43.0, 53996.36077837477, 50220.68175323984, 17753.74475166139, -30392.046915536754, 2619.42328446189, -17777.951690906488, 19785.719488348903, 7000.81223259118, 0.01, 0.966, 0.23800000000000002, 192.0, 0.0, 0.0, 0.0, 0.0, 0.0, 0.0, 0.0, 0.0, 0.0, 1.6878045219728577E9, 0.0, 2023-06-26 13:35:21.972
44.0, 53799.55366844579, 50134.381667897906, 17808.819449999268, -30317.883827434045, 2512.2466697986924, -17662.750799983838, 19863.50355905337, 7102.959704751934, 0.01, 0.966, 0.23800000000000002, 192.0, 0.0, 0.0, 0.0, 0.0, 0.0, 0.0, 0.0, 0.0, 0.0, 1.6878045219769485E9, 0.0, 2023-06-26 13:35:21.976
45.0, 53941.5319492259, 50221.24054685123, 17984.280643973427, -30185.06976188061, 2575.9714932407733, -17539.27976361272, 19992.361365838216, 7237.7407238174355, 0.01, 0.966, 0.23800000000000002, 192.0, 0.0, 0.0, 0.0, 0.0, 0.0, 0.0, 0.0, 0.0, 0.0, 1.6878045219799023E9, 0.0, 2023-06-26 13:35:21.979
46.0, 53998.618304564756, 50289.70394011783, 17946.752065032968, -30195.195102118865, 2695.978009221317, -17599.29419747522, 19952.46350198549, 7164.22583630393, 0.01, 0.966, 0.23800000000000002, 192.0, 0.0, 0.0, 0.0, 0.0, 0.0, 0.0, 0.0, 0.0, 0.0, 1.687804521983944E9, 0.0, 2023-06-26 13:35:21.983
47.0, 54004.72033080105, 50263.507695616216, 17753.632992939114, -30344.325941124673, 2559.565312810578, -17821.24701991642, 19783.126685992087, 6980.874476537047, 0.01, 0.966, 0.23800000000000002, 192.0, 0.0, 0.0, 0.0, 0.0, 0.0, 0.0, 0.0, 0.0, 0.0, 1.6878045219889443E9, 0.0, 2023-06-26 13:35:21.988
48.0, 53916.609754158235, 50191.37861625894, 17805.176115653052, -30315.246321588318, 2501.9648673492516, -17721.89351581258, 19833.7310354389, 7060.6478524980375, 0.01, 0.966, 0.23800000000000002, 192.0, 0.0, 0.0, 0.0, 0.0, 0.0, 0.0, 0.0, 0.0, 0.0, 1.6878045219929569E9, 0.0, 2023-06-26 13:35:21.992
49.0, 53967.705841983065, 50282.4172714254, 18001.312673248372, -30130.73267110976, 2600.625467374977, -17472.671565135905, 20016.05421496084, 7268.899055588134, 0.01, 0.9580000000000001, 0.244, 192.0, 0.0, 80.0, 29.0, 240.0, 7.0, 160.0, 0.0, 0.0, 0.0, 1.6878045219979792E9, 0.0, 2023-06-26 13:35:21.997
50.0, 54014.890374528215, 50321.599879455556, 17983.520684661948, -30199.79956147666, 2709.411407638956, -17587.358365936085, 19967.215653325995, 7177.391013788107, 0.01, 0.9580000000000001, 0.244, 192.0, 0.0, 0.0, 0.0, 0.0, 0.0, 0.0, 0.0, 0.0, 0.0, 1.6878045220020056E9, 0.0, 2023-06-26 13:35:22.002
51.0, 54014.15276696119, 50250.94601523233, 17834.38984565614, -30356.038255219253, 2645.6865841968756, -17770.106228602675, 19799.130535022086, 7014.111520542088, 0.01, 0.9580000000000001, 0.244, 192.0, 0.0, 0.0, 0.0, 0.0, 0.0, 0.0, 0.0, 0.0, 0.0, 1.687804522005006E9, 0.0, 2023-06-26 13:35:22.005
52.0, 53899.30950394982, 50190.7974709031, 17869.750305384434, -30294.861530645077, 2540.5439782791113, -17683.11323918262, 19840.54831749777, 7070.326157847186, 0.01, 0.9580000000000001, 0.244, 192.0, 0.0, 0.0, 0.0, 0.0, 0.0, 0.0, 0.0, 0.0, 0.0, 1.687804522008014E9, 0.0, 2023-06-26 13:35:22.008
53.0, 54064.13126756326, 50293.45903318632, 18100.844991307855, -30087.213824655275, 2633.8848631244737, -17437.69108506335, 20070.436009220604, 7313.2896200763735, 0.01, 0.9580000000000001, 0.244, 192.0, 0.0, 0.0, 0.0, 0.0, 0.0, 0.0, 0.0, 0.0, 0.0, 1.687804522012047E9, 0.0, 2023-06-26 13:35:22.012
54.0, 53991.17517366114, 50315.69901891935, 17975.630518869224, -30192.468189295316, 2706.483329115311, -17510.04368186518, 20041.758721084443, 7248.24604371143, 0.01, 0.9580000000000001, 0.244, 192.0, 0.0, 0.0, 0.0, 0.0, 0.0, 0.0, 0.0, 0.0, 0.0, 1.6878045220161686E9, 0.0, 2023-06-26 13:35:22.016
55.0, 53993.298589384394, 50273.94596027684, 17820.39765362712, -30371.19273795995, 2641.707973683831, -17720.55241114526, 19837.419073274028, 7014.826776364658, 0.01, 0.9580000000000001, 0.244, 192.0, 0.0, 0.0, 0.0, 0.0, 0.0, 0.0, 0.0, 0.0, 0.0, 1.6878045220211353E9, 0.0, 2023-06-26 13:35:22.021
56.0, 53993.67856904013, 50235.07627666906, 17846.10215975072, -30327.226856616362, 2541.527455035145, -17711.2317337074, 19826.198497557463, 7031.903509128512, 0.01, 0.9580000000000001, 0.244, 192.0, 0.0, 0.0, 0.0, 0.0, 0.0, 0.0, 0.0, 0.0, 0.0, 1.687804522025133E9, 0.0, 2023-06-26 13:35:22.025
57.0, 53985.96721720305, 50262.010128737704, 17946.37208537723, -30133.996025800232, 2541.4380480573236, -17539.033894423712, 19986.751077979934, 7216.663028796081, 0.01, 0.9580000000000001, 0.244, 192.0, 0.0, 0.0, 0.0, 0.0, 0.0, 0.0, 0.0, 0.0, 0.0, 1.687804522028134E9, 0.0, 2023-06-26 13:35:22.028
58.0, 53960.91091166865, 50308.34529499356, 17952.764684291447, -30145.77539512818, 2676.755508989753, -17496.878504381002, 20040.417616417126, 7243.239252953441, 0.01, 0.9580000000000001, 0.244, 192.0, 0.0, 0.0, 0.0, 0.0, 0.0, 0.0, 0.0, 0.0, 0.0, 1.6878045220321703E9, 0.0, 2023-06-26 13:35:22.032
59.0, 53962.609644247255, 50245.3580791185, 17870.018526317897, -30373.24909844984, 2712.96533500735, -17714.450384908963, 19871.773704501833, 7034.898642885523, 0.012, 0.936, 0.256, 192.0, 0.0, 96.0, 29.0, 64.0, 8.0, 0.0, 0.0, 0.0, 0.0, 1.6878045220361838E9, 0.0, 2023-06-26 13:35:22.036
60.0, 53991.59985680579, 50177.31936899655, 17824.599781584715, -30418.176104805007, 2569.780060026653, -17769.927414647034, 19802.43859320147, 6998.174726745454, 0.012, 0.936, 0.256, 192.0, 0.0, 0.0, 0.0, 0.0, 0.0, 0.0, 0.0, 0.0, 0.0, 1.6878045220402064E9, 0.0, 2023-06-26 13:35:22.040
61.0, 53893.56510562481, 50219.31829682807, 17878.892168866656, -30270.02874255523, 2516.3370390340137, -17622.160032052998, 19931.028179052853, 7153.7428681543915, 0.012, 0.936, 0.256, 192.0, 0.0, 0.0, 0.0, 0.0, 0.0, 0.0, 0.0, 0.0, 0.0, 1.6878045220442295E9, 0.0, 2023-06-26 13:35:22.044
62.0, 53975.70776649807, 50284.80890808212, 17984.146533506697, -30133.906618822413, 2667.010148407239, -17452.756160826226, 20041.11052049524, 7262.551160162826, 0.012, 0.936, 0.256, 192.0, 0.0, 0.0, 0.0, 0.0, 0.0, 0.0, 0.0, 0.0, 0.0, 1.6878045220482512E9, 0.0, 2023-06-26 13:35:22.048
63.0, 54020.83593855333, 50258.09857345803, 17883.474276479992, -30343.543630068736, 2664.0820698835937, -17675.69246002346, 19896.494733869404, 7074.528285804783, 0.012, 0.936, 0.256, 192.0, 0.0, 0.0, 0.0, 0.0, 0.0, 0.0, 0.0, 0.0, 0.0, 1.6878045220532577E9, 0.0, 2023-06-26 13:35:22.053
64.0, 54011.93994426012, 50308.09942580455, 17803.231513885443, -30369.918688526, 2567.8578100034965, -17763.17718782153, 19804.383194969083, 6992.586790631627, 0.012, 0.936, 0.256, 192.0, 0.0, 0.0, 0.0, 0.0, 0.0, 0.0, 0.0, 0.0, 0.0, 1.6878045220562828E9, 0.0, 2023-06-26 13:35:22.056
65.0, 54010.88941227072, 50264.7146898168, 17911.570419260315, -30186.612032248027, 2510.9055651313743, -17603.898656833015, 19914.577295133746, 7141.203539514964, 0.012, 0.936, 0.256, 192.0, 0.0, 0.0, 0.0, 0.0, 0.0, 0.0, 0.0, 0.0, 0.0, 1.6878045220602765E9, 0.0, 2023-06-26 13:35:22.060
66.0, 53999.95940923207, 50308.591164182566, 18055.828577974866, -30085.313926376573, 2683.0810526706045, -17426.49286109124, 20072.268852265937, 7285.126422062686, 0.012, 0.936, 0.256, 192.0, 0.0, 0.0, 0.0, 0.0, 0.0, 0.0, 0.0, 0.0, 0.0, 1.6878045220642958E9, 0.0, 2023-06-26 13:35:22.064
67.0, 53936.63691719019, 50263.61945433849, 17863.7153343815, -30314.41930704347, 2697.989666222294, -17626.54097396624, 19939.36537973468, 7106.603039098149, 0.012, 0.936, 0.256, 192.0, 0.0, 0.0, 0.0, 0.0, 0.0, 0.0, 0.0, 0.0, 0.0, 1.6878045220683048E9, 0.0, 2023-06-26 13:35:22.068
68.0, 54022.62407810975, 50236.573843547565, 17826.209107185496, -30398.05953479523, 2571.903475749907, -17721.73705360139, 19803.600883913146, 6983.556685871683, 0.012, 0.936, 0.256, 192.0, 0.0, 0.0, 0.0, 0.0, 0.0, 0.0, 0.0, 0.0, 0.0, 1.6878045220723543E9, 0.0, 2023-06-26 13:35:22.072
69.0, 54027.09442700082, 50253.82939026706, 17955.40219013717, -30288.312469519675, 2558.1124494209826, -17618.33788375114, 19930.625847652656, 7134.676830134014, 0.008, 0.934, 0.244, 192.0, 0.0, 64.0, 29.0, 48.0, 7.0, 160.0, 0.0, 0.0, 0.0, 1.6878045220763824E9, 0.0, 2023-06-26 13:35:22.076
70.0, 53926.95861184104, 50245.78276226315, 17965.46047514206, -30103.709412063294, 2626.262918265214, -17485.255597264244, 20047.234898475996, 7257.209093238008, 0.008, 0.934, 0.244, 192.0, 0.0, 0.0, 0.0, 0.0, 0.0, 0.0, 0.0, 0.0, 0.0, 1.6878045220814116E9, 0.0, 2023-06-26 13:35:22.081
71.0, 53929.23848977548, 50280.271503957694, 17910.989273904477, -30230.89083801399, 2716.385151909012, -17559.95512723388, 19979.06207788731, 7152.89350186509, 0.008, 0.934, 0.244, 192.0, 0.0, 0.0, 0.0, 0.0, 0.0, 0.0, 0.0, 0.0, 0.0, 1.6878045220844092E9, 0.0, 2023-06-26 13:35:22.084
72.0, 53947.61162371774, 50201.25808730818, 17778.354022306685, -30460.286791358805, 2568.684824548343, -17824.823299029267, 19798.795258855254, 6953.04655469019, 0.008, 0.934, 0.244, 192.0, 0.0, 0.0, 0.0, 0.0, 0.0, 0.0, 0.0, 0.0, 0.0, 1.6878045220874057E9, 0.0, 2023-06-26 13:35:22.087
73.0, 54016.25383093999, 50229.935375444344, 17853.411180187606, -30290.212367798373, 2492.085396300006, -17665.991802929857, 19847.70087572347, 7055.037564639755, 0.008, 0.934, 0.244, 192.0, 0.0, 0.0, 0.0, 0.0, 0.0, 0.0, 0.0, 0.0, 0.0, 1.6878045220924792E9, 0.0, 2023-06-26 13:35:22.092
74.0, 54032.503549159, 50322.13632132248, 17998.38459472473, -30067.209013367778, 2600.0443220191387, -17427.45398610282, 20040.48467165049, 7275.179895780075, 0.008, 0.934, 0.244, 192.0, 0.0, 0.0, 0.0, 0.0, 0.0, 0.0, 0.0, 0.0, 0.0, 1.6878045220964968E9, 0.0, 2023-06-26 13:35:22.096
75.0, 54057.64926167122, 50372.98653995831, 18057.504958809015, -30099.28376666114, 2774.0079491147935, -17512.390615032986, 20067.574985930325, 7248.380154178161, 0.008, 0.934, 0.244, 192.0, 0.0, 0.0, 0.0, 0.0, 0.0, 0.0, 0.0, 0.0, 0.0, 1.6878045221004972E9, 0.0, 2023-06-26 13:35:22.100
76.0, 54011.78348204893, 50262.90419851592, 17846.43743591755, -30355.926496496977, 2642.3114707841246, -17765.255900055876, 19866.36458234365, 7036.1726923194765, 0.008, 0.934, 0.244, 192.0, 0.0, 0.0, 0.0, 0.0, 0.0, 0.0, 0.0, 0.0, 0.0, 1.6878045221045184E9, 0.0, 2023-06-26 13:35:22.104
77.0, 53936.05577183435, 50172.22317126074, 17785.148952621097, -30383.933232299478, 2477.10972751495, -17714.98682677589, 19824.790337656777, 7020.928802600957, 0.008, 0.934, 0.244, 192.0, 0.0, 0.0, 0.0, 0.0, 0.0, 0.0, 0.0, 0.0, 0.0, 1.6878045221085472E9, 0.0, 2023-06-26 13:35:22.108
78.0, 53946.96342312854, 50226.56026203159, 17995.232998756528, -30185.315631069618, 2600.0219702746836, -17471.106943024035, 20041.35638968425, 7235.9078807721, 0.008, 0.934, 0.244, 192.0, 0.0, 0.0, 0.0, 0.0, 0.0, 0.0, 0.0, 0.0, 0.0, 1.6878045221115513E9, 0.0, 2023-06-26 13:35:22.111
79.0, 53944.86235914974, 50266.94986426233, 17964.119370474742, -30189.182482860386, 2689.227782395814, -17513.75407144476, 20022.267999919415, 7191.651426750592, 0.008, 0.934, 0.244, 192.0, 0.0, 0.0, 0.0, 0.0, 0.0, 0.0, 0.0, 0.0, 0.0, 1.687804522115577E9, 0.0, 2023-06-26 13:35:22.115
80.0, 54004.474461612044, 50276.628169611475, 17845.029276016867, -30334.602932286612, 2669.1559158749483, -17687.58358807368, 19865.40345733207, 7020.302953756208, 0.004, 0.9520000000000001, 0.248, 192.0, 0.0, 32.0, 29.0, 192.0, 7.0, 192.0, 0.0, 0.0, 0.0, 1.687804522119677E9, 0.0, 2023-06-26 13:35:22.119
81.0, 53980.82631597833, 50234.94216620233, 17795.85543821519, -30344.460051591406, 2509.8997366308854, -17714.91977154252, 19838.20138432996, 7019.475939211362, 0.004, 0.9520000000000001, 0.248, 192.0, 0.0, 0.0, 0.0, 0.0, 0.0, 0.0, 0.0, 0.0, 0.0, 1.6878045221246166E9, 0.0, 2023-06-26 13:35:22.124
82.0, 54010.285915170425, 50304.97018158081, 17902.8755906672, -30185.896776425456, 2528.3846292954245, -17528.52857452972, 19984.538255278858, 7203.050816422799, 0.004, 0.9520000000000001, 0.248, 192.0, 0.0, 0.0, 0.0, 0.0, 0.0, 0.0, 0.0, 0.0, 0.0, 1.6878045221286483E9, 0.0, 2023-06-26 13:35:22.128
83.0, 54003.4462813671, 50291.22385874079, 18044.518595280482, -30111.420763900373, 2698.5037563447663, -17460.042829518658, 20064.848073106776, 7248.648375111625, 0.004, 0.9520000000000001, 0.248, 192.0, 0.0, 0.0, 0.0, 0.0, 0.0, 0.0, 0.0, 0.0, 0.0, 1.687804522132648E9, 0.0, 2023-06-26 13:35:22.132
84.0, 54025.01571476647, 50301.84093735706, 17914.766718717423, -30285.47379797385, 2708.1373582050037, -17664.181311628978, 19921.349873703704, 7077.098736417143, 0.004, 0.9520000000000001, 0.248, 192.0, 0.0, 0.0, 0.0, 0.0, 0.0, 0.0, 0.0, 0.0, 0.0, 1.6878045221356616E9, 0.0, 2023-06-26 13:35:22.135
85.0, 54041.667764385675, 50288.69811161734, 17836.222688701473, -30297.767257424268, 2556.7266412647537, -17709.823573806712, 19839.69895120847, 7030.607107950104, 0.004, 0.9520000000000001, 0.248, 192.0, 0.0, 0.0, 0.0, 0.0, 0.0, 0.0, 0.0, 0.0, 0.0, 1.6878045221396818E9, 0.0, 2023-06-26 13:35:22.139
86.0, 53972.39970831868, 50245.872169240974, 17921.382835076194, -30196.51385504173, 2512.7607599211647, -17554.1436736755, 19977.296290075337, 7185.6164557476595, 0.004, 0.9520000000000001, 0.248, 192.0, 0.0, 0.0, 0.0, 0.0, 0.0, 0.0, 0.0, 0.0, 0.0, 1.6878045221437008E9, 0.0, 2023-06-26 13:35:22.143
87.0, 54036.16923524967, 50337.20139708536, 18061.8635489778, -30106.0563452311, 2708.8749657720286, -17389.16544785088, 20095.514666499457, 7297.933971635577, 0.004, 0.9520000000000001, 0.248, 192.0, 0.0, 0.0, 0.0, 0.0, 0.0, 0.0, 0.0, 0.0, 0.0, 1.6878045221477408E9, 0.0, 2023-06-26 13:35:22.147
88.0, 54021.01475250897, 50314.670838674414, 17915.21375360653, -30265.491338430806, 2744.503646433788, -17580.943415277412, 19948.060208327795, 7112.705065334448, 0.004, 0.9520000000000001, 0.248, 192.0, 0.0, 0.0, 0.0, 0.0, 0.0, 0.0, 0.0, 0.0, 0.0, 1.68780452215276E9, 0.0, 2023-06-26 13:35:22.152
89.0, 53986.57071430334, 50231.544701045124, 17768.586309979717, -30402.26166275283, 2574.6750920623654, -17758.66213544156, 19812.273360761807, 6980.360386414574, 0.004, 0.9520000000000001, 0.248, 192.0, 0.0, 0.0, 0.0, 0.0, 0.0, 0.0, 0.0, 0.0, 0.0, 1.6878045221567876E9, 0.0, 2023-06-26 13:35:22.156
90.0, 53961.7379262135, 50254.32112864508, 17886.983500359478, -30216.675128540413, 2517.856957656975, -17603.652787644005, 19940.527670446358, 7141.9858505709, 0.002, 0.9580000000000001, 0.258, 192.0, 0.0, 16.0, 29.0, 240.0, 8.0, 16.0, 0.0, 0.0, 0.0, 1.6878045221608083E9, 0.0, 2023-06-26 13:35:22.160
91.0, 54018.667819341164, 50310.401655483445, 18052.47581630657, -30094.276975903154, 2683.572791048621, -17423.430672100865, 20109.30569282838, 7307.902849662644, 0.002, 0.9580000000000001, 0.258, 192.0, 0.0, 0.0, 0.0, 0.0, 0.0, 0.0, 0.0, 0.0, 0.0, 1.68780452216385E9, 0.0, 2023-06-26 13:35:22.163
92.0, 54047.16629352168, 50324.48325449029, 17953.99403023649, -30232.187239192397, 2742.1120097770704, -17551.729685274327, 19997.90459846313, 7159.286100779307, 0.002, 0.9580000000000001, 0.258, 192.0, 0.0, 0.0, 0.0, 0.0, 0.0, 0.0, 0.0, 0.0, 0.0, 1.6878045221678307E9, 0.0, 2023-06-26 13:35:22.167
93.0, 54013.12458671625, 50245.402782607416, 17781.75148746389, -30414.555122203248, 2579.458365375801, -17722.966399546433, 19832.45698600495, 6988.339959185119, 0.002, 0.9580000000000001, 0.258, 192.0, 0.0, 0.0, 0.0, 0.0, 0.0, 0.0, 0.0, 0.0, 0.0, 1.6878045221718607E9, 0.0, 2023-06-26 13:35:22.171
94.0, 53973.83021996382, 50234.56218654659, 17835.261563689895, -30322.309472836194, 2509.8773848864303, -17656.849939447635, 19909.99518752041, 7093.795489525258, 0.002, 0.9580000000000001, 0.258, 192.0, 0.0, 0.0, 0.0, 0.0, 0.0, 0.0, 0.0, 0.0, 0.0, 1.6878045221758344E9, 0.0, 2023-06-26 13:35:22.175
95.0, 53992.91860972865, 50323.36566726753, 18021.831574658343, -30101.206016684297, 2647.09474409756, -17388.472543772765, 20093.950044387584, 7292.547201221848, 0.002, 0.9580000000000001, 0.258, 192.0, 0.0, 0.0, 0.0, 0.0, 0.0, 0.0, 0.0, 0.0, 0.0, 1.687804522179891E9, 0.0, 2023-06-26 13:35:22.179
96.0, 54012.63284833823, 50315.74372240827, 17961.325402417828, -30194.323384085106, 2745.576530167643, -17472.35864071353, 20025.978389498996, 7189.304493582785, 0.002, 0.9580000000000001, 0.258, 192.0, 0.0, 0.0, 0.0, 0.0, 0.0, 0.0, 0.0, 0.0, 0.0, 1.68780452218492E9, 0.0, 2023-06-26 13:35:22.184
97.0, 54053.08950580234, 50289.52512616219, 17813.401557612608, -30404.519188942813, 2637.3046800261354, -17690.668128808516, 19860.17314912953, 7013.999761819811, 0.002, 0.9580000000000001, 0.258, 192.0, 0.0, 0.0, 0.0, 0.0, 0.0, 0.0, 0.0, 0.0, 0.0, 1.6878045221889434E9, 0.0, 2023-06-26 13:35:22.188
98.0, 54004.51916510096, 50249.157875675905, 17845.47631090597, -30322.018900158277, 2508.06689358555, -17628.105596078112, 19889.23041692143, 7087.984035966878, 0.002, 0.9580000000000001, 0.258, 192.0, 0.0, 0.0, 0.0, 0.0, 0.0, 0.0, 0.0, 0.0, 0.0, 1.6878045221919544E9, 0.0, 2023-06-26 13:35:22.191
99.0, 53967.571731516335, 50265.944035761844, 17989.08626903132, -30155.610162688514, 2608.1580052564154, -17431.991390227246, 20064.602203917766, 7262.193532251541, 0.002, 0.9580000000000001, 0.258, 192.0, 0.0, 0.0, 0.0, 0.0, 0.0, 0.0, 0.0, 0.0, 0.0, 1.6878045221959622E9, 0.0, 2023-06-26 13:35:22.195
100.0, 53973.89727519718, 50282.28316095867, 17963.627632096726, -30227.1357449455, 2742.201416754892, -17466.144855754956, 20058.76839861493, 7211.209203148986, 0.002, 0.9580000000000001, 0.258, 192.0, 0.0, 0.0, 29.0, 240.0, 8.0, 32.0, 0.0, 0.0, 0.0, 1.687804522199983E9, 0.0, 2023-06-26 13:35:22.199
101.0, 54037.10800851679, 50294.84484134255, 17845.900994050622, -30368.95756351442, 2675.9731979338167, -17679.760477514326, 19882.502541840382, 7028.908375371501, 0.002, 0.9580000000000001, 0.258, 192.0, 0.0, 0.0, 0.0, 0.0, 0.0, 0.0, 0.0, 0.0, 0.0, 1.6878045222039974E9, 0.0, 2023-06-26 13:35:22.203
102.0, 54049.69204064513, 50290.93328606287, 17869.705601895526, -30314.888693677032, 2553.8879697189295, -17652.938384167956, 19889.968024488455, 7069.610902024616, 0.002, 0.9580000000000001, 0.258, 192.0, 0.0, 0.0, 0.0, 0.0, 0.0, 0.0, 0.0, 0.0, 0.0, 1.6878045222080076E9, 0.0, 2023-06-26 13:35:22.208
103.0, 53995.15378417418, 50296.45416694334, 17973.46239965706, -30140.880363092467, 2583.995769500228, -17423.184802911856, 20040.7305408395, 7261.522979917882, 0.002, 0.9580000000000001, 0.258, 192.0, 0.0, 0.0, 0.0, 0.0, 0.0, 0.0, 0.0, 0.0, 0.0, 1.6878045222120256E9, 0.0, 2023-06-26 13:35:22.212
104.0, 54011.336447159825, 50323.700943434356, 18004.50897270548, -30169.40118901744, 2725.2140909688583, -17431.07496870458, 20071.710058654557, 7259.444267683539, 0.002, 0.9580000000000001, 0.258, 192.0, 0.0, 0.0, 0.0, 0.0, 0.0, 0.0, 0.0, 0.0, 0.0, 1.687804522217038E9, 0.0, 2023-06-26 13:35:22.217
105.0, 54028.21201422358, 50291.93911456336, 17863.15654077012, -30357.28995290875, 2695.5980295655763, -17657.38638131456, 19907.93882703052, 7056.915111174001, 0.002, 0.9580000000000001, 0.258, 192.0, 0.0, 0.0, 0.0, 0.0, 0.0, 0.0, 0.0, 0.0, 0.0, 1.6878045222201698E9, 0.0, 2023-06-26 13:35:22.220
106.0, 54000.09351969881, 50243.212311650794, 17806.0031301979, -30391.130494014087, 2547.6294812714436, -17679.0228699473, 19858.273250850827, 7037.469093497884, 0.002, 0.9580000000000001, 0.258, 192.0, 0.0, 0.0, 0.0, 0.0, 0.0, 0.0, 0.0, 0.0, 0.0, 1.6878045222231472E9, 0.0, 2023-06-26 13:35:22.223
107.0, 53970.700975740074, 50254.23172166726, 17923.506250799448, -30213.523532572217, 2548.3223853495583, -17463.775570842692, 20006.10768867823, 7213.600839805704, 0.002, 0.9580000000000001, 0.258, 192.0, 0.0, 0.0, 0.0, 0.0, 0.0, 0.0, 0.0, 0.0, 0.0, 1.6878045222281497E9, 0.0, 2023-06-26 13:35:22.228
108.0, 53996.092557441305, 50308.34529499356, 17992.975472566544, -30157.308895267117, 2704.091692458593, -17396.742689221228, 20086.68572743961, 7273.682328901569, 0.002, 0.9580000000000001, 0.258, 192.0, 0.0, 0.0, 0.0, 0.0, 0.0, 0.0, 0.0, 0.0, 0.0, 1.6878045222321563E9, 0.0, 2023-06-26 13:35:22.232
109.0, 54033.17410149266, 50297.21412625482, 17883.63073869118, -30333.105365408108, 2722.643640356498, -17589.414726425974, 19935.47617619946, 7097.751748293847, 0.002, 0.9580000000000001, 0.258, 192.0, 0.0, 0.0, 0.0, 0.0, 0.0, 0.0, 0.0, 0.0, 0.0, 1.6878045222361596E9, 0.0, 2023-06-26 13:35:22.236
110.0, 54017.95256351859, 50246.4086111079, 17794.536685292325, -30417.81847689372, 2566.002615213706, -17696.546637600262, 19835.765044184333, 7007.093072783122, 0.004, 0.9480000000000001, 0.262, 192.0, 0.0, 32.0, 29.0, 160.0, 8.0, 48.0, 0.0, 0.0, 0.0, 1.687804522240224E9, 0.0, 2023-06-26 13:35:22.240
111.0, 53975.93128394262, 50246.69918378582, 17897.73468944248, -30248.146384733485, 2539.135818378427, -17502.17586781691, 19995.222389128496, 7181.61549349016, 0.004, 0.9480000000000001, 0.262, 192.0, 0.0, 0.0, 0.0, 0.0, 0.0, 0.0, 0.0, 0.0, 0.0, 1.6878045222452164E9, 0.0, 2023-06-26 13:35:22.245
112.0, 53985.56488580286, 50293.01199829722, 17997.155248779687, -30149.843412619048, 2696.313285388146, -17371.976956364746, 20115.899457442698, 7285.72991916298, 0.004, 0.9480000000000001, 0.262, 192.0, 0.0, 0.0, 0.0, 0.0, 0.0, 0.0, 0.0, 0.0, 0.0, 1.6878045222482314E9, 0.0, 2023-06-26 13:35:22.248
113.0, 54022.89229904322, 50285.74768134924, 17902.607369733738, -30313.61464424308, 2744.213073755869, -17537.37986533402, 19978.63739474266, 7126.250222474364, 0.004, 0.9480000000000001, 0.262, 192.0, 0.0, 0.0, 0.0, 0.0, 0.0, 0.0, 0.0, 0.0, 0.0, 1.687804522251218E9, 0.0, 2023-06-26 13:35:22.251
114.0, 54012.0517029824, 50231.94703244532, 17787.22766485544, -30445.109956873654, 2593.2717434491806, -17690.48931485287, 19844.102244866164, 7011.5187181852725, 0.004, 0.9480000000000001, 0.262, 192.0, 0.0, 0.0, 0.0, 0.0, 0.0, 0.0, 0.0, 0.0, 0.0, 1.6878045222562451E9, 0.0, 2023-06-26 13:35:22.256
115.0, 53964.73305997051, 50221.44171255132, 17854.52876741037, -30306.41738252847, 2509.720922675243, -17547.952240461378, 19940.170042535072, 7142.835216860201, 0.004, 0.9480000000000001, 0.262, 192.0, 0.0, 0.0, 0.0, 0.0, 0.0, 0.0, 0.0, 0.0, 0.0, 1.6878045222602644E9, 0.0, 2023-06-26 13:35:22.260
116.0, 53956.19469358858, 50261.45133512632, 17971.27192870044, -30176.73256119878, 2639.584557960577, -17393.032299641647, 20072.179445288115, 7266.060384042309, 0.004, 0.9480000000000001, 0.262, 192.0, 0.0, 0.0, 0.0, 0.0, 0.0, 0.0, 0.0, 0.0, 0.0, 1.6878045222642868E9, 0.0, 2023-06-26 13:35:22.264
117.0, 53994.3938248627, 50272.96248352081, 17910.54223901537, -30304.09280110512, 2731.427875927434, -17518.00090289127, 19989.366232081204, 7140.309469736751, 0.004, 0.9480000000000001, 0.262, 192.0, 0.0, 0.0, 0.0, 0.0, 0.0, 0.0, 0.0, 0.0, 0.0, 1.6878045222683108E9, 0.0, 2023-06-26 13:35:22.268
118.0, 54002.32869414434, 50225.06269515309, 17787.026499155345, -30454.050654655774, 2614.3047349816247, -17692.232750920386, 19848.63964899059, 6992.318569698164, 0.004, 0.9480000000000001, 0.262, 192.0, 0.0, 0.0, 0.0, 0.0, 0.0, 0.0, 0.0, 0.0, 0.0, 1.687804522272342E9, 0.0, 2023-06-26 13:35:22.272
119.0, 53968.689318739096, 50211.36107580198, 17840.58127887026, -30341.39786260103, 2522.327306548036, -17579.33408967663, 19933.84449885422, 7115.5884403691825, 0.004, 0.9480000000000001, 0.262, 192.0, 0.0, 0.0, 0.0, 0.0, 0.0, 0.0, 0.0, 0.0, 0.0, 1.6878045222763522E9, 0.0, 2023-06-26 13:35:22.276
120.0, 53964.64365299269, 50264.066489227596, 17981.017289282954, -30167.233069805276, 2635.9188718699065, -17380.73884019123, 20098.912131656663, 7295.296465789851, 0.004, 0.9480000000000001, 0.262, 192.0, 0.0, 0.0, 0.0, 0.0, 0.0, 0.0, 0.0, 0.0, 0.0, 1.6878045222793336E9, 0.0, 2023-06-26 13:35:22.279
121.0, 53999.49002259851, 50284.69714935985, 17948.093169700285, -30252.259105713263, 2749.666899402964, -17459.394628929454, 20043.613915874233, 7203.363740845173, 0.006, 0.9420000000000001, 0.266, 192.0, 0.0, 48.0, 29.0, 112.0, 8.0, 80.0, 0.0, 0.0, 0.0, 1.6878045222843428E9, 0.0, 2023-06-26 13:35:22.284
122.0, 54005.033255223425, 50228.14723588792, 17798.314130105275, -30439.544372504282, 2641.4397527503675, -17673.725506511393, 19864.35292534267, 7013.440968208429, 0.006, 0.9420000000000001, 0.266, 192.0, 0.0, 0.0, 0.0, 0.0, 0.0, 0.0, 0.0, 0.0, 0.0, 1.6878045222884047E9, 0.0, 2023-06-26 13:35:22.288
123.0, 53973.807868219366, 50203.023875120154, 17814.519144835373, -30371.63977284906, 2520.516815247156, -17608.30195049071, 19900.696861827, 7081.345567863652, 0.006, 0.9420000000000001, 0.266, 192.0, 0.0, 0.0, 0.0, 0.0, 0.0, 0.0, 0.0, 0.0, 0.0, 1.6878045222924037E9, 0.0, 2023-06-26 13:35:22.292
124.0, 53948.39393477368, 50235.27744236916, 17947.512024344447, -30193.20579686234, 2591.9976940152283, -17406.331587592555, 20065.473921951525, 7261.232407239963, 0.006, 0.9420000000000001, 0.266, 192.0, 0.0, 0.0, 0.0, 0.0, 0.0, 0.0, 0.0, 0.0, 0.0, 1.687804522296415E9, 0.0, 2023-06-26 13:35:22.296
125.0, 53977.65236826568, 50263.68650957185, 17944.651001054168, -30238.490431128794, 2726.1081607470705, -17438.093416463544, 20052.711075867544, 7216.171290418064, 0.006, 0.9420000000000001, 0.266, 192.0, 0.0, 0.0, 0.0, 0.0, 0.0, 0.0, 0.0, 0.0, 0.0, 1.687804522300455E9, 0.0, 2023-06-26 13:35:22.300
126.0, 54011.55996460438, 50238.98783194874, 17814.18386866854, -30420.92536937301, 2673.1792298769033, -17651.038485889254, 19885.542379086302, 7025.622668936571, 0.006, 0.9420000000000001, 0.266, 192.0, 0.0, 0.0, 0.0, 0.0, 0.0, 0.0, 0.0, 0.0, 0.0, 1.6878045223034515E9, 0.0, 2023-06-26 13:35:22.303
127.0, 53958.29575756738, 50179.06280506406, 17769.010993124368, -30427.809706665244, 2508.4468732412906, -17670.55155879874, 19843.45404427696, 7015.899660098513, 0.006, 0.9420000000000001, 0.266, 192.0, 0.0, 0.0, 0.0, 0.0, 0.0, 0.0, 0.0, 0.0, 0.0, 1.6878045223074656E9, 0.0, 2023-06-26 13:35:22.307
128.0, 53926.95861184104, 50204.65555246539, 17899.34401504326, -30240.815012552146, 2544.0979056475053, -17461.383934185975, 20014.95897948253, 7206.984723446933, 0.006, 0.9420000000000001, 0.266, 192.0, 0.0, 0.0, 0.0, 0.0, 0.0, 0.0, 0.0, 0.0, 0.0, 1.6878045223114853E9, 0.0, 2023-06-26 13:35:22.311
129.0, 53979.4405078221, 50273.58833236556, 17966.466303642548, -30199.79956147666, 2720.5649281221545, -17399.49195378923, 20078.281471524417, 7244.021564009377, 0.006, 0.9420000000000001, 0.266, 192.0, 0.0, 0.0, 0.0, 0.0, 0.0, 0.0, 0.0, 0.0, 0.0, 1.6878045223155067E9, 0.0, 2023-06-26 13:35:22.315
130.0, 54005.56969709035, 50246.54272157463, 17830.29947642082, -30392.315136470217, 2697.4532243553667, -17609.28542724674, 19901.9485595165, 7046.722715702381, 0.006, 0.9420000000000001, 0.266, 192.0, 0.0, 0.0, 0.0, 0.0, 0.0, 0.0, 0.0, 0.0, 0.0, 1.6878045223205566E9, 0.0, 2023-06-26 13:35:22.320
131.0, 53979.48521131101, 50197.011255861675, 17770.37444953614, -30427.653244454057, 2542.354469579991, -17670.35039309864, 19840.280096564307, 7014.737369386837, 0.004, 0.9500000000000001, 0.268, 192.0, 0.0, 32.0, 29.0, 176.0, 8.0, 96.0, 0.0, 0.0, 0.0, 1.6878045223245728E9, 0.0, 2023-06-26 13:35:22.324
132.0, 53945.66702195013, 50214.73618921473, 17889.173971316097, -30242.469041641838, 2535.648946243399, -17473.83385584758, 20001.19030489806, 7202.804947233791, 0.004, 0.9500000000000001, 0.268, 192.0, 0.0, 0.0, 0.0, 0.0, 0.0, 0.0, 0.0, 0.0, 0.0, 1.6878045223275824E9, 0.0, 2023-06-26 13:35:22.327
133.0, 53967.52702802742, 50265.117021217, 17960.990126251, -30183.371029302005, 2686.5008695722663, -17387.623177483463, 20075.420448234137, 7254.348069947729, 0.004, 0.9500000000000001, 0.268, 192.0, 0.0, 0.0, 0.0, 0.0, 0.0, 0.0, 0.0, 0.0, 0.0, 1.6878045223315885E9, 0.0, 2023-06-26 13:35:22.331
134.0, 53985.07314742484, 50234.71864875778, 17829.405406642607, -30387.509511412325, 2691.5970673080765, -17600.970578309367, 19905.21191420697, 7049.874311670579, 0.004, 0.9500000000000001, 0.268, 192.0, 0.0, 0.0, 0.0, 0.0, 0.0, 0.0, 0.0, 0.0, 0.0, 1.687804522335621E9, 0.0, 2023-06-26 13:35:22.335
135.0, 53971.72915598502, 50183.01906383265, 17749.94495510399, -30451.077872643218, 2542.935614935829, -17702.939236514478, 19810.149945038553, 6976.895866024001, 0.004, 0.9500000000000001, 0.268, 192.0, 0.0, 0.0, 0.0, 0.0, 0.0, 0.0, 0.0, 0.0, 0.0, 1.687804522339648E9, 0.0, 2023-06-26 13:35:22.339
136.0, 53936.72632416801, 50190.19397380281, 17853.210014487508, -30278.790626381713, 2499.953210348274, -17514.648141222973, 19950.027161839862, 7154.703993165969, 0.004, 0.9500000000000001, 0.268, 192.0, 0.0, 0.0, 0.0, 0.0, 0.0, 0.0, 0.0, 0.0, 0.0, 1.6878045223436468E9, 0.0, 2023-06-26 13:35:22.343
137.0, 53957.75931570045, 50251.84008501054, 17964.856978041767, -30166.49546223825, 2662.8527239385517, -17371.68638368683, 20088.719736185045, 7268.116744532197, 0.004, 0.9500000000000001, 0.268, 192.0, 0.0, 0.0, 0.0, 0.0, 0.0, 0.0, 0.0, 0.0, 0.0, 1.6878045223486705E9, 0.0, 2023-06-26 13:35:22.348
138.0, 53985.72134801404, 50243.435829095346, 17864.25177624843, -30332.077185163165, 2712.7418175627968, -17540.173833390934, 19961.672420701077, 7095.538925592772, 0.004, 0.9500000000000001, 0.268, 192.0, 0.0, 0.0, 0.0, 0.0, 0.0, 0.0, 0.0, 0.0, 0.0, 1.6878045223527489E9, 0.0, 2023-06-26 13:35:22.352
139.0, 53973.89727519718, 50186.64004643441, 17747.575670191727, -30457.850451213177, 2568.617769314977, -17694.40087013255, 19832.45698600495, 6985.791860317214, 0.004, 0.9500000000000001, 0.268, 192.0, 0.0, 0.0, 0.0, 0.0, 0.0, 0.0, 0.0, 0.0, 0.0, 1.6878045223557203E9, 0.0, 2023-06-26 13:35:22.355
140.0, 53948.52804524041, 50197.16771807286, 17838.30140093582, -30302.885806904535, 2505.3399807620026, -17535.055283910668, 19949.401312995116, 7148.892539607589, 0.004, 0.9500000000000001, 0.268, 192.0, 0.0, 0.0, 0.0, 0.0, 0.0, 0.0, 0.0, 0.0, 0.0, 1.6878045223597305E9, 0.0, 2023-06-26 13:35:22.359
141.0, 53940.861396892244, 50239.77014300468, 17953.010553480453, -30169.60235471754, 2633.8625113800185, -17373.318061032067, 20107.584608505324, 7282.220695283497, 0.006, 0.9400000000000001, 0.262, 192.0, 0.0, 48.0, 29.0, 96.0, 8.0, 48.0, 0.0, 0.0, 0.0, 1.6878045223637507E9, 0.0, 2023-06-26 13:35:22.363
142.0, 53979.55226654438, 50253.58352107806, 17893.53256148488, -30291.173492809954, 2727.963355536861, -17494.9786061023, 20019.026996973396, 7145.428019217017, 0.006, 0.9400000000000001, 0.262, 192.0, 0.0, 0.0, 0.0, 0.0, 0.0, 0.0, 0.0, 0.0, 0.0, 1.6878045223677835E9, 0.0, 2023-06-26 13:35:22.367
143.0, 53976.177153131626, 50194.06082559357, 17756.918699374044, -30454.967076178444, 2605.721665110787, -17682.755611271336, 19852.998239159377, 6988.295255696208, 0.006, 0.9400000000000001, 0.262, 192.0, 0.0, 0.0, 0.0, 0.0, 0.0, 0.0, 0.0, 0.0, 0.0, 1.6878045223718035E9, 0.0, 2023-06-26 13:35:22.371
144.0, 53932.14421655467, 50169.02687180363, 17795.587217281725, -30357.044083719742, 2494.521736445634, -17587.96186303638, 19913.90674280009, 7086.195896410453, 0.006, 0.9400000000000001, 0.262, 192.0, 0.0, 0.0, 0.0, 0.0, 0.0, 0.0, 0.0, 0.0, 0.0, 1.6878045223758092E9, 0.0, 2023-06-26 13:35:22.375
145.0, 53932.23362353249, 50225.62148876447, 17940.515928329936, -30173.91624139741, 2604.3358569545576, -17388.450192028307, 20080.248425036483, 7264.316947974796, 0.006, 0.9400000000000001, 0.262, 192.0, 0.0, 0.0, 0.0, 0.0, 0.0, 0.0, 0.0, 0.0, 0.0, 1.68780452238084E9, 0.0, 2023-06-26 13:35:22.380
146.0, 53965.91770242664, 50247.14621867493, 17908.7764512034, -30255.41070168146, 2722.576585123132, -17463.283832464676, 20028.906468022644, 7174.865266664657, 0.006, 0.9400000000000001, 0.262, 192.0, 0.0, 0.0, 0.0, 0.0, 0.0, 0.0, 0.0, 0.0, 0.0, 1.687804522383842E9, 0.0, 2023-06-26 13:35:22.383
147.0, 53963.235493092005, 50188.338779013015, 17754.46000748396, -30450.11674763164, 2614.617659403999, -17686.242483406364, 19841.822366931723, 6969.765659542759, 0.006, 0.9400000000000001, 0.262, 192.0, 0.0, 0.0, 0.0, 0.0, 0.0, 0.0, 0.0, 0.0, 0.0, 1.687804522387872E9, 0.0, 2023-06-26 13:35:22.387
148.0, 53921.30362049385, 50148.552673882565, 17757.589251707705, -30398.7747906178, 2481.5353729171006, -17642.567174740696, 19861.380143330116, 7025.801482892214, 0.006, 0.9400000000000001, 0.262, 192.0, 0.0, 0.0, 0.0, 0.0, 0.0, 0.0, 0.0, 0.0, 0.0, 1.6878045223929052E9, 0.0, 2023-06-26 13:35:22.392
149.0, 53923.114111794726, 50205.326104799045, 17918.991198419477, -30192.60229976205, 2570.65177806041, -17418.088605176046, 20054.409808446148, 7233.873872026667, 0.006, 0.9400000000000001, 0.262, 192.0, 0.0, 0.0, 0.0, 0.0, 0.0, 0.0, 0.0, 0.0, 0.0, 1.6878045223959184E9, 0.0, 2023-06-26 13:35:22.395
150.0, 53970.47745829552, 50257.47272461328, 17939.823024251822, -30213.679994783404, 2720.9002042889842, -17430.87380300448, 20053.225165990018, 7203.4084443340835, 0.006, 0.9400000000000001, 0.262, 192.0, 0.0, 0.0, 0.0, 0.0, 0.0, 0.0, 0.0, 0.0, 0.0, 1.6878045223999572E9, 0.0, 2023-06-26 13:35:22.399
151.0, 53964.218969848036, 50195.73720642772, 17769.502731502384, -30431.698910200466, 2634.845988136052, -17669.433971575974, 19853.959364170954, 6979.622778847549, 0.002, 0.9500000000000001, 0.262, 192.0, 0.0, 16.0, 29.0, 176.0, 8.0, 48.0, 0.0, 0.0, 0.0, 1.6878045224040546E9, 0.0, 2023-06-26 13:35:22.404
152.0, 53942.269556792926, 50165.830572346524, 17755.42113249554, -30408.676613411502, 2499.4167684813465, -17666.572948285695, 19847.522061767824, 7004.902601826501, 0.002, 0.9500000000000001, 0.262, 192.0, 0.0, 0.0, 0.0, 0.0, 0.0, 0.0, 0.0, 0.0, 0.0, 1.687804522407977E9, 0.0, 2023-06-26 13:35:22.407
153.0, 53927.74092289698, 50208.611811233975, 17903.59084648977, -30201.16301788843, 2546.623652770955, -17441.893213020947, 20025.24078193197, 7213.869060739167, 0.002, 0.9500000000000001, 0.262, 192.0, 0.0, 0.0, 0.0, 0.0, 0.0, 0.0, 0.0, 0.0, 0.0, 1.6878045224119868E9, 0.0, 2023-06-26 13:35:22.411
154.0, 53958.765144200945, 50259.08205021406, 17949.590736578793, -30179.571232744605, 2704.158747691959, -17406.912732948393, 20080.98603260351, 7224.374380633161, 0.002, 0.9500000000000001, 0.262, 192.0, 0.0, 0.0, 0.0, 0.0, 0.0, 0.0, 0.0, 0.0, 0.0, 1.6878045224149983E9, 0.0, 2023-06-26 13:35:22.414
155.0, 53971.282121095915, 50221.061732895585, 17804.416156341573, -30381.273374709297, 2675.9731979338167, -17629.312590278696, 19914.04085326682, 7021.800520634713, 0.002, 0.9500000000000001, 0.262, 192.0, 0.0, 0.0, 0.0, 0.0, 0.0, 0.0, 0.0, 0.0, 0.0, 1.6878045224200325E9, 0.0, 2023-06-26 13:35:22.420
156.0, 53930.35607699824, 50157.76159259815, 17728.353169960163, -30433.621160223625, 2505.9211261178407, -17702.000463247357, 19831.6299714601, 6972.805496788681, 0.002, 0.9500000000000001, 0.262, 192.0, 0.0, 0.0, 0.0, 0.0, 0.0, 0.0, 0.0, 0.0, 0.0, 1.6878045224240427E9, 0.0, 2023-06-26 13:35:22.424
157.0, 53895.353245181235, 50172.02200556064, 17844.00109577192, -30253.66726561395, 2490.297256743581, -17503.65108295096, 19979.263243587404, 7156.402725744573, 0.002, 0.9500000000000001, 0.262, 192.0, 0.0, 0.0, 0.0, 0.0, 0.0, 0.0, 0.0, 0.0, 0.0, 1.6878045224281125E9, 0.0, 2023-06-26 13:35:22.428
158.0, 53911.93823956708, 50217.23958459373, 17914.54320127287, -30193.094038140065, 2646.513598741722, -17422.313084878097, 20069.07255280883, 7220.574584075759, 0.002, 0.9500000000000001, 0.262, 192.0, 0.0, 0.0, 0.0, 0.0, 0.0, 0.0, 0.0, 0.0, 0.0, 1.687804522432116E9, 0.0, 2023-06-26 13:35:22.432
159.0, 53958.273405822925, 50218.401875305404, 17820.442357116026, -30352.216106917396, 2687.6184567950318, -17597.640168385526, 19942.986362336444, 7051.170712848987, 0.002, 0.9500000000000001, 0.262, 192.0, 0.0, 0.0, 0.0, 0.0, 0.0, 0.0, 0.0, 0.0, 0.0, 1.687804522436136E9, 0.0, 2023-06-26 13:35:22.436
160.0, 53948.08101035131, 50171.26204624916, 17738.478510198416, -30428.770831676822, 2543.4720568027565, -17700.7264138134, 19847.11973036763, 6975.733575312326, 0.002, 0.9500000000000001, 0.262, 192.0, 0.0, 0.0, 0.0, 0.0, 0.0, 0.0, 0.0, 0.0, 0.0, 1.687804522440113E9, 0.0, 2023-06-26 13:35:22.440
161.0, 53901.5223266509, 50165.45059269078, 17823.48219436195, -30278.99179208181, 2488.4420619537905, -17540.777330491226, 19969.964917893998, 7138.118998780132, 0.002, 0.9500000000000001, 0.262, 192.0, 0.0, 0.0, 0.0, 0.0, 0.0, 0.0, 0.0, 0.0, 0.0, 1.6878045224431489E9, 0.0, 2023-06-26 13:35:22.443
162.0, 53909.09956802125, 50213.52919501415, 17921.047558909366, -30175.369104787005, 2634.3095462691244, -17412.92535220687, 20082.573006459836, 7230.565813847282, -0.004, 0.964, 0.268, 192.0, 255.0, 224.0, 30.0, 32.0, 8.0, 96.0, 0.0, 0.0, 0.0, 1.6878045224471588E9, 0.0, 2023-06-26 13:35:22.447
163.0, 53954.02657437642, 50219.877090439455, 17840.782444570355, -30316.542722766728, 2700.1801371789143, -17561.072714456644, 19965.04753411383, 7075.489410816362, -0.004, 0.964, 0.268, 192.0, 0.0, 0.0, 0.0, 0.0, 0.0, 0.0, 0.0, 0.0, 0.0, 1.6878045224521852E9, 0.0, 2023-06-26 13:35:22.452
164.0, 53944.23651030499, 50163.371880456434, 17726.78854784829, -30440.036110882298, 2558.939463965829, -17707.230771449897, 19836.055616862253, 6953.068906434644, -0.004, 0.964, 0.268, 192.0, 0.0, 0.0, 0.0, 0.0, 0.0, 0.0, 0.0, 0.0, 0.0, 1.6878045224562192E9, 0.0, 2023-06-26 13:35:22.456
165.0, 53914.307524479336, 50166.74699386919, 17807.724214520957, -30294.414495755973, 2490.0066840656623, -17555.61888880955, 19950.8094728958, 7116.7060275919475, -0.004, 0.964, 0.268, 192.0, 0.0, 0.0, 0.0, 0.0, 0.0, 0.0, 0.0, 0.0, 0.0, 1.6878045224602425E9, 0.0, 2023-06-26 13:35:22.460
166.0, 53929.126731053206, 50231.0082591782, 17939.9347829741, -30142.512040437705, 2628.1851682883703, -17382.258758814187, 20106.668186982657, 7267.356785220717, -0.004, 0.964, 0.268, 192.0, 0.0, 0.0, 0.0, 0.0, 0.0, 0.0, 0.0, 0.0, 0.0, 1.6878045224642508E9, 0.0, 2023-06-26 13:35:22.464
167.0, 53962.989623903, 50238.36198310399, 17878.378078744183, -30264.843137841603, 2723.090675245604, -17503.919303884424, 20017.417671372616, 7128.865376575634, -0.004, 0.964, 0.268, 192.0, 0.0, 0.0, 0.0, 0.0, 0.0, 0.0, 0.0, 0.0, 0.0, 1.6878045224682703E9, 0.0, 2023-06-26 13:35:22.468
168.0, 53953.26661506494, 50173.586627672514, 17734.991638063388, -30437.17508759202, 2595.775138828175, -17704.01212024833, 19848.818462946234, 6953.493589579295, -0.004, 0.964, 0.268, 192.0, 0.0, 0.0, 0.0, 0.0, 0.0, 0.0, 0.0, 0.0, 0.0, 1.6878045224712963E9, 0.0, 2023-06-26 13:35:22.471
169.0, 53920.05192280435, 50159.57208389904, 17779.71747871846, -30340.503792822816, 2487.4362334533016, -17610.380662725052, 19912.9009142996, 7059.910244931012, -0.004, 0.964, 0.268, 192.0, 0.0, 0.0, 0.0, 0.0, 0.0, 0.0, 0.0, 0.0, 0.0, 1.6878045224753432E9, 0.0, 2023-06-26 13:35:22.475
170.0, 53908.74194010996, 50205.59432573251, 17911.03397739339, -30178.699514710846, 2584.3086939226027, -17412.053634173113, 20073.073515066328, 7232.309249914796, -0.004, 0.964, 0.268, 192.0, 0.0, 0.0, 0.0, 0.0, 0.0, 0.0, 0.0, 0.0, 0.0, 1.687804522479322E9, 0.0, 2023-06-26 13:35:22.479
171.0, 53956.26174882195, 50241.357116861, 17898.271131309408, -30238.02104449523, 2717.502739131777, -17476.381954715485, 20036.416654159624, 7153.765219898846, -0.004, 0.964, 0.268, 192.0, 0.0, 0.0, 0.0, 0.0, 0.0, 0.0, 0.0, 0.0, 0.0, 1.6878045224843488E9, 0.0, 2023-06-26 13:35:22.484
172.0, 53943.56595797133, 50170.12210728194, 17734.857527596658, -30446.629875496612, 2607.733322111764, -17713.22103896392, 19848.438483290494, 6937.847368460581, -0.002, 0.9560000000000001, 0.274, 192.0, 255.0, 240.0, 29.0, 224.0, 8.0, 144.0, 0.0, 0.0, 0.0, 1.6878045224883883E9, 0.0, 2023-06-26 13:35:22.488
173.0, 53909.36778895471, 50142.137723223896, 17743.060617811756, -30388.69415386846, 2475.9697885477294, -17654.838282446657, 19879.88738773911, 7016.5702124321715, -0.002, 0.9560000000000001, 0.274, 192.0, 0.0, 0.0, 0.0, 0.0, 0.0, 0.0, 0.0, 0.0, 0.0, 1.6878045224923987E9, 0.0, 2023-06-26 13:35:22.492
174.0, 53920.11897803772, 50209.863508923474, 17908.284712825385, -30175.436160020374, 2567.0531472031057, -17421.30725637761, 20077.029773834918, 7233.359781904195, -0.002, 0.9560000000000001, 0.274, 192.0, 0.0, 0.0, 0.0, 0.0, 0.0, 0.0, 0.0, 0.0, 0.0, 1.687804522495408E9, 0.0, 2023-06-26 13:35:22.495
175.0, 53943.34244052678, 50234.71864875778, 17910.318721570817, -30218.373861119017, 2702.2364976688027, -17450.006896258223, 20069.944270842585, 7182.733080712925, -0.002, 0.9560000000000001, 0.274, 192.0, 0.0, 0.0, 0.0, 0.0, 0.0, 0.0, 0.0, 0.0, 0.0, 1.6878045224994285E9, 0.0, 2023-06-26 13:35:22.499
176.0, 53966.163571615645, 50199.49229949621, 17769.502731502384, -30413.10225881365, 2643.4737614958003, -17672.54086405526, 19885.095344197198, 6977.745232313304, -0.002, 0.9560000000000001, 0.274, 192.0, 0.0, 0.0, 0.0, 0.0, 0.0, 0.0, 0.0, 0.0, 0.0, 1.6878045225035086E9, 0.0, 2023-06-26 13:35:22.503
177.0, 53930.13255955369, 50151.81602857304, 17726.36386470364, -30417.349090260162, 2494.5440881900895, -17687.65064330705, 19863.637669520103, 6990.262209208276, -0.002, 0.9560000000000001, 0.274, 192.0, 0.0, 0.0, 0.0, 0.0, 0.0, 0.0, 0.0, 0.0, 0.0, 1.687804522507476E9, 0.0, 2023-06-26 13:35:22.507
178.0, 53915.29100123537, 50194.440805249316, 17876.29936650984, -30217.25627389625, 2528.0270013841396, -17463.954384798337, 20042.74219784048, 7198.066377409265, -0.002, 0.9560000000000001, 0.274, 192.0, 0.0, 0.0, 0.0, 0.0, 0.0, 0.0, 0.0, 0.0, 0.0, 1.6878045225124805E9, 0.0, 2023-06-26 13:35:22.512
179.0, 53933.99941134446, 50232.885805712445, 17907.50240176945, -30209.679032525903, 2670.9887589202835, -17440.55210835363, 20075.576910445325, 7190.287970338818, -0.002, 0.9560000000000001, 0.274, 192.0, 0.0, 0.0, 0.0, 0.0, 0.0, 0.0, 0.0, 0.0, 0.0, 1.687804522516523E9, 0.0, 2023-06-26 13:35:22.516
180.0, 53956.75348719997, 50199.76052042968, 17768.653365213082, -30407.35786048864, 2642.6690986954095, -17658.302802837232, 19888.693975054503, 6979.443964891907, -0.002, 0.9560000000000001, 0.274, 192.0, 0.0, 0.0, 0.0, 0.0, 0.0, 0.0, 0.0, 0.0, 0.0, 1.6878045225195353E9, 0.0, 2023-06-26 13:35:22.519
181.0, 53938.24624279097, 50157.89570306489, 17712.863411052636, -30441.108994616152, 2491.5713061775336, -17710.60588486265, 19826.801994657755, 6956.712240780859, -0.002, 0.9560000000000001, 0.274, 192.0, 0.0, 0.0, 0.0, 0.0, 0.0, 0.0, 0.0, 0.0, 0.0, 1.687804522523527E9, 0.0, 2023-06-26 13:35:22.523
182.0, 53924.11994029522, 50194.66432269387, 17853.075904020778, -30233.50599211526, 2503.328323761025, -17485.680280408895, 20016.277732405393, 7174.03825211981, -0.004, 0.9560000000000001, 0.27, 192.0, 255.0, 224.0, 29.0, 224.0, 8.0, 112.0, 0.0, 0.0, 0.0, 1.6878045225275447E9, 0.0, 2023-06-26 13:35:22.527
183.0, 53942.9848126155, 50246.25214889672, 17931.30700961435, -30167.948325627844, 2664.0820698835937, -17401.0565759011, 20106.355262560282, 7230.454055125005, -0.004, 0.9560000000000001, 0.27, 192.0, 0.0, 0.0, 0.0, 0.0, 0.0, 0.0, 0.0, 0.0, 0.0, 1.6878045225315676E9, 0.0, 2023-06-26 13:35:22.531
184.0, 53976.35596708727, 50233.9586894463, 17824.86800251818, -30343.834202746657, 2699.1743086784254, -17589.57118863716, 19980.29142383235, 7054.5458262617385, -0.004, 0.9560000000000001, 0.27, 192.0, 0.0, 0.0, 0.0, 0.0, 0.0, 0.0, 0.0, 0.0, 0.0, 1.6878045225355797E9, 0.0, 2023-06-26 13:35:22.535
185.0, 53957.982833145004, 50176.8946858519, 17732.89057408459, -30423.20524730745, 2548.6353097719325, -17696.01019573333, 19875.50644582587, 6971.598502588094, -0.004, 0.9560000000000001, 0.27, 192.0, 0.0, 0.0, 0.0, 0.0, 0.0, 0.0, 0.0, 0.0, 0.0, 1.687804522539616E9, 0.0, 2023-06-26 13:35:22.539
186.0, 53922.04122806087, 50184.53898245561, 17822.43166237255, -30267.927678576434, 2494.521736445634, -17530.070844897135, 19988.33805183626, 7127.278402719307, -0.004, 0.9560000000000001, 0.27, 192.0, 0.0, 0.0, 0.0, 0.0, 0.0, 0.0, 0.0, 0.0, 0.0, 1.6878045225446477E9, 0.0, 2023-06-26 13:35:22.544
187.0, 53924.0305333174, 50227.141407387426, 17917.694797241067, -30167.031904105177, 2628.4310374773786, -17403.425860813364, 20103.449535781092, 7233.158616204098, -0.004, 0.9560000000000001, 0.27, 192.0, 0.0, 0.0, 0.0, 0.0, 0.0, 0.0, 0.0, 0.0, 0.0, 1.687804522547679E9, 0.0, 2023-06-26 13:35:22.547
188.0, 53953.35602204276, 50219.92179392836, 17829.405406642607, -30321.907141436, 2687.3725876060234, -17566.928871503937, 19980.9172726771, 7068.359204335118, -0.004, 0.9560000000000001, 0.27, 192.0, 0.0, 0.0, 0.0, 0.0, 0.0, 0.0, 0.0, 0.0, 0.0, 1.687804522551695E9, 0.0, 2023-06-26 13:35:22.551
189.0, 53942.71659168203, 50162.88014207842, 17711.008216262846, -30452.150756377076, 2547.7412399937202, -17727.0344170373, 19840.8835936646, 6937.020353915734, -0.004, 0.9560000000000001, 0.27, 192.0, 0.0, 0.0, 0.0, 0.0, 0.0, 0.0, 0.0, 0.0, 0.0, 1.687804522555693E9, 0.0, 2023-06-26 13:35:22.555
190.0, 53911.17828025559, 50160.95789205527, 17786.71357473297, -30311.491228519826, 2472.3935094348803, -17582.709203089384, 19943.8580803702, 7083.759556264825, -0.004, 0.9560000000000001, 0.27, 192.0, 0.0, 0.0, 0.0, 0.0, 0.0, 0.0, 0.0, 0.0, 0.0, 1.6878045225596974E9, 0.0, 2023-06-26 13:35:22.559
191.0, 53927.919736852615, 50229.309526599594, 17931.709341014546, -30146.49065095075, 2616.85283384953, -17397.413241554885, 20113.060785896872, 7242.926328531066, -0.004, 0.9560000000000001, 0.27, 192.0, 0.0, 0.0, 0.0, 0.0, 0.0, 0.0, 0.0, 0.0, 0.0, 1.6878045225658374E9, 0.0, 2023-06-26 13:35:22.565
192.0, 53955.85941742175, 50234.89746271342, 17870.174988529085, -30266.407759953472, 2710.931326261917, -17515.69867321237, 20028.459433133536, 7117.331876436696, -0.004, 0.9520000000000001, 0.268, 192.0, 255.0, 224.0, 29.0, 192.0, 8.0, 96.0, 0.0, 0.0, 0.0, 1.6878045225687644E9, 0.0, 2023-06-26 13:35:22.568
193.0, 53950.718516197034, 50173.29605499459, 17727.816728093236, -30436.50453525836, 2582.095871221527, -17717.534925643795, 19858.340306084196, 6944.463484819351, -0.004, 0.9520000000000001, 0.268, 192.0, 0.0, 0.0, 0.0, 0.0, 0.0, 0.0, 0.0, 0.0, 0.0, 1.6878045225717783E9, 0.0, 2023-06-26 13:35:22.571
194.0, 53921.080103049295, 50159.616787387946, 17768.251033812885, -30343.320112624184, 2471.4100326788466, -17634.20762231441, 19914.04085326682, 7028.751913160314, -0.004, 0.9520000000000001, 0.268, 192.0, 0.0, 0.0, 0.0, 0.0, 0.0, 0.0, 0.0, 0.0, 0.0, 1.6878045225757897E9, 0.0, 2023-06-26 13:35:22.575
195.0, 53919.58253617079, 50214.84794793701, 17906.854201180246, -30165.69079943786, 2573.6692635618765, -17427.476337847274, 20082.55065471538, 7220.932211987044, -0.004, 0.9520000000000001, 0.268, 192.0, 0.0, 0.0, 0.0, 0.0, 0.0, 0.0, 0.0, 0.0, 0.0, 1.6878045225788128E9, 0.0, 2023-06-26 13:35:22.578
196.0, 53938.626222446714, 50225.21915736427, 17872.29840425234, -30249.196916722885, 2687.3278841171127, -17497.41494624793, 20034.852032047755, 7138.118998780132, -0.004, 0.9520000000000001, 0.268, 192.0, 0.0, 0.0, 0.0, 0.0, 0.0, 0.0, 0.0, 0.0, 0.0, 1.6878045225838306E9, 0.0, 2023-06-26 13:35:22.583
197.0, 53951.769048186434, 50178.81693587505, 17735.12574853012, -30428.8825903991, 2598.546755140633, -17707.40958540554, 19852.8864804371, 6946.296327864687, -0.004, 0.9520000000000001, 0.268, 192.0, 0.0, 0.0, 0.0, 0.0, 0.0, 0.0, 0.0, 0.0, 0.0, 1.6878045225878685E9, 0.0, 2023-06-26 13:35:22.587
198.0, 53915.827443102295, 50139.92490052282, 17730.54364091678, -30388.06830502371, 2462.3799279189025, -17678.68759378047, 19867.97390794443, 6993.994950532312, -0.004, 0.9520000000000001, 0.268, 192.0, 0.0, 0.0, 0.0, 0.0, 0.0, 0.0, 0.0, 0.0, 0.0, 1.6878045225919693E9, 0.0, 2023-06-26 13:35:22.591
199.0, 53899.130689994185, 50179.800412631084, 17866.933985583066, -30197.340869586573, 2530.619803740955, -17464.468474920806, 20065.33981148479, 7202.536726300326, -0.004, 0.9520000000000001, 0.268, 192.0, 0.0, 0.0, 0.0, 0.0, 0.0, 0.0, 0.0, 0.0, 0.0, 1.6878045225958946E9, 0.0, 2023-06-26 13:35:22.595
200.0, 53943.096571337774, 50230.360058588994, 17901.266265066417, -30208.427334836404, 2688.713692273342, -17464.624937131994, 20082.058916337362, 7178.888580666612, -0.004, 0.9520000000000001, 0.268, 192.0, 0.0, 0.0, 0.0, 0.0, 0.0, 0.0, 0.0, 0.0, 0.0, 1.6878045225999537E9, 0.0, 2023-06-26 13:35:22.599
201.0, 53967.52702802742, 50202.241564064214, 17768.631013468625, -30391.510473669827, 2643.1161335845154, -17676.899454224047, 19899.400460648594, 6976.873514279547, -0.004, 0.9520000000000001, 0.268, 192.0, 0.0, 0.0, 0.0, 0.0, 0.0, 0.0, 0.0, 0.0, 0.0, 1.687804522603979E9, 0.0, 2023-06-26 13:35:22.603
202.0, 53932.36773399922, 50153.69357510729, 17728.800204849267, -30398.30540398424, 2480.8871723278967, -17700.83817253568, 19862.296564852782, 6977.7675840577585, -0.004, 0.9520000000000001, 0.268, 192.0, 0.0, 0.0, 0.0, 0.0, 0.0, 0.0, 0.0, 0.0, 0.0, 1.6878045226069453E9, 0.0, 2023-06-26 13:35:22.606
203.0, 53918.286134992384, 50192.02681684814, 17868.833883861767, -30200.15718938794, 2511.35260002048, -17487.066088565123, 20034.762625069932, 7179.08974636671, -0.004, 0.9520000000000001, 0.268, 192.0, 0.0, 0.0, 29.0, 224.0, 8.0, 96.0, 0.0, 0.0, 0.0, 1.6878045226109684E9, 0.0, 2023-06-26 13:35:22.610
204.0, 53934.26763227792, 50228.72838124375, 17901.467430766515, -30196.916186441922, 2657.197732591359, -17456.265384705708, 20073.386439488702, 7190.891467439112, -0.004, 0.9520000000000001, 0.268, 192.0, 0.0, 0.0, 0.0, 0.0, 0.0, 0.0, 0.0, 0.0, 0.0, 1.687804522615992E9, 0.0, 2023-06-26 13:35:22.615
205.0, 53948.30452779586, 50191.93740987032, 17759.109170330667, -30383.53090089928, 2634.354249758035, -17665.34360234065, 19907.760013074876, 6990.91040979748, -0.004, 0.9520000000000001, 0.268, 192.0, 0.0, 0.0, 0.0, 0.0, 0.0, 0.0, 0.0, 0.0, 0.0, 1.6878045226200123E9, 0.0, 2023-06-26 13:35:22.620
206.0, 53929.05967581984, 50147.90447329336, 17698.35712890114, -30424.121668830117, 2485.849259596975, -17727.32498971522, 19846.40447454506, 6954.544121568695, -0.004, 0.9520000000000001, 0.268, 192.0, 0.0, 0.0, 0.0, 0.0, 0.0, 0.0, 0.0, 0.0, 0.0, 1.6878045226241412E9, 0.0, 2023-06-26 13:35:22.624
207.0, 53904.98684704147, 50176.179430029326, 17822.76693853938, -30239.40685265146, 2476.528582159112, -17530.294362341687, 19997.9716536965, 7140.667097648036, -0.004, 0.9520000000000001, 0.268, 192.0, 0.0, 0.0, 0.0, 0.0, 0.0, 0.0, 0.0, 0.0, 0.0, 1.6878045226280448E9, 0.0, 2023-06-26 13:35:22.628
208.0, 53914.70985587953, 50219.854738695, 17897.77939293139, -30175.771436187202, 2629.1462932999484, -17439.590983342052, 20082.6400616932, 7203.944886201011, -0.004, 0.9520000000000001, 0.268, 192.0, 0.0, 0.0, 0.0, 0.0, 0.0, 0.0, 0.0, 0.0, 0.0, 1.6878045226311417E9, 0.0, 2023-06-26 13:35:22.631
209.0, 53946.56109172834, 50207.762444944674, 17787.674699744548, -30352.8643075066, 2660.125811115004, -17624.28344777625, 19948.082560072253, 7021.152320045509, -0.004, 0.9520000000000001, 0.268, 192.0, 0.0, 0.0, 0.0, 0.0, 0.0, 0.0, 0.0, 0.0, 0.0, 1.6878045226351616E9, 0.0, 2023-06-26 13:35:22.635
210.0, 53928.59028918628, 50152.44187741779, 17696.233713177888, -30447.27807608582, 2501.271963271137, -17747.016876580343, 19830.311218537237, 6926.4032752994635, -0.004, 0.9520000000000001, 0.268, 192.0, 0.0, 0.0, 0.0, 0.0, 0.0, 0.0, 0.0, 0.0, 0.0, 1.6878045226411612E9, 0.0, 2023-06-26 13:35:22.641
211.0, 53897.38725392667, 50161.919017066844, 17791.452144557494, -30282.299850261195, 2455.562645860034, -17577.68006058694, 19956.956202621008, 7098.824632027702, -0.004, 0.9520000000000001, 0.268, 192.0, 0.0, 0.0, 0.0, 0.0, 0.0, 0.0, 0.0, 0.0, 0.0, 1.687804522644176E9, 0.0, 2023-06-26 13:35:22.644
212.0, 53913.56991691231, 50222.62635500746, 17902.54031450037, -30166.048427349142, 2611.711932624809, -17429.577401826074, 20101.840210180308, 7216.350104373706, -0.004, 0.9520000000000001, 0.268, 192.0, 0.0, 0.0, 0.0, 0.0, 0.0, 0.0, 0.0, 0.0, 0.0, 1.6878045226481333E9, 0.0, 2023-06-26 13:35:22.648
213.0, 53951.701992953065, 50225.57678527556, 17820.487060604937, -30315.201618099407, 2676.8225642231187, -17573.56733960716, 19987.19811286904, 7056.758648962814, -0.002, 0.9540000000000001, 0.268, 192.0, 255.0, 240.0, 29.0, 208.0, 8.0, 96.0, 0.0, 0.0, 0.0, 1.6878045226521497E9, 0.0, 2023-06-26 13:35:22.652
214.0, 53944.41532426063, 50166.456421191266, 17699.36295740163, -30443.50063127287, 2531.3127078190696, -17740.46781545494, 19845.063369877742, 6924.637487487494, -0.002, 0.9540000000000001, 0.268, 192.0, 0.0, 0.0, 0.0, 0.0, 0.0, 0.0, 0.0, 0.0, 0.0, 1.6878045226561804E9, 0.0, 2023-06-26 13:35:22.656
215.0, 53901.54467839536, 50152.754801840165, 17763.333650032717, -30318.39791755652, 2445.236139921682, -17611.29708424772, 19939.857118112697, 7068.403907824029, -0.002, 0.9540000000000001, 0.268, 192.0, 0.0, 0.0, 0.0, 0.0, 0.0, 0.0, 0.0, 0.0, 0.0, 1.687804522659196E9, 0.0, 2023-06-26 13:35:22.659
216.0, 53911.53590816688, 50213.9538781588, 17897.801744675846, -30164.997895359746, 2574.1162984509824, -17435.008875728712, 20093.055974609375, 7219.2558311528965, -0.002, 0.9540000000000001, 0.268, 192.0, 0.0, 0.0, 0.0, 0.0, 0.0, 0.0, 0.0, 0.0, 0.0, 1.687804522663205E9, 0.0, 2023-06-26 13:35:22.663
217.0, 53943.655364949154, 50224.79447421962, 17843.710523094003, -30275.907251346976, 2670.7428897312748, -17541.559641547163, 20011.58386606978, 7102.579725096193, -0.002, 0.9540000000000001, 0.268, 192.0, 0.0, 0.0, 0.0, 0.0, 0.0, 0.0, 0.0, 0.0, 0.0, 1.687804522667226E9, 0.0, 2023-06-26 13:35:22.667
218.0, 53933.99941134446, 50157.649833875876, 17697.59716958966, -30456.621105268136, 2542.7344492357315, -17753.901213872578, 19826.39966325756, 6912.478138503807, -0.002, 0.9540000000000001, 0.268, 192.0, 0.0, 0.0, 0.0, 0.0, 0.0, 0.0, 0.0, 0.0, 0.0, 1.6878045226712444E9, 0.0, 2023-06-26 13:35:22.671
219.0, 53904.2715912189, 50142.74122032419, 17736.69037064199, -30363.034351233764, 2440.430514863791, -17666.01415467431, 19897.098230969696, 7016.346694987619, -0.002, 0.9540000000000001, 0.268, 192.0, 0.0, 0.0, 0.0, 0.0, 0.0, 0.0, 0.0, 0.0, 0.0, 1.6878045226752732E9, 0.0, 2023-06-26 13:35:22.675
220.0, 53900.13651849467, 50193.166755815364, 17877.439305477063, -30181.046447878656, 2540.1416468789157, -17462.345059197552, 20072.671183666134, 7200.815641977268, -0.002, 0.9540000000000001, 0.268, 192.0, 0.0, 0.0, 0.0, 0.0, 0.0, 0.0, 0.0, 0.0, 0.0, 1.687804522680307E9, 0.0, 2023-06-26 13:35:22.680
221.0, 53927.29388800787, 50213.708008969785, 17856.003982544422, -30251.387387679504, 2660.9528256598505, -17525.689902983893, 20039.188270472085, 7122.003391027855, -0.002, 0.9540000000000001, 0.268, 192.0, 0.0, 0.0, 0.0, 0.0, 0.0, 0.0, 0.0, 0.0, 0.0, 1.6878045226843188E9, 0.0, 2023-06-26 13:35:22.684
222.0, 53949.08683885179, 50178.347549241495, 17724.41926293603, -30425.574532219714, 2585.918019523385, -17723.346379202172, 19872.399553346582, 6945.871644720036, -0.002, 0.9540000000000001, 0.268, 192.0, 0.0, 0.0, 0.0, 0.0, 0.0, 0.0, 0.0, 0.0, 0.0, 1.6878045226873355E9, 0.0, 2023-06-26 13:35:22.687
223.0, 53917.97321057001, 50148.39621167138, 17723.391082691083, -30378.34529618565, 2450.0641167240283, -17690.22109391941, 19879.149780172083, 6996.967732544867, -0.002, 0.9520000000000001, 0.274, 192.0, 255.0, 240.0, 29.0, 192.0, 8.0, 144.0, 0.0, 0.0, 0.0, 1.6878045226913419E9, 0.0, 2023-06-26 13:35:22.691
224.0, 53919.6272396597, 50205.616677476966, 17880.657956678624, -30174.787959431167, 2518.6392687129105, -17467.374201699997, 20063.842244606287, 7197.775804731346, -0.002, 0.9520000000000001, 0.274, 192.0, 0.0, 0.0, 0.0, 0.0, 0.0, 0.0, 0.0, 0.0, 0.0, 1.6878045226953635E9, 0.0, 2023-06-26 13:35:22.695
225.0, 53942.761295170945, 50233.17637839036, 17888.659881193624, -30205.521608057217, 2661.846895438063, -17477.767762871714, 20082.46124773756, 7162.907083381067, -0.002, 0.9520000000000001, 0.274, 192.0, 0.0, 0.0, 0.0, 0.0, 0.0, 0.0, 0.0, 0.0, 0.0, 1.6878045226993997E9, 0.0, 2023-06-26 13:35:22.699
226.0, 53964.286025081405, 50196.83244190603, 17756.51636797385, -30392.739819614868, 2618.70802863932, -17692.635082320583, 19902.350890916692, 6960.310871638164, -0.002, 0.9520000000000001, 0.274, 192.0, 0.0, 0.0, 0.0, 0.0, 0.0, 0.0, 0.0, 0.0, 0.0, 1.6878045227034087E9, 0.0, 2023-06-26 13:35:22.703
227.0, 53923.98582982848, 50143.188255213296, 17701.262855680332, -30412.16348554653, 2451.047593480062, -17731.54946941727, 19847.097378623173, 6934.204034114366, -0.002, 0.9520000000000001, 0.274, 192.0, 0.0, 0.0, 0.0, 0.0, 0.0, 0.0, 0.0, 0.0, 0.0, 1.6878045227084217E9, 0.0, 2023-06-26 13:35:22.708
228.0, 53902.86343131822, 50176.71587189625, 17837.563793368794, -30214.663471539436, 2473.7569658466537, -17516.19041159039, 20016.992988227965, 7154.972214099434, -0.002, 0.9520000000000001, 0.274, 192.0, 0.0, 0.0, 0.0, 0.0, 0.0, 0.0, 0.0, 0.0, 0.0, 1.687804522712438E9, 0.0, 2023-06-26 13:35:22.712
229.0, 53938.20153930206, 50233.46695106828, 17899.232256320985, -30180.44295077836, 2637.6623079374203, -17465.809579588127, 20078.952023858074, 7184.297702824796, -0.002, 0.9520000000000001, 0.274, 192.0, 0.0, 0.0, 0.0, 0.0, 0.0, 0.0, 0.0, 0.0, 0.0, 1.6878045227154655E9, 0.0, 2023-06-26 13:35:22.715
230.0, 53961.64851923568, 50205.99665713271, 17772.006126881377, -30363.481386122872, 2628.7439618997532, -17663.086076150666, 19917.9524085465, 7001.080453524644, -0.002, 0.9520000000000001, 0.274, 192.0, 0.0, 0.0, 0.0, 0.0, 0.0, 0.0, 0.0, 0.0, 0.0, 1.687804522719459E9, 0.0, 2023-06-26 13:35:22.719
231.0, 53933.55237645536, 50147.25627270416, 17697.574817845205, -30417.237331537883, 2472.326454201514, -17742.859452111657, 19849.801939702265, 6949.559682555161, -0.002, 0.9520000000000001, 0.274, 192.0, 0.0, 0.0, 0.0, 0.0, 0.0, 0.0, 0.0, 0.0, 0.0, 1.6878045227238307E9, 0.0, 2023-06-26 13:35:22.723
232.0, 53903.71279760752, 50165.204723501774, 17807.2548278874, -30245.665341098946, 2445.459657366235, -17559.217519666854, 19985.47702854598, 7120.014085771333, -0.002, 0.9520000000000001, 0.274, 192.0, 0.0, 0.0, 0.0, 0.0, 0.0, 0.0, 0.0, 0.0, 0.0, 1.687804522727491E9, 0.0, 2023-06-26 13:35:22.727
233.0, 53938.51446372443, 50233.60106153501, 17908.284712825385, -30153.956133598822, 2620.3173542401023, -17444.530718866674, 20100.633215979724, 7200.033330921332, -0.002, 0.9520000000000001, 0.274, 192.0, 0.0, 0.0, 29.0, 160.0, 8.0, 192.0, 0.0, 0.0, 0.0, 1.687804522731521E9, 0.0, 2023-06-26 13:35:22.731
234.0, 53960.15095235717, 50208.678866467344, 17788.814638711767, -30338.492135821838, 2643.7643341737194, -17635.168747325988, 19951.52472871837, 7012.144567030021, -0.002, 0.9520000000000001, 0.274, 192.0, 0.0, 0.0, 0.0, 0.0, 0.0, 0.0, 0.0, 0.0, 0.0, 1.6878045227355468E9, 0.0, 2023-06-26 13:35:22.735
235.0, 53948.684507451595, 50158.72271760973, 17693.909131754535, -30428.279093298806, 2494.432329467813, -17746.927469602524, 19838.424901774517, 6931.834749202103, -0.002, 0.9520000000000001, 0.274, 192.0, 0.0, 0.0, 0.0, 0.0, 0.0, 0.0, 0.0, 0.0, 0.0, 1.687804522741572E9, 0.0, 2023-06-26 13:35:22.741
236.0, 53906.462062175524, 50154.54294139659, 17781.70678397498, -30277.22600426984, 2432.0486106930507, -17587.827752569647, 19951.32356301827, 7094.35428313664, -0.002, 0.9520000000000001, 0.274, 192.0, 0.0, 0.0, 0.0, 0.0, 0.0, 0.0, 0.0, 0.0, 0.0, 1.6878045227445788E9, 0.0, 2023-06-26 13:35:22.744
237.0, 53909.79247209936, 50200.989866374715, 17884.413049747116, -30167.277773294187, 2570.607074571499, -17449.671620091394, 20080.44959073658, 7205.2859908683295, -0.002, 0.9520000000000001, 0.274, 192.0, 0.0, 0.0, 0.0, 0.0, 0.0, 0.0, 0.0, 0.0, 0.0, 1.6878045227486107E9, 0.0, 2023-06-26 13:35:22.748
238.0, 53948.125713840214, 50207.427168777846, 17809.266484888376, -30307.490266262328, 2650.71572669932, -17593.750964850304, 19983.10774363372, 7051.707154715915, -0.002, 0.9520000000000001, 0.274, 192.0, 0.0, 0.0, 0.0, 0.0, 0.0, 0.0, 0.0, 0.0, 0.0, 1.6878045227516236E9, 0.0, 2023-06-26 13:35:22.751
239.0, 53949.44446676308, 50162.81308684505, 17701.30755916924, -30436.16925909153, 2521.656754214377, -17751.688391171505, 19837.866108163133, 6918.602516484561, -0.002, 0.9520000000000001, 0.274, 192.0, 0.0, 0.0, 0.0, 0.0, 0.0, 0.0, 0.0, 0.0, 0.0, 1.6878045227556612E9, 0.0, 2023-06-26 13:35:22.755
240.0, 53918.24143150347, 50159.59443564349, 17770.016821624857, -30304.696298205414, 2442.7103927982325, -17616.2591715168, 19930.84936509721, 7060.513742031306, -0.002, 0.9520000000000001, 0.274, 192.0, 0.0, 0.0, 0.0, 0.0, 0.0, 0.0, 0.0, 0.0, 0.0, 1.687804522759684E9, 0.0, 2023-06-26 13:35:22.759
241.0, 53903.64574237415, 50199.62640996295, 17877.998099088443, -30171.524604740694, 2546.511894048678, -17453.560823626616, 20058.92486082612, 7190.332673827729, -0.002, 0.9520000000000001, 0.274, 192.0, 0.0, 0.0, 0.0, 0.0, 0.0, 0.0, 0.0, 0.0, 0.0, 1.6878045227636893E9, 0.0, 2023-06-26 13:35:22.763
242.0, 53946.24816730597, 50225.46502655328, 17845.141034739143, -30266.698332631393, 2661.444564037867, -17552.42258935244, 20012.835563759276, 7082.1949341529535, -0.002, 0.9520000000000001, 0.274, 192.0, 0.0, 0.0, 0.0, 0.0, 0.0, 0.0, 0.0, 0.0, 0.0, 1.687804522767732E9, 0.0, 2023-06-26 13:35:22.767
243.0, 53954.138333098694, 50176.00061607369, 17715.210344220442, -30432.01183462284, 2558.0677459320723, -17747.195690535988, 19861.02251541883, 6922.51407176424, -0.002, 0.9520000000000001, 0.274, 192.0, 0.0, 0.0, 0.0, 0.0, 0.0, 0.0, 0.0, 0.0, 0.0, 1.6878045227707477E9, 0.0, 2023-06-26 13:35:22.770
244.0, 53901.991713284464, 50136.259214432146, 17725.156870503055, -30369.359894914618, 2428.986421702674, -17676.519474568304, 19889.096306454696, 7000.476956424351, 0.002, 0.9380000000000001, 0.274, 192.0, 0.0, 16.0, 29.0, 80.0, 8.0, 144.0, 0.0, 0.0, 0.0, 1.6878045227747476E9, 0.0, 2023-06-26 13:35:22.774
245.0, 53900.62825687269, 50191.53507847012, 17872.25370076343, -30176.55374724314, 2529.8374926850192, -17462.50152140874, 20069.25136676447, 7188.27631333784, 0.002, 0.9380000000000001, 0.274, 192.0, 0.0, 0.0, 0.0, 0.0, 0.0, 0.0, 0.0, 0.0, 0.0, 1.68780452277979E9, 0.0, 2023-06-26 13:35:22.779
246.0, 53944.34826902727, 50231.09766615602, 17873.304232752827, -30231.04730022518, 2671.2122763648363, -17503.919303884424, 20049.470072921526, 7131.7934550992795, 0.002, 0.9380000000000001, 0.274, 192.0, 0.0, 0.0, 0.0, 0.0, 0.0, 0.0, 0.0, 0.0, 0.0, 1.6878045227838163E9, 0.0, 2023-06-26 13:35:22.783
247.0, 53938.80503640235, 50169.675072392834, 17710.941161029477, -30437.622122481123, 2567.1872576698374, -17740.89249859959, 19849.645477491078, 6918.378999040008, 0.002, 0.9380000000000001, 0.274, 192.0, 0.0, 0.0, 0.0, 0.0, 0.0, 0.0, 0.0, 0.0, 0.0, 1.6878045227878177E9, 0.0, 2023-06-26 13:35:22.787
248.0, 53919.87310884871, 50147.4350866598, 17713.846887808668, -30388.29182246826, 2433.9932124606626, -17710.561181373738, 19864.97877418742, 6973.386642144518, 0.002, 0.9380000000000001, 0.274, 192.0, 0.0, 0.0, 0.0, 0.0, 0.0, 0.0, 0.0, 0.0, 0.0, 1.6878045227918324E9, 0.0, 2023-06-26 13:35:22.791
249.0, 53915.29100123537, 50199.22407856275, 17866.911633838612, -30181.560538001126, 2506.9940098516954, -17484.60739667504, 20056.77909335841, 7190.265618594363, 0.002, 0.9380000000000001, 0.274, 192.0, 0.0, 0.0, 0.0, 0.0, 0.0, 0.0, 0.0, 0.0, 0.0, 1.6878045227948563E9, 0.0, 2023-06-26 13:35:22.794
250.0, 53937.083952079294, 50231.72351500077, 17880.881474123176, -30203.398192333963, 2648.704069698342, -17495.582103202596, 20067.038544063395, 7171.6466154630925, 0.002, 0.9380000000000001, 0.274, 192.0, 0.0, 0.0, 0.0, 0.0, 0.0, 0.0, 0.0, 0.0, 0.0, 1.6878045227988873E9, 0.0, 2023-06-26 13:35:22.798
251.0, 53940.25789979195, 50179.800412631084, 17723.681655369004, -30408.83307562269, 2586.3427026680356, -17700.99463474687, 19882.055506951274, 6950.006717444267, 0.002, 0.9380000000000001, 0.274, 192.0, 0.0, 0.0, 0.0, 0.0, 0.0, 0.0, 0.0, 0.0, 0.0, 1.687804522802919E9, 0.0, 2023-06-26 13:35:22.802
252.0, 53904.226887729994, 50128.8831387619, 17673.658451278025, -30428.033224109797, 2434.9766892166963, -17744.17820503452, 19840.995352386875, 6926.984420655302, 0.002, 0.9380000000000001, 0.274, 192.0, 0.0, 0.0, 0.0, 0.0, 0.0, 0.0, 0.0, 0.0, 0.0, 1.6878045228069234E9, 0.0, 2023-06-26 13:35:22.806
253.0, 53888.62537010019, 50167.88693283641, 17806.539572064827, -30230.533210102705, 2450.2652824241263, -17539.905612457467, 20003.8725142327, 7127.3901614415845, 0.002, 0.9380000000000001, 0.274, 192.0, 0.0, 0.0, 0.0, 0.0, 0.0, 0.0, 0.0, 0.0, 0.0, 1.687804522811942E9, 0.0, 2023-06-26 13:35:22.811
254.0, 53914.39693145716, 50216.79254970462, 17865.123494282187, -30188.288413082173, 2606.3475139555353, -17480.941710584368, 20059.528357926414, 7161.074240335732, 0.002, 0.9460000000000001, 0.274, 192.0, 0.0, 16.0, 29.0, 144.0, 8.0, 144.0, 0.0, 0.0, 0.0, 1.6878045228159451E9, 0.0, 2023-06-26 13:35:22.815
255.0, 53941.04021084788, 50191.87035463695, 17749.27440277033, -30371.662124593513, 2604.112339510005, -17685.773096772802, 19902.32853917224, 6979.533371869728, 0.002, 0.9460000000000001, 0.274, 192.0, 0.0, 0.0, 0.0, 0.0, 0.0, 0.0, 0.0, 0.0, 0.0, 1.6878045228199944E9, 0.0, 2023-06-26 13:35:22.819
0.0, 53932.613603188234, 50155.54876989708, 17687.561236329228, -30414.868046625623, 2458.893055783875, -17750.548452204283, 19839.69895120847, 6944.642298774994, 0.002, 0.9460000000000001, 0.274, 192.0, 0.0, 0.0, 0.0, 0.0, 0.0, 0.0, 0.0, 0.0, 0.0, 1.6878045228229876E9, 0.0, 2023-06-26 13:35:22.822
1.0, 53907.46789067601, 50177.38642422992, 17805.33257786424, -30223.067727454632, 2443.3138898985258, -17552.80256900818, 19990.260301859416, 7124.372675940118, 0.002, 0.9460000000000001, 0.274, 192.0, 0.0, 0.0, 0.0, 0.0, 0.0, 0.0, 0.0, 0.0, 0.0, 1.687804522827014E9, 0.0, 2023-06-26 13:35:22.827
2.0, 53922.264745505425, 50227.18611087634, 17902.607369733738, -30136.63353164596, 2603.3076767096136, -17445.469492133798, 20093.279492053927, 7196.6582175085805, 0.002, 0.9460000000000001, 0.274, 192.0, 0.0, 0.0, 0.0, 0.0, 0.0, 0.0, 0.0, 0.0, 0.0, 1.6878045228310332E9, 0.0, 2023-06-26 13:35:22.831
3.0, 53955.85941742175, 50217.37369506046, 17799.14114465012, -30306.596196484115, 2645.127790585493, -17623.769357653782, 19961.38184802316, 7027.120235815077, 0.002, 0.9460000000000001, 0.274, 192.0, 0.0, 0.0, 0.0, 0.0, 0.0, 0.0, 0.0, 0.0, 0.0, 1.6878045228350632E9, 0.0, 2023-06-26 13:35:22.835
4.0, 53938.51446372443, 50157.381612942416, 17693.864428265624, -30415.046860581264, 2491.6830648998102, -17763.42305701054, 19837.35201804066, 6918.490757762284, 0.002, 0.9460000000000001, 0.274, 192.0, 0.0, 0.0, 0.0, 0.0, 0.0, 0.0, 0.0, 0.0, 0.0, 1.6878045228390777E9, 0.0, 2023-06-26 13:35:22.839
5.0, 53901.18705048407, 50158.96858679874, 17783.114943875666, -30267.547698920695, 2432.2944798820595, -17607.541991179227, 19956.263298542894, 7082.127878919588, 0.002, 0.9460000000000001, 0.274, 192.0, 0.0, 0.0, 0.0, 0.0, 0.0, 0.0, 0.0, 0.0, 0.0, 1.6878045228441472E9, 0.0, 2023-06-26 13:35:22.844
6.0, 53898.41543417161, 50205.66138096588, 17888.570474215805, -30149.172860285387, 2563.655682045899, -17466.03309703268, 20086.462209995057, 7192.769013973358, 0.002, 0.9460000000000001, 0.274, 192.0, 0.0, 0.0, 0.0, 0.0, 0.0, 0.0, 0.0, 0.0, 0.0, 1.6878045228481534E9, 0.0, 2023-06-26 13:35:22.848
7.0, 53937.41922824612, 50215.406741548395, 17818.788328026334, -30276.197824024897, 2647.2512063087474, -17599.741232364326, 19994.753002494934, 7053.3164803166965, 0.002, 0.9460000000000001, 0.274, 192.0, 0.0, 0.0, 0.0, 0.0, 0.0, 0.0, 0.0, 0.0, 0.0, 1.6878045228511505E9, 0.0, 2023-06-26 13:35:22.851
8.0, 53933.21710028852, 50158.767421098644, 17694.73614629938, -30428.457907254447, 2519.3321727910247, -17770.910891403066, 19851.478320536415, 6908.74539717977, 0.002, 0.9460000000000001, 0.27, 192.0, 0.0, 16.0, 29.0, 144.0, 8.0, 112.0, 0.0, 0.0, 0.0, 1.6878045228551452E9, 0.0, 2023-06-26 13:35:22.855
9.0, 53893.22982945798, 50143.00944125765, 17756.628126696127, -30309.121943607563, 2426.326564112492, -17653.92186092399, 19933.442167454024, 7043.861692412102, 0.002, 0.9460000000000001, 0.27, 192.0, 0.0, 0.0, 0.0, 0.0, 0.0, 0.0, 0.0, 0.0, 0.0, 1.6878045228591616E9, 0.0, 2023-06-26 13:35:22.859
10.0, 53901.18705048407, 50206.51074725518, 17889.19632306055, -30143.67433114938, 2538.5993765114995, -17469.98935580127, 20078.92967211362, 7196.792327975313, 0.002, 0.9460000000000001, 0.27, 192.0, 0.0, 0.0, 0.0, 0.0, 0.0, 0.0, 0.0, 0.0, 0.0, 1.6878045228631551E9, 0.0, 2023-06-26 13:35:22.863
11.0, 53938.24624279097, 50224.615660263975, 17845.34220043924, -30242.9384282754, 2648.748773187253, -17559.91042374497, 20018.088223706272, 7091.917942991012, 0.002, 0.9460000000000001, 0.27, 192.0, 0.0, 0.0, 0.0, 0.0, 0.0, 0.0, 0.0, 0.0, 0.0, 1.6878045228672051E9, 0.0, 2023-06-26 13:35:22.867
12.0, 53934.73701891149, 50164.288301979104, 17699.340605657173, -30422.668805440524, 2537.079457888539, -17766.060562856266, 19854.853433949167, 6916.501452505762, 0.002, 0.9460000000000001, 0.27, 192.0, 0.0, 0.0, 0.0, 0.0, 0.0, 0.0, 0.0, 0.0, 0.0, 1.687804522872219E9, 0.0, 2023-06-26 13:35:22.872
13.0, 53898.12486149369, 50139.23199644471, 17724.285152469296, -30342.80602250171, 2415.038933162562, -17693.529152098796, 19892.784344289823, 6996.945380800412, 0.002, 0.9460000000000001, 0.27, 192.0, 0.0, 0.0, 0.0, 0.0, 0.0, 0.0, 0.0, 0.0, 0.0, 1.6878045228762507E9, 0.0, 2023-06-26 13:35:22.876
14.0, 53888.17833521108, 50188.897572624395, 17871.739610640958, -30155.118424310498, 2510.167957564349, -17484.11565829702, 20063.775189372922, 7187.873981937645, 0.002, 0.9460000000000001, 0.27, 192.0, 0.0, 0.0, 0.0, 0.0, 0.0, 0.0, 0.0, 0.0, 0.0, 1.687804522880256E9, 0.0, 2023-06-26 13:35:22.880
15.0, 53925.39398972917, 50223.36396257448, 17864.877625093177, -30208.628500536503, 2648.614662720521, -17527.813318707147, 20045.335000197294, 7118.2930014482745, 0.002, 0.9460000000000001, 0.27, 192.0, 0.0, 0.0, 0.0, 0.0, 0.0, 0.0, 0.0, 0.0, 0.0, 1.687804522884287E9, 0.0, 2023-06-26 13:35:22.884
16.0, 53931.16073979864, 50170.18916251531, 17711.07527149621, -30408.96718608942, 2558.0677459320723, -17756.203443551476, 19851.679486236513, 6906.84549890107, 0.002, 0.9460000000000001, 0.27, 192.0, 0.0, 0.0, 0.0, 0.0, 0.0, 0.0, 0.0, 0.0, 0.0, 1.6878045228883104E9, 0.0, 2023-06-26 13:35:22.888
17.0, 53913.83813784578, 50154.38647918541, 17715.903248298557, -30357.96050524241, 2427.8017792465425, -17711.20938196294, 19854.428750804516, 6968.178685686432, 0.002, 0.9460000000000001, 0.27, 192.0, 0.0, 0.0, 0.0, 0.0, 0.0, 0.0, 0.0, 0.0, 0.0, 1.687804522892326E9, 0.0, 2023-06-26 13:35:22.892
18.0, 53905.45623367503, 50203.6497239649, 17859.960241313012, -30159.745235412745, 2491.3254369885253, -17493.99512934627, 20041.557555384345, 7169.65731020657, 0.004, 0.9520000000000001, 0.274, 192.0, 0.0, 32.0, 29.0, 192.0, 8.0, 144.0, 0.0, 0.0, 0.0, 1.6878045228973377E9, 0.0, 2023-06-26 13:35:22.897
19.0, 53915.67098089111, 50222.536948029636, 17869.415029217605, -30188.02019214871, 2620.429112962379, -17511.630655721507, 20051.124102011217, 7147.12675179562, 0.004, 0.9520000000000001, 0.274, 192.0, 0.0, 0.0, 0.0, 0.0, 0.0, 0.0, 0.0, 0.0, 0.0, 1.6878045229013467E9, 0.0, 2023-06-26 13:35:22.901
20.0, 53942.64953644867, 50192.943238370804, 17734.142271774086, -30378.14413048555, 2580.1512694539156, -17720.21713497843, 19875.282928381315, 6944.508188308262, 0.004, 0.9520000000000001, 0.274, 192.0, 0.0, 0.0, 0.0, 0.0, 0.0, 0.0, 0.0, 0.0, 0.0, 1.6878045229053812E9, 0.0, 2023-06-26 13:35:22.905
21.0, 53920.029571059895, 50149.55850238306, 17687.181256673488, -30393.25390973734, 2425.5666048010116, -17747.66507716955, 19834.55804998375, 6929.264298589743, 0.004, 0.9520000000000001, 0.274, 192.0, 0.0, 0.0, 0.0, 0.0, 0.0, 0.0, 0.0, 0.0, 0.0, 1.6878045229083812E9, 0.0, 2023-06-26 13:35:22.908
22.0, 53897.05197775984, 50180.00157833118, 17822.342255394728, -30196.849131208557, 2436.5189595841125, -17538.38569383451, 19999.871551975197, 7130.787626598791, 0.004, 0.9520000000000001, 0.274, 192.0, 0.0, 0.0, 0.0, 0.0, 0.0, 0.0, 0.0, 0.0, 0.0, 1.6878045229124227E9, 0.0, 2023-06-26 13:35:22.912
23.0, 53924.72343739551, 50232.595233034524, 17897.600578975747, -30149.128156796476, 2602.391255186946, -17471.30810872413, 20074.951061600575, 7170.171400329042, 0.004, 0.9520000000000001, 0.274, 192.0, 0.0, 0.0, 0.0, 0.0, 0.0, 0.0, 0.0, 0.0, 0.0, 1.687804522915432E9, 0.0, 2023-06-26 13:35:22.915
24.0, 53947.14223708418, 50203.98500013173, 17768.765123935358, -30338.58154279966, 2603.218269731792, -17677.458247835428, 19912.386824177127, 6977.90169452449, 0.004, 0.9520000000000001, 0.274, 192.0, 0.0, 0.0, 0.0, 0.0, 0.0, 0.0, 0.0, 0.0, 0.0, 1.687804522919451E9, 0.0, 2023-06-26 13:35:22.919
25.0, 53925.349286240256, 50153.85003731847, 17699.0276812348, -30401.16642727452, 2459.228331950704, -17766.418190767552, 19842.604677987656, 6922.581126997606, 0.004, 0.9520000000000001, 0.274, 192.0, 0.0, 0.0, 0.0, 0.0, 0.0, 0.0, 0.0, 0.0, 0.0, 1.687804522926499E9, 0.0, 2023-06-26 13:35:22.926
26.0, 53900.91882955061, 50175.53122944012, 17818.654217559604, -30218.12799193001, 2438.5082648406346, -17567.264147670765, 19996.451735073537, 7114.113225235132, 0.004, 0.9520000000000001, 0.274, 192.0, 0.0, 0.0, 0.0, 0.0, 0.0, 0.0, 0.0, 0.0, 0.0, 1.6878045229295075E9, 0.0, 2023-06-26 13:35:22.929
27.0, 53924.09758855076, 50233.62341327946, 17916.17487861811, -30119.40033667092, 2599.7090458523094, -17449.425750902385, 20103.561294503368, 7200.56977278826, 0.004, 0.9520000000000001, 0.274, 192.0, 0.0, 0.0, 0.0, 0.0, 0.0, 0.0, 0.0, 0.0, 0.0, 1.6878045229325025E9, 0.0, 2023-06-26 13:35:22.932
28.0, 53935.49697822297, 50203.76148268718, 17795.810734726278, -30303.62341447156, 2625.7264763982866, -17640.0637793617, 19966.612156225703, 7019.185366533443, 0.004, 0.9520000000000001, 0.274, 192.0, 0.0, 0.0, 0.0, 0.0, 0.0, 0.0, 0.0, 0.0, 0.0, 1.687804522936542E9, 0.0, 2023-06-26 13:35:22.936
29.0, 53926.39981822966, 50155.81699083054, 17693.462096865427, -30410.576511690204, 2481.982407806207, -17765.03238261132, 19846.806805945256, 6918.826033929114, 0.006, 0.9520000000000001, 0.274, 192.0, 0.0, 48.0, 29.0, 192.0, 8.0, 144.0, 0.0, 0.0, 0.0, 1.6878045229395525E9, 0.0, 2023-06-26 13:35:22.939
30.0, 53900.181221983585, 50166.657586891364, 17787.987624166923, -30253.957838291866, 2420.179834387283, -17601.73053762085, 19966.65685971461, 7088.207553411431, 0.006, 0.9520000000000001, 0.274, 192.0, 0.0, 0.0, 0.0, 0.0, 0.0, 0.0, 0.0, 0.0, 0.0, 1.6878045229435873E9, 0.0, 2023-06-26 13:35:22.943
31.0, 53907.46789067601, 50218.42422704986, 17898.852276665246, -30131.09029902104, 2559.453554088301, -17447.59290785705, 20102.890742169708, 7209.018732192366, 0.006, 0.9520000000000001, 0.274, 192.0, 0.0, 0.0, 0.0, 0.0, 0.0, 0.0, 0.0, 0.0, 0.0, 1.687804522947608E9, 0.0, 2023-06-26 13:35:22.947
32.0, 53950.83027491931, 50232.55052954561, 17832.400540399616, -30259.94810580589, 2647.362965031024, -17578.06004024268, 20003.91721772161, 7068.090983401655, 0.006, 0.9520000000000001, 0.274, 192.0, 0.0, 0.0, 0.0, 0.0, 0.0, 0.0, 0.0, 0.0, 0.0, 1.687804522951609E9, 0.0, 2023-06-26 13:35:22.951
33.0, 53944.05769634935, 50177.47583120773, 17703.8780097816, -30405.279148254296, 2513.632477954922, -17750.28023127082, 19848.192614101485, 6922.424664786418, 0.006, 0.9520000000000001, 0.274, 192.0, 0.0, 0.0, 0.0, 0.0, 0.0, 0.0, 0.0, 0.0, 0.0, 1.6878045229556477E9, 0.0, 2023-06-26 13:35:22.955
34.0, 53896.113204492714, 50155.05703151906, 17746.525138202327, -30302.237606315328, 2405.405331302325, -17644.847052675137, 19914.64435036711, 7040.330116788164, 0.006, 0.9520000000000001, 0.274, 192.0, 0.0, 0.0, 0.0, 0.0, 0.0, 0.0, 0.0, 0.0, 0.0, 1.6878045229596703E9, 0.0, 2023-06-26 13:35:22.959
35.0, 53911.357094211235, 50224.16862537487, 17897.578227231294, -30123.53540939515, 2542.935614935829, -17441.96026825431, 20097.50397175598, 7214.114929928176, 0.006, 0.9520000000000001, 0.274, 192.0, 0.0, 0.0, 0.0, 0.0, 0.0, 0.0, 0.0, 0.0, 0.0, 1.687804522962688E9, 0.0, 2023-06-26 13:35:22.962
36.0, 53939.85556839175, 50234.94216620233, 17845.699828350524, -30231.22611418082, 2643.4067062624345, -17540.41970257994, 20024.659636576132, 7087.6487598000485, 0.006, 0.9520000000000001, 0.274, 192.0, 0.0, 0.0, 0.0, 0.0, 0.0, 0.0, 0.0, 0.0, 0.0, 1.687804522966682E9, 0.0, 2023-06-26 13:35:22.966
37.0, 53933.50767296644, 50167.77517411413, 17693.260931165332, -30422.64645369607, 2522.5731757370445, -17753.56593770575, 19843.632858232602, 6905.012655855734, 0.006, 0.9520000000000001, 0.274, 192.0, 0.0, 0.0, 0.0, 0.0, 0.0, 0.0, 0.0, 0.0, 0.0, 1.687804522970712E9, 0.0, 2023-06-26 13:35:22.970
38.0, 53908.58547789878, 50152.486580906705, 17724.531021658306, -30344.750624269323, 2409.987438915663, -17682.554445571237, 19897.388803647616, 7001.885116325036, 0.006, 0.9520000000000001, 0.274, 192.0, 0.0, 0.0, 0.0, 0.0, 0.0, 0.0, 0.0, 0.0, 0.0, 1.6878045229757357E9, 0.0, 2023-06-26 13:35:22.975
39.0, 53909.3230854658, 50208.25418332269, 17874.712392653513, -30156.97361910029, 2506.7034371737764, -17469.36350695652, 20076.716849412544, 7190.80206046129, 0.006, 0.9460000000000001, 0.272, 192.0, 0.0, 48.0, 29.0, 144.0, 8.0, 128.0, 0.0, 0.0, 0.0, 1.6878045229797428E9, 0.0, 2023-06-26 13:35:22.979
40.0, 53937.642745690675, 50234.629241779956, 17863.82709310378, -30218.30680588565, 2641.6632701949206, -17509.440184764884, 20051.14645375567, 7119.902327049056, 0.006, 0.9460000000000001, 0.272, 192.0, 0.0, 0.0, 0.0, 0.0, 0.0, 0.0, 0.0, 0.0, 0.0, 1.6878045229837687E9, 0.0, 2023-06-26 13:35:22.983
41.0, 53951.65728946416, 50195.893668638906, 17721.804108834756, -30413.281072769296, 2572.194048427826, -17721.960571045944, 19869.538530056303, 6922.1787955974105, 0.006, 0.9460000000000001, 0.272, 192.0, 0.0, 0.0, 0.0, 0.0, 0.0, 0.0, 0.0, 0.0, 0.0, 1.6878045229867637E9, 0.0, 2023-06-26 13:35:22.986
42.0, 53925.282231006895, 50166.72464212473, 17715.053882009255, -30384.044991021754, 2431.6239275484, -17703.2298091924, 19870.7902277458, 6960.355575127074, 0.006, 0.9460000000000001, 0.272, 192.0, 0.0, 0.0, 0.0, 0.0, 0.0, 0.0, 0.0, 0.0, 0.0, 1.687804522990791E9, 0.0, 2023-06-26 13:35:22.990
43.0, 53895.085024247775, 50194.82078490505, 17840.67068584808, -30209.857846481544, 2465.48682039819, -17514.357568545052, 20024.01143598693, 7142.566995926738, 0.006, 0.9460000000000001, 0.272, 192.0, 0.0, 0.0, 0.0, 0.0, 0.0, 0.0, 0.0, 0.0, 0.0, 1.6878045229948277E9, 0.0, 2023-06-26 13:35:22.994
44.0, 53924.18699552858, 50237.982003448255, 17870.91259609611, -30207.130933657998, 2617.6574966499206, -17491.625844434006, 20047.413712431637, 7138.2531092468635, 0.006, 0.9460000000000001, 0.272, 192.0, 0.0, 0.0, 0.0, 0.0, 0.0, 0.0, 0.0, 0.0, 0.0, 1.68780452299884E9, 0.0, 2023-06-26 13:35:22.998
45.0, 53943.87888239371, 50199.91698264086, 17737.249164253375, -30403.44630520896, 2589.807223058608, -17698.49123936787, 19887.41992562055, 6940.015487672746, 0.006, 0.9460000000000001, 0.272, 192.0, 0.0, 0.0, 0.0, 0.0, 0.0, 0.0, 0.0, 0.0, 0.0, 1.6878045230028548E9, 0.0, 2023-06-26 13:35:23.002
46.0, 53913.68167563459, 50151.145476239384, 17686.913035740024, -30430.514267744336, 2444.1632561878273, -17738.70202764297, 19856.93214618351, 6921.2400223302875, 0.006, 0.9460000000000001, 0.272, 192.0, 0.0, 0.0, 0.0, 0.0, 0.0, 0.0, 0.0, 0.0, 0.0, 1.6878045230078812E9, 0.0, 2023-06-26 13:35:23.007
47.0, 53881.74103280796, 50173.31840673905, 17805.95842670899, -30251.32033244614, 2443.559759087534, -17537.536327545207, 20005.548895066848, 7109.061730988233, 0.006, 0.9460000000000001, 0.272, 192.0, 0.0, 0.0, 0.0, 0.0, 0.0, 0.0, 0.0, 0.0, 0.0, 1.687804523011911E9, 0.0, 2023-06-26 13:35:23.011
48.0, 53897.744881837956, 50213.77506420315, 17868.655069906126, -30205.275738868208, 2596.780967328664, -17468.424733689397, 20073.520549955436, 7166.170438071542, 0.006, 0.9460000000000001, 0.272, 192.0, 0.0, 0.0, 0.0, 0.0, 0.0, 0.0, 0.0, 0.0, 0.0, 1.6878045230149188E9, 0.0, 2023-06-26 13:35:23.014
49.0, 53936.748675912466, 50205.66138096588, 17763.020725610342, -30375.014886261808, 2621.5467001851443, -17648.669200976994, 19940.95235359101, 6993.458508665384, 0.006, 0.9440000000000001, 0.278, 192.0, 0.0, 48.0, 29.0, 128.0, 8.0, 176.0, 0.0, 0.0, 0.0, 1.6878045230189233E9, 0.0, 2023-06-26 13:35:23.018
50.0, 53923.114111794726, 50159.2368077322, 17687.047146206754, -30442.36069230565, 2473.0640617685394, -17734.119920029632, 19850.60660250266, 6923.65401073146, 0.006, 0.9440000000000001, 0.278, 192.0, 0.0, 0.0, 0.0, 0.0, 0.0, 0.0, 0.0, 0.0, 0.0, 1.687804523022962E9, 0.0, 2023-06-26 13:35:23.022
51.0, 53893.319236435804, 50170.92677008233, 17795.877789959646, -30272.33097223413, 2443.4032968763468, -17552.221423652343, 19985.789952968356, 7099.875164017101, 0.006, 0.9440000000000001, 0.278, 192.0, 0.0, 0.0, 0.0, 0.0, 0.0, 0.0, 0.0, 0.0, 0.0, 1.6878045230269537E9, 0.0, 2023-06-26 13:35:23.026
52.0, 53904.2715912189, 50221.53111952914, 17887.810514904322, -30184.063933380123, 2590.455423647812, -17434.1148059505, 20088.473866996035, 7187.114022626165, 0.006, 0.9440000000000001, 0.278, 192.0, 0.0, 0.0, 0.0, 0.0, 0.0, 0.0, 0.0, 0.0, 0.0, 1.6878045230309932E9, 0.0, 2023-06-26 13:35:23.030
53.0, 53920.476605949, 50199.872279151954, 17774.196597837996, -30364.286048923263, 2619.2444705062476, -17622.58471519765, 19951.815301396287, 6997.414767433974, 0.006, 0.9440000000000001, 0.278, 192.0, 0.0, 0.0, 0.0, 0.0, 0.0, 0.0, 0.0, 0.0, 0.0, 1.6878045230350008E9, 0.0, 2023-06-26 13:35:23.035
54.0, 53920.23073675999, 50155.70523210827, 17680.609843803628, -30463.170166393542, 2489.11261428745, -17746.79335913579, 19841.844718676177, 6908.030141357201, 0.006, 0.9440000000000001, 0.278, 192.0, 0.0, 0.0, 0.0, 0.0, 0.0, 0.0, 0.0, 0.0, 0.0, 1.6878045230400426E9, 0.0, 2023-06-26 13:35:23.040
55.0, 53892.91690503561, 50163.6401013899, 17768.586309979717, -30309.636033730036, 2425.387790845369, -17583.15623797849, 19954.38575200865, 7073.5671607932045, 0.006, 0.9440000000000001, 0.278, 192.0, 0.0, 0.0, 0.0, 0.0, 0.0, 0.0, 0.0, 0.0, 0.0, 1.68780452304306E9, 0.0, 2023-06-26 13:35:23.043
56.0, 53891.68755909056, 50212.813939191576, 17878.288671766364, -30183.840415935567, 2555.273777875159, -17431.70081754933, 20088.02683210693, 7189.840935449713, 0.006, 0.9440000000000001, 0.278, 192.0, 0.0, 0.0, 0.0, 0.0, 0.0, 0.0, 0.0, 0.0, 0.0, 1.6878045230481231E9, 0.0, 2023-06-26 13:35:23.048
57.0, 53927.80797813034, 50218.91596542788, 17806.897199976112, -30316.34155706663, 2637.483493981778, -17567.085333715124, 19979.889092432153, 7033.065799840188, 0.006, 0.9440000000000001, 0.278, 192.0, 0.0, 0.0, 0.0, 0.0, 0.0, 0.0, 0.0, 0.0, 0.0, 1.6878045230511181E9, 0.0, 2023-06-26 13:35:23.051
58.0, 53936.30164102336, 50175.21830501775, 17688.388250874075, -30454.721206989434, 2514.1912715663043, -17732.018856050832, 19828.143099325072, 6894.50733596174, 0.006, 0.9440000000000001, 0.278, 192.0, 0.0, 0.0, 0.0, 0.0, 0.0, 0.0, 0.0, 0.0, 0.0, 1.6878045230551217E9, 0.0, 2023-06-26 13:35:23.055
59.0, 53909.747768610454, 50173.78779337261, 17753.342420261197, -30329.976121184365, 2428.0252966910957, -17612.884058104046, 19929.12828077415, 7036.284451041753, 0.004, 0.9520000000000001, 0.278, 192.0, 0.0, 32.0, 29.0, 192.0, 8.0, 176.0, 0.0, 0.0, 0.0, 1.6878045230611577E9, 0.0, 2023-06-26 13:35:23.061
60.0, 53903.08694876277, 50223.56512827458, 17887.184666059573, -30167.34482852755, 2541.9297864353402, -17425.956419224312, 20094.844114165797, 7207.610572291681, 0.004, 0.9520000000000001, 0.278, 192.0, 0.0, 0.0, 0.0, 0.0, 0.0, 0.0, 0.0, 0.0, 0.0, 1.6878045230641491E9, 0.0, 2023-06-26 13:35:23.064
61.0, 53937.15100731266, 50244.77693376267, 17851.66774412009, -30260.261030228263, 2658.2706163252137, -17513.0835191111, 20033.510927380434, 7100.724530306403, 0.004, 0.9520000000000001, 0.278, 192.0, 0.0, 0.0, 0.0, 0.0, 0.0, 0.0, 0.0, 0.0, 0.0, 1.6878045230671492E9, 0.0, 2023-06-26 13:35:23.067
62.0, 53956.06058312185, 50205.191994332316, 17726.90030657057, -30424.50164848586, 2568.7965832706195, -17712.438727907986, 19863.794131731287, 6923.363438053541, 0.004, 0.9520000000000001, 0.278, 192.0, 0.0, 0.0, 0.0, 0.0, 0.0, 0.0, 0.0, 0.0, 0.0, 1.68780452307117E9, 0.0, 2023-06-26 13:35:23.071
63.0, 53910.61948664421, 50163.41658394535, 17733.315257229242, -30371.371551915596, 2425.4771978231906, -17663.622518017593, 19875.97583245943, 6985.6353981060265, 0.004, 0.9520000000000001, 0.278, 192.0, 0.0, 0.0, 0.0, 0.0, 0.0, 0.0, 0.0, 0.0, 0.0, 1.6878045230741992E9, 0.0, 2023-06-26 13:35:23.074
64.0, 53901.11999525071, 50211.09285486852, 17880.00975608942, -30179.504177511237, 2514.7724169221424, -17449.805730558128, 20076.40392499017, 7184.878848180634, 0.004, 0.9520000000000001, 0.278, 192.0, 0.0, 0.0, 0.0, 0.0, 0.0, 0.0, 0.0, 0.0, 0.0, 1.6878045230792265E9, 0.0, 2023-06-26 13:35:23.079
65.0, 53927.33859149678, 50235.83623598054, 17874.310061253316, -30230.153230446966, 2655.0966686125603, -17487.80369613215, 20069.050201064372, 7132.374600455118, 0.004, 0.9520000000000001, 0.278, 192.0, 0.0, 0.0, 0.0, 0.0, 0.0, 0.0, 0.0, 0.0, 0.0, 1.687804523083233E9, 0.0, 2023-06-26 13:35:23.083
66.0, 53944.77295217192, 50195.893668638906, 17731.504765928363, -30421.327700773207, 2581.1794496988596, -17698.290073667773, 19881.563768573258, 6935.321621337131, 0.004, 0.9520000000000001, 0.278, 192.0, 0.0, 0.0, 0.0, 0.0, 0.0, 0.0, 0.0, 0.0, 0.0, 1.687804523087254E9, 0.0, 2023-06-26 13:35:23.087
67.0, 53913.7263791235, 50160.84613333299, 17714.159812231042, -30401.524055185804, 2436.0942764394613, -17685.59428281716, 19865.872843965633, 6956.488723336306, 0.004, 0.9520000000000001, 0.278, 192.0, 0.0, 0.0, 0.0, 0.0, 0.0, 0.0, 0.0, 0.0, 0.0, 1.6878045230912735E9, 0.0, 2023-06-26 13:35:23.091
68.0, 53899.35420743874, 50204.275572809645, 17855.981630799964, -30202.63823302248, 2484.910486329852, -17470.592852901562, 20049.023038032417, 7161.7894961583015, 0.004, 0.9520000000000001, 0.278, 192.0, 0.0, 0.0, 0.0, 0.0, 0.0, 0.0, 0.0, 0.0, 0.0, 1.6878045230953012E9, 0.0, 2023-06-26 13:35:23.095
69.0, 53918.01791405892, 50238.47374182627, 17881.887302623665, -30214.082326183598, 2634.6895259248645, -17459.64049811846, 20081.76834365944, 7144.802170372269, 0.004, 0.9520000000000001, 0.278, 192.0, 0.0, 0.0, 0.0, 0.0, 0.0, 0.0, 0.0, 0.0, 0.0, 1.6878045230993707E9, 0.0, 2023-06-26 13:35:23.099
70.0, 53935.832254389796, 50200.431072763335, 17738.098530542677, -30414.421011736515, 2596.2445254617364, -17672.429105332983, 19898.17111470355, 6944.999926686279, -0.006, 0.9540000000000001, 0.278, 192.0, 255.0, 208.0, 29.0, 208.0, 8.0, 176.0, 0.0, 0.0, 0.0, 1.6878045231023295E9, 0.0, 2023-06-26 13:35:23.102
71.0, 53918.30848673684, 50162.85779033397, 17693.663262565526, -30427.228561309406, 2454.757983059643, -17700.480544624395, 19856.6862769945, 6943.32354585213, -0.006, 0.9540000000000001, 0.278, 192.0, 0.0, 0.0, 0.0, 0.0, 0.0, 0.0, 0.0, 0.0, 0.0, 1.6878045231063595E9, 0.0, 2023-06-26 13:35:23.106
72.0, 53893.185125969074, 50191.69154068131, 17818.833031515245, -30240.815012552146, 2456.881398782897, -17500.007748604745, 20016.7247672945, 7129.111245764643, -0.006, 0.9540000000000001, 0.278, 192.0, 0.0, 0.0, 0.0, 0.0, 0.0, 0.0, 0.0, 0.0, 0.0, 1.6878045231113768E9, 0.0, 2023-06-26 13:35:23.111
73.0, 53906.61852438671, 50231.969384189775, 17875.606462431726, -30196.558558530636, 2608.7615023567087, -17429.82327101508, 20085.098753583283, 7166.3716037716395, -0.006, 0.9540000000000001, 0.278, 192.0, 0.0, 0.0, 0.0, 0.0, 0.0, 0.0, 0.0, 0.0, 0.0, 1.6878045231154013E9, 0.0, 2023-06-26 13:35:23.115
74.0, 53943.87888239371, 50218.64774449441, 17766.37348727864, -30366.320057668694, 2640.389220760968, -17603.697491132916, 19948.216670538983, 7000.745177357814, -0.006, 0.9540000000000001, 0.278, 192.0, 0.0, 0.0, 0.0, 0.0, 0.0, 0.0, 0.0, 0.0, 0.0, 1.687804523119423E9, 0.0, 2023-06-26 13:35:23.119
75.0, 53920.36484722672, 50161.02494728863, 17675.535997812272, -30446.294599329784, 2482.004759550662, -17707.92367552801, 19846.851509434167, 6930.605403257061, -0.006, 0.9540000000000001, 0.278, 192.0, 0.0, 0.0, 0.0, 0.0, 0.0, 0.0, 0.0, 0.0, 0.0, 1.6878045231224327E9, 0.0, 2023-06-26 13:35:23.122
76.0, 53873.64970131513, 50158.9909385432, 17764.0936093442, -30292.626356199547, 2416.0224099185957, -17551.75203701878, 19959.23608055545, 7082.217285897409, -0.006, 0.9540000000000001, 0.278, 192.0, 0.0, 0.0, 0.0, 0.0, 0.0, 0.0, 0.0, 0.0, 0.0, 1.6878045231264503E9, 0.0, 2023-06-26 13:35:23.126
77.0, 53895.554410881334, 50225.107398641994, 17872.14194204115, -30183.92982291339, 2578.139612452938, -17417.529811564662, 20083.73529717151, 7192.277275595341, -0.006, 0.9540000000000001, 0.278, 192.0, 0.0, 0.0, 0.0, 0.0, 0.0, 0.0, 0.0, 0.0, 0.0, 1.6878045231304703E9, 0.0, 2023-06-26 13:35:23.130
78.0, 53924.25405076195, 50215.02676189265, 17771.447333269996, -30348.125737682076, 2636.3435550145573, -17581.301043188698, 19960.241909055938, 7020.43706422294, -0.006, 0.9540000000000001, 0.278, 192.0, 0.0, 0.0, 0.0, 0.0, 0.0, 0.0, 0.0, 0.0, 0.0, 1.6878045231344984E9, 0.0, 2023-06-26 13:35:23.134
79.0, 53900.42709117259, 50146.87629304842, 17651.463169033905, -30483.26438465886, 2481.5353729171006, -17740.691332899492, 19816.83311663069, 6885.745452135259, -0.006, 0.9540000000000001, 0.278, 192.0, 0.0, 0.0, 0.0, 0.0, 0.0, 0.0, 0.0, 0.0, 0.0, 1.6878045231395197E9, 0.0, 2023-06-26 13:35:23.139
80.0, 53876.48837286096, 50155.68288036381, 17741.563050933248, -30334.17824914196, 2415.977706429685, -17591.918121804967, 19924.14384176062, 7045.5604249907055, -0.004, 0.9520000000000001, 0.276, 192.0, 255.0, 224.0, 29.0, 192.0, 8.0, 160.0, 0.0, 0.0, 0.0, 1.6878045231435273E9, 0.0, 2023-06-26 13:35:23.143
81.0, 53887.4183758996, 50212.56807000257, 17871.851369363234, -30191.819988706113, 2558.7606500101865, -17424.34709362353, 20088.943253629597, 7200.055682665788, -0.004, 0.9520000000000001, 0.276, 192.0, 0.0, 0.0, 0.0, 0.0, 0.0, 0.0, 0.0, 0.0, 0.0, 1.6878045231475587E9, 0.0, 2023-06-26 13:35:23.147
82.0, 53934.222928789015, 50232.21525337878, 17816.821374514268, -30307.177341839953, 2658.3376715585796, -17540.598516535585, 20018.982293484485, 7070.057936913721, -0.004, 0.9520000000000001, 0.276, 192.0, 0.0, 0.0, 0.0, 0.0, 0.0, 0.0, 0.0, 0.0, 0.0, 1.687804523150572E9, 0.0, 2023-06-26 13:35:23.150
83.0, 53924.924603095606, 50174.03366256162, 17678.754649013837, -30466.299410617285, 2525.2553850716813, -17729.537812416293, 19847.92439316802, 6901.74930116526, -0.004, 0.9520000000000001, 0.276, 192.0, 0.0, 0.0, 0.0, 0.0, 0.0, 0.0, 0.0, 0.0, 0.0, 1.6878045231545844E9, 0.0, 2023-06-26 13:35:23.154
84.0, 53889.47473638949, 50160.19793274378, 17730.1860130055, -30355.77003428579, 2421.2303663766825, -17625.468090232385, 19912.565638132768, 7010.356427473596, -0.004, 0.9520000000000001, 0.276, 192.0, 0.0, 0.0, 0.0, 0.0, 0.0, 0.0, 0.0, 0.0, 0.0, 1.6878045231586132E9, 0.0, 2023-06-26 13:35:23.158
85.0, 53888.468907889, 50211.0034478907, 17867.403372216628, -30187.349639815053, 2526.4400275278126, -17438.40634088592, 20067.6867446526, 7167.176266572031, -0.004, 0.9520000000000001, 0.276, 192.0, 0.0, 0.0, 0.0, 0.0, 0.0, 0.0, 0.0, 0.0, 0.0, 1.6878045231626356E9, 0.0, 2023-06-26 13:35:23.162
86.0, 53928.143254297174, 50235.21038713579, 17837.496738135425, -30271.03457105572, 2647.9888138757724, -17510.714234198836, 20019.406976629136, 7079.4903730738615, -0.004, 0.9520000000000001, 0.276, 192.0, 0.0, 0.0, 0.0, 0.0, 0.0, 0.0, 0.0, 0.0, 0.0, 1.68780452316665E9, 0.0, 2023-06-26 13:35:23.166
87.0, 53928.81380663083, 50177.87816260793, 17688.79058227427, -30460.309143103263, 2540.8121992125753, -17719.010140777846, 19838.536660496793, 6906.89020238998, -0.004, 0.9520000000000001, 0.276, 192.0, 0.0, 0.0, 0.0, 0.0, 0.0, 0.0, 0.0, 0.0, 0.0, 1.687804523171677E9, 0.0, 2023-06-26 13:35:23.171
88.0, 53897.36490218221, 50153.69357510729, 17702.15692545854, -30399.44534295146, 2415.1283401403834, -17664.20366337343, 19865.850492221176, 6974.280711922731, -0.004, 0.9520000000000001, 0.276, 192.0, 0.0, 0.0, 0.0, 0.0, 0.0, 0.0, 0.0, 0.0, 0.0, 1.6878045231757E9, 0.0, 2023-06-26 13:35:23.175
89.0, 53894.7720998254, 50208.03066587814, 17851.24306097544, -30196.44679980836, 2496.7345591467097, -17449.917489280404, 20053.06870377883, 7168.942054384, -0.004, 0.9520000000000001, 0.276, 192.0, 0.0, 0.0, 0.0, 0.0, 0.0, 0.0, 0.0, 0.0, 0.0, 1.6878045231786947E9, 0.0, 2023-06-26 13:35:23.178
90.0, 53937.15100731266, 50251.79538152163, 17864.184721015063, -30227.023986223223, 2645.7536394302415, -17469.49761742325, 20054.141587512684, 7120.595231127171, 0.002, 0.9480000000000001, 0.27, 192.0, 0.0, 16.0, 29.0, 160.0, 8.0, 112.0, 0.0, 0.0, 0.0, 1.6878045231827073E9, 0.0, 2023-06-26 13:35:23.182
91.0, 53945.21998706103, 50203.00152337569, 17714.91977154252, -30426.289788042282, 2574.8315542735522, -17685.88485549508, 19873.02540219133, 6925.017467143234, 0.002, 0.9480000000000001, 0.27, 192.0, 0.0, 0.0, 0.0, 0.0, 0.0, 0.0, 0.0, 0.0, 0.0, 1.6878045231867437E9, 0.0, 2023-06-26 13:35:23.186
92.0, 53909.613658143724, 50157.716889109244, 17682.532093826783, -30418.73489841639, 2416.6482587633445, -17693.707966054437, 19847.566765256735, 6947.0115836872565, 0.002, 0.9480000000000001, 0.27, 192.0, 0.0, 0.0, 0.0, 0.0, 0.0, 0.0, 0.0, 0.0, 0.0, 1.6878045231907623E9, 0.0, 2023-06-26 13:35:23.190
93.0, 53898.41543417161, 50199.98403787423, 17825.203278685007, -30216.22809365131, 2453.171009203316, -17478.639480905473, 20018.088223706272, 7143.975155827422, 0.002, 0.9480000000000001, 0.27, 192.0, 0.0, 0.0, 0.0, 0.0, 0.0, 0.0, 0.0, 0.0, 0.0, 1.6878045231947718E9, 0.0, 2023-06-26 13:35:23.194
94.0, 53931.76423689893, 50247.213273908295, 17876.612290932215, -30194.569253274116, 2618.484511194767, -17440.30623916462, 20063.954003328563, 7155.531007710816, 0.002, 0.9480000000000001, 0.27, 192.0, 0.0, 0.0, 0.0, 0.0, 0.0, 0.0, 0.0, 0.0, 0.0, 1.687804523198805E9, 0.0, 2023-06-26 13:35:23.198
95.0, 53945.44350450558, 50204.65555246539, 17735.975114819423, -30395.64554639406, 2595.350455683524, -17654.10067487963, 19893.92428325704, 6950.632566289016, 0.002, 0.9480000000000001, 0.27, 192.0, 0.0, 0.0, 0.0, 0.0, 0.0, 0.0, 0.0, 0.0, 0.0, 1.6878045232048411E9, 0.0, 2023-06-26 13:35:23.204
96.0, 53918.643762903666, 50156.465191419746, 17679.335794369676, -30428.837886910187, 2443.1350759428833, -17708.54952437276, 19836.525003495815, 6920.0106763852455, 0.002, 0.9480000000000001, 0.27, 192.0, 0.0, 0.0, 0.0, 0.0, 0.0, 0.0, 0.0, 0.0, 0.0, 1.6878045232078464E9, 0.0, 2023-06-26 13:35:23.207
97.0, 53902.81872782931, 50191.26685753666, 17814.273275646363, -30228.40979437945, 2448.812419034531, -17499.09132708208, 20004.408956099625, 7120.818748571724, 0.002, 0.9480000000000001, 0.27, 192.0, 0.0, 0.0, 0.0, 0.0, 0.0, 0.0, 0.0, 0.0, 0.0, 1.687804523211877E9, 0.0, 2023-06-26 13:35:23.211
98.0, 53925.03636181788, 50241.71474477229, 17888.995157360456, -30168.90945063942, 2609.2755924791804, -17418.379177853963, 20089.83732340781, 7178.910932411067, 0.002, 0.9480000000000001, 0.27, 192.0, 0.0, 0.0, 0.0, 0.0, 0.0, 0.0, 0.0, 0.0, 0.0, 1.687804523214868E9, 0.0, 2023-06-26 13:35:23.214
99.0, 53947.61162371774, 50213.64095373642, 17764.47358899994, -30359.078092465177, 2620.9208513403955, -17615.834488372147, 19926.89310632862, 6992.027997020245, 0.002, 0.9480000000000001, 0.27, 192.0, 0.0, 0.0, 0.0, 0.0, 0.0, 0.0, 0.0, 0.0, 0.0, 1.6878045232189133E9, 0.0, 2023-06-26 13:35:23.218
100.0, 53911.17828025559, 50141.422467401324, 17654.011267901813, -30458.588058780202, 2449.43826787928, -17739.61844916564, 19813.458003217936, 6897.278952274198, 0.004, 0.9500000000000001, 0.268, 192.0, 0.0, 32.0, 29.0, 176.0, 8.0, 96.0, 0.0, 0.0, 0.0, 1.6878045232229404E9, 0.0, 2023-06-26 13:35:23.222
101.0, 53862.16090466511, 50136.72860106571, 17752.068370827245, -30300.002431869798, 2395.525860253079, -17578.68588908743, 19945.33329550425, 7056.691593729448, 0.004, 0.9500000000000001, 0.268, 192.0, 0.0, 0.0, 0.0, 0.0, 0.0, 0.0, 0.0, 0.0, 0.0, 1.687804523226951E9, 0.0, 2023-06-26 13:35:23.226
102.0, 53892.0228352574, 50209.997619390204, 17872.924253097088, -30174.050351864145, 2561.2193419002706, -17434.9641722398, 20082.8412273933, 7164.874036893134, 0.004, 0.9500000000000001, 0.268, 192.0, 0.0, 0.0, 0.0, 0.0, 0.0, 0.0, 0.0, 0.0, 0.0, 1.6878045232321043E9, 0.0, 2023-06-26 13:35:23.232
103.0, 53924.924603095606, 50206.51074725518, 17780.879769430136, -30324.32112983717, 2621.032610062672, -17587.067793258168, 19951.27885952936, 7010.132910029043, 0.004, 0.9500000000000001, 0.268, 192.0, 0.0, 0.0, 0.0, 0.0, 0.0, 0.0, 0.0, 0.0, 0.0, 1.6878045232349715E9, 0.0, 2023-06-26 13:35:23.234
104.0, 53923.874071106206, 50156.15226699737, 17675.89362572356, -30439.231448081908, 2487.950323575774, -17731.348303717175, 19828.143099325072, 6901.391673253975, 0.004, 0.9500000000000001, 0.268, 192.0, 0.0, 0.0, 0.0, 0.0, 0.0, 0.0, 0.0, 0.0, 0.0, 1.6878045232379963E9, 0.0, 2023-06-26 13:35:23.237
105.0, 53901.54467839536, 50162.611921144955, 17768.720420446447, -30286.256109029786, 2429.656974036333, -17578.015336753768, 19959.124321833173, 7067.353375834629, 0.004, 0.9500000000000001, 0.268, 192.0, 0.0, 0.0, 0.0, 0.0, 0.0, 0.0, 0.0, 0.0, 0.0, 1.6878045232430277E9, 0.0, 2023-06-26 13:35:23.243
106.0, 53910.35126571075, 50222.08991314053, 17895.54421848586, -30141.77443287068, 2559.565312810578, -17407.1586021374, 20104.41066079267, 7203.251982122896, 0.004, 0.9500000000000001, 0.268, 192.0, 0.0, 0.0, 0.0, 0.0, 0.0, 0.0, 0.0, 0.0, 0.0, 1.687804523247026E9, 0.0, 2023-06-26 13:35:23.247
107.0, 53924.32110599532, 50212.545718258116, 17808.886505232633, -30288.357173008582, 2632.476703223789, -17547.393446849997, 19993.657767016623, 7045.314555801697, 0.004, 0.9500000000000001, 0.268, 192.0, 0.0, 0.0, 0.0, 0.0, 0.0, 0.0, 0.0, 0.0, 0.0, 1.6878045232510629E9, 0.0, 2023-06-26 13:35:23.251
108.0, 53923.941126339574, 50157.89570306489, 17674.038430933768, -30442.964189405942, 2510.1232540754386, -17729.627219394115, 19837.374369785117, 6899.737644164282, 0.004, 0.9500000000000001, 0.268, 192.0, 0.0, 0.0, 0.0, 0.0, 0.0, 0.0, 0.0, 0.0, 0.0, 1.6878045232551227E9, 0.0, 2023-06-26 13:35:23.255
109.0, 53911.60296340024, 50166.43406944681, 17738.970248576432, -30324.14231588153, 2417.855252963931, -17613.308741248697, 19921.90866731509, 7024.0803985691555, 0.004, 0.9500000000000001, 0.268, 192.0, 0.0, 0.0, 0.0, 0.0, 0.0, 0.0, 0.0, 0.0, 0.0, 1.68780452325915E9, 0.0, 2023-06-26 13:35:23.259
110.0, 53905.836213330775, 50213.64095373642, 17868.49860769494, -30158.426482489886, 2514.4147890108575, -17428.303352392122, 20078.013250590953, 7188.90216218259, 0.004, 0.9500000000000001, 0.268, 192.0, 0.0, 0.0, 0.0, 0.0, 0.0, 0.0, 0.0, 0.0, 0.0, 1.6878045232631447E9, 0.0, 2023-06-26 13:35:23.263
111.0, 53945.35409752776, 50242.29589012812, 17841.00596201491, -30230.9355415029, 2633.7284009132864, -17485.590873431072, 20020.725729552, 7099.428129127995, 0.006, 0.9540000000000001, 0.272, 192.0, 0.0, 48.0, 29.0, 208.0, 8.0, 128.0, 0.0, 0.0, 0.0, 1.6878045232661452E9, 0.0, 2023-06-26 13:35:23.266
112.0, 53946.00229811696, 50189.45636623578, 17697.284245167284, -30416.8797036266, 2541.4156963128685, -17696.88191376709, 19838.715474452434, 6909.572411724617, 0.006, 0.9540000000000001, 0.272, 192.0, 0.0, 0.0, 0.0, 0.0, 0.0, 0.0, 0.0, 0.0, 0.0, 1.687804523271153E9, 0.0, 2023-06-26 13:35:23.271
113.0, 53899.10833824973, 50147.658604104356, 17694.512628854827, -30374.657258350526, 2405.0253516465846, -17665.34360234065, 19869.02443993383, 6969.564493842661, 0.006, 0.9540000000000001, 0.272, 192.0, 0.0, 0.0, 0.0, 0.0, 0.0, 0.0, 0.0, 0.0, 0.0, 1.6878045232751796E9, 0.0, 2023-06-26 13:35:23.275
114.0, 53900.13651849467, 50205.5496222436, 17851.779502842368, -30170.76464542921, 2485.7375008746985, -17439.233355430766, 20063.328154483814, 7179.13444985562, 0.006, 0.9540000000000001, 0.272, 192.0, 0.0, 0.0, 0.0, 0.0, 0.0, 0.0, 0.0, 0.0, 0.0, 1.6878045232792072E9, 0.0, 2023-06-26 13:35:23.279
115.0, 53940.25789979195, 50251.057773954606, 17868.85623560622, -30198.681974253894, 2638.1540463154374, -17455.773646327692, 20064.758666128953, 7131.771103354825, 0.006, 0.9540000000000001, 0.272, 192.0, 0.0, 0.0, 0.0, 0.0, 0.0, 0.0, 0.0, 0.0, 0.0, 1.687804523283194E9, 0.0, 2023-06-26 13:35:23.283
116.0, 53939.877920136205, 50191.82565114804, 17712.952818030455, -30410.196532034464, 2569.4447838598235, -17684.25317814984, 19874.947652214487, 6930.247775345776, 0.006, 0.9540000000000001, 0.272, 192.0, 0.0, 0.0, 0.0, 0.0, 0.0, 0.0, 0.0, 0.0, 0.0, 1.6878045232872071E9, 0.0, 2023-06-26 13:35:23.287
117.0, 53905.59034414177, 50148.418563415835, 17681.526265326294, -30408.341337244674, 2418.14582564185, -17698.468887623418, 19852.059465892253, 6943.100028407577, 0.006, 0.9540000000000001, 0.272, 192.0, 0.0, 0.0, 0.0, 0.0, 0.0, 0.0, 0.0, 0.0, 0.0, 1.687804523290233E9, 0.0, 2023-06-26 13:35:23.290
118.0, 53902.259934217924, 50199.82757566304, 17831.975857254965, -30202.50412255575, 2458.334262172492, -17480.31586173962, 20030.694607579066, 7145.919757595034, 0.006, 0.9540000000000001, 0.272, 192.0, 0.0, 0.0, 0.0, 0.0, 0.0, 0.0, 0.0, 0.0, 0.0, 1.6878045232943332E9, 0.0, 2023-06-26 13:35:23.294
119.0, 53916.09566403576, 50231.0082591782, 17865.101142537733, -30198.413753320427, 2610.1696622573927, -17455.840701561057, 20067.195006274582, 7148.713725651947, 0.006, 0.9540000000000001, 0.272, 192.0, 0.0, 0.0, 0.0, 0.0, 0.0, 0.0, 0.0, 0.0, 0.0, 1.6878045232982953E9, 0.0, 2023-06-26 13:35:23.298
120.0, 53922.01887631642, 50180.850944620484, 17712.952818030455, -30412.92344485801, 2575.882086262952, -17679.35814611413, 19878.993317960896, 6924.033990387201, 0.006, 0.9540000000000001, 0.272, 192.0, 0.0, 0.0, 0.0, 0.0, 0.0, 0.0, 0.0, 0.0, 0.0, 1.6878045233023236E9, 0.0, 2023-06-26 13:35:23.302
121.0, 53909.63600988818, 50142.204778457264, 17666.01415467431, -30442.517154516838, 2428.204110646738, -17724.37455944712, 19826.39966325756, 6901.391673253975, 0.008, 0.9520000000000001, 0.28, 192.0, 0.0, 64.0, 29.0, 192.0, 8.0, 192.0, 0.0, 0.0, 0.0, 1.687804523307325E9, 0.0, 2023-06-26 13:35:23.307
122.0, 53891.75461432393, 50174.32423523954, 17801.309263862284, -30248.481660900317, 2428.4276280912914, -17522.359493060052, 19992.13784839366, 7095.2260011703975, 0.008, 0.9520000000000001, 0.28, 192.0, 0.0, 0.0, 0.0, 0.0, 0.0, 0.0, 0.0, 0.0, 0.0, 1.6878045233113563E9, 0.0, 2023-06-26 13:35:23.311
123.0, 53911.46885293351, 50226.47085505377, 17882.133171812675, -30181.515834512214, 2588.868449791485, -17432.773701283182, 20084.49525648299, 7167.869170650145, 0.008, 0.9520000000000001, 0.28, 192.0, 0.0, 0.0, 0.0, 0.0, 0.0, 0.0, 0.0, 0.0, 0.0, 1.68780452331537E9, 0.0, 2023-06-26 13:35:23.315
124.0, 53935.80990264534, 50206.91307865537, 17765.45706575597, -30359.569830843193, 2618.193938516848, -17612.861706359592, 19940.32650474626, 6990.262209208276, 0.008, 0.9520000000000001, 0.28, 192.0, 0.0, 0.0, 0.0, 0.0, 0.0, 0.0, 0.0, 0.0, 0.0, 1.6878045233183854E9, 0.0, 2023-06-26 13:35:23.318
125.0, 53918.88963209267, 50151.74897333968, 17680.945119970456, -30444.72997721791, 2466.8055733210535, -17725.089815269686, 19836.30148605126, 6900.654065686949, 0.008, 0.9520000000000001, 0.28, 192.0, 0.0, 0.0, 0.0, 0.0, 0.0, 0.0, 0.0, 0.0, 0.0, 1.687804523322394E9, 0.0, 2023-06-26 13:35:23.322
126.0, 53890.592323612254, 50166.61288340246, 17786.601816010694, -30272.174510022942, 2426.9971164461513, -17550.746208518292, 19977.653917986623, 7076.763460250314, 0.008, 0.9520000000000001, 0.28, 192.0, 0.0, 0.0, 0.0, 0.0, 0.0, 0.0, 0.0, 0.0, 0.0, 1.6878045233264272E9, 0.0, 2023-06-26 13:35:23.326
127.0, 53894.928562036584, 50214.26680258117, 17885.262416036418, -30167.210718060818, 2568.4613071037897, -17421.933105222357, 20097.03458512242, 7178.553304499782, 0.008, 0.9520000000000001, 0.28, 192.0, 0.0, 0.0, 0.0, 0.0, 0.0, 0.0, 0.0, 0.0, 0.0, 1.687804523330466E9, 0.0, 2023-06-26 13:35:23.330
128.0, 53928.0314955749, 50208.902383911896, 17790.401612568094, -30324.34348158163, 2626.575842687588, -17580.563435621672, 19968.5120545044, 7011.116386785077, 0.008, 0.9520000000000001, 0.28, 192.0, 0.0, 0.0, 0.0, 0.0, 0.0, 0.0, 0.0, 0.0, 0.0, 1.6878045233344512E9, 0.0, 2023-06-26 13:35:23.334
129.0, 53936.23458578999, 50170.63619740441, 17692.50097185385, -30433.330587545704, 2498.7015126587767, -17713.73512908639, 19844.41516928854, 6910.980571625301, 0.008, 0.9520000000000001, 0.28, 192.0, 0.0, 0.0, 0.0, 0.0, 0.0, 0.0, 0.0, 0.0, 0.0, 1.6878045233394847E9, 0.0, 2023-06-26 13:35:23.339
130.0, 53898.504841149435, 50167.439897947304, 17758.88565288611, -30301.388240026026, 2417.3635145859143, -17584.47499090135, 19948.61900193918, 7047.929709902967, 0.008, 0.9520000000000001, 0.28, 192.0, 0.0, 0.0, 0.0, 0.0, 0.0, 0.0, 0.0, 0.0, 0.0, 1.687804523342491E9, 0.0, 2023-06-26 13:35:23.342
