%OpenBCI Raw EEG Data
%Number of channels = 8
%Sample Rate = 250 Hz
%Board = OpenBCI_GUI$BoardCytonSerial
Sample Index, EXG Channel 0, EXG Channel 1, EXG Channel 2, EXG Channel 3, EXG Channel 4, EXG Channel 5, EXG Channel 6, EXG Channel 7, Accel Channel 0, Accel Channel 1, Accel Channel 2, Other, Other, Other, Other, Other, Other, Other, Analog Channel 0, Analog Channel 1, Analog Channel 2, Timestamp, Other, Timestamp (Formatted)
7.0, 53713.6782662485, 50246.14039017444, 17545.80647299367, -30075.121530904955, 1850.5679786882376, -17153.801578736493, 20250.4793108081, 7071.06376541421, 0.0, 0.0, 0.0, 192.0, 0.0, 0.0, 0.0, 0.0, 0.0, 0.0, 0.0, 0.0, 0.0, 1.687804580786579E9, 0.0, 2023-06-26 13:36:20.786
8.0, 53754.40314464607, 50283.13252724797, 17546.342914860597, -30130.68796762085, 2011.612297488725, -17196.515762390587, 20242.38797931528, 7003.226220992354, 0.0, 0.0, 0.0, 192.0, 0.0, 0.0, 0.0, 0.0, 0.0, 0.0, 0.0, 0.0, 0.0, 1.687804580786606E9, 0.0, 2023-06-26 13:36:20.786
9.0, 53769.33410994222, 50238.36198310399, 17412.031282428656, -30319.20258035691, 1950.3685176811837, -17409.282017860653, 20082.34948901528, 6804.2509918512105, 0.0, 0.0, 0.0, 192.0, 0.0, 0.0, 0.0, 0.0, 0.0, 0.0, 0.0, 0.0, 0.0, 1.6878045807866173E9, 0.0, 2023-06-26 13:36:20.786
0.0, 0.0, 0.0, 0.0, 0.0, 0.0, 0.0, 0.0, 0.0, 0.002, 0.9400000000000001, 0.266, 192.0, 0.0, 16.0, 29.0, 96.0, 8.0, 80.0, 0.0, 0.0, 0.0, 1.6878045808597689E9, 0.0, 2023-06-26 13:36:20.859
1.0, 54109.50530880753, 49886.99256026657, 16938.21900346506, -29609.84761832328, -679.8506593526196, -17070.161350984734, 20068.424352219627, 6334.909061778672, 0.002, 0.9400000000000001, 0.266, 192.0, 0.0, 0.0, 0.0, 0.0, 0.0, 0.0, 0.0, 0.0, 0.0, 1.6878045808728259E9, 0.0, 2023-06-26 13:36:20.872
2.0, 54132.415846874224, 49947.38697378481, 17113.47903173912, -29413.554598516777, -553.6080066690454, -16872.52722651091, 20257.117778911328, 6536.1194653653465, 0.002, 0.9400000000000001, 0.266, 192.0, 0.0, 0.0, 0.0, 0.0, 0.0, 0.0, 0.0, 0.0, 0.0, 1.687804580875844E9, 0.0, 2023-06-26 13:36:20.875
3.0, 54173.90068458327, 49978.813526488964, 17096.089374552892, -29488.45529418651, -411.38385669992647, -16917.45423286608, 20245.494871794566, 6458.223635938602, 0.002, 0.9400000000000001, 0.266, 192.0, 0.0, 0.0, 0.0, 0.0, 0.0, 0.0, 0.0, 0.0, 0.0, 1.6878045808798568E9, 0.0, 2023-06-26 13:36:20.879
4.0, 54160.24376872108, 49926.64455493028, 16925.88084052573, -29689.889215217736, -513.5536806051351, -17111.42267124923, 20065.697439396077, 6251.894682871662, 0.002, 0.9400000000000001, 0.266, 192.0, 0.0, 0.0, 0.0, 0.0, 0.0, 0.0, 0.0, 0.0, 0.0, 1.6878045808828704E9, 0.0, 2023-06-26 13:36:20.882
5.0, 54107.314837850914, 49885.76321432152, 16917.83421252182, -29646.48212748553, -673.9274470719632, -17097.65399666476, 20052.286392722894, 6296.106433404259, 0.002, 0.9400000000000001, 0.266, 192.0, 0.0, 0.0, 0.0, 0.0, 0.0, 0.0, 0.0, 0.0, 0.0, 1.6878045808858795E9, 0.0, 2023-06-26 13:36:20.885
6.0, 54121.41878860221, 49939.250938803074, 17090.702604139162, -29431.525401058843, -599.4961380357908, -16896.376537844724, 20212.32488302289, 6507.956267351659, 0.002, 0.9400000000000001, 0.266, 192.0, 0.0, 0.0, 0.0, 0.0, 0.0, 0.0, 0.0, 0.0, 0.0, 1.6878045808899002E9, 0.0, 2023-06-26 13:36:20.889
7.0, 54163.730640856105, 49980.37814860084, 17114.238991050603, -29449.87618325665, -442.22926404825023, -16890.363918586245, 20229.938057653675, 6481.804726338951, 0.002, 0.9400000000000001, 0.266, 192.0, 0.0, 0.0, 0.0, 0.0, 0.0, 0.0, 0.0, 0.0, 0.0, 1.6878045808939161E9, 0.0, 2023-06-26 13:36:20.893
8.0, 54151.30307093896, 49929.30441252046, 16940.16360523267, -29665.659924228185, -502.84719501104297, -17092.58015067341, 20081.7906954039, 6261.774153920907, 0.004, 0.9420000000000001, 0.228, 192.0, 0.0, 32.0, 29.0, 112.0, 7.0, 32.0, 0.0, 0.0, 0.0, 1.6878045808979497E9, 0.0, 2023-06-26 13:36:20.897
9.0, 54112.41103558672, 49888.89245854527, 16905.808974004864, -29655.646342712207, -663.0197957777734, -17111.42267124923, 20045.24559321947, 6271.139534847682, 0.004, 0.9420000000000001, 0.228, 192.0, 0.0, 0.0, 0.0, 0.0, 0.0, 0.0, 0.0, 0.0, 0.0, 1.687804580901959E9, 0.0, 2023-06-26 13:36:20.901
10.0, 54112.7239600091, 49930.39964799877, 17073.46940916412, -29433.894685971107, -621.065571435162, -16913.63208456422, 20215.677644691186, 6494.2099445116455, 0.004, 0.9420000000000001, 0.228, 192.0, 0.0, 0.0, 0.0, 0.0, 0.0, 0.0, 0.0, 0.0, 0.0, 1.6878045809049633E9, 0.0, 2023-06-26 13:36:20.904
11.0, 54161.24959722157, 49986.50252658159, 17141.3963605638, -29395.829665163717, -448.1301245844513, -16858.87031064872, 20284.900997269273, 6528.00578212807, 0.004, 0.9420000000000001, 0.228, 192.0, 0.0, 0.0, 0.0, 0.0, 0.0, 0.0, 0.0, 0.0, 0.0, 1.68780458090899E9, 0.0, 2023-06-26 13:36:20.908
12.0, 54173.520704927534, 49961.93795942521, 16990.83500991285, -29595.967185016536, -466.9055899269092, -17042.80281577144, 20121.04035866742, 6320.134558693714, 0.004, 0.9420000000000001, 0.228, 192.0, 0.0, 0.0, 0.0, 0.0, 0.0, 0.0, 0.0, 0.0, 0.0, 1.6878045809130187E9, 0.0, 2023-06-26 13:36:20.913
13.0, 54123.13987292527, 49900.73888310658, 16901.025700691425, -29655.378121778744, -650.5251706272568, -17131.740406959107, 20026.045444732365, 6257.7731916634075, 0.004, 0.9420000000000001, 0.228, 192.0, 0.0, 0.0, 0.0, 0.0, 0.0, 0.0, 0.0, 0.0, 0.0, 1.687804580918036E9, 0.0, 2023-06-26 13:36:20.918
14.0, 54118.289544378466, 49931.18195905471, 17057.152635711747, -29432.01713943686, -646.9935950033182, -16944.2986779569, 20184.474609431578, 6476.864990814328, 0.004, 0.9420000000000001, 0.228, 192.0, 0.0, 0.0, 0.0, 0.0, 0.0, 0.0, 0.0, 0.0, 0.0, 1.6878045809221232E9, 0.0, 2023-06-26 13:36:20.922
15.0, 54160.62374837682, 49992.17986967324, 17162.742276518617, -29344.800632572253, -469.0290056501634, -16839.51369995042, 20291.15948571676, 6564.7073465236845, 0.004, 0.9420000000000001, 0.228, 192.0, 0.0, 0.0, 0.0, 0.0, 0.0, 0.0, 0.0, 0.0, 0.0, 1.6878045809261477E9, 0.0, 2023-06-26 13:36:20.926
16.0, 54176.96287357365, 49971.638616518816, 17028.47534757559, -29533.18113484158, -441.5140082256804, -17008.492888032542, 20151.9081177602, 6366.559131927387, 0.004, 0.9420000000000001, 0.228, 192.0, 0.0, 0.0, 0.0, 0.0, 0.0, 0.0, 0.0, 0.0, 0.0, 1.6878045809301565E9, 0.0, 2023-06-26 13:36:20.930
17.0, 54133.868710263814, 49904.89630757527, 16907.261837394457, -29638.167278548157, -620.1715016569498, -17134.28850582701, 20022.044482474863, 6255.202741051047, 0.004, 0.9420000000000001, 0.228, 192.0, 0.0, 0.0, 0.0, 0.0, 0.0, 0.0, 0.0, 0.0, 0.0, 1.6878045809341495E9, 0.0, 2023-06-26 13:36:20.934
18.0, 54110.71230300812, 49911.75829312304, 17022.976818439583, -29460.62737233965, -680.677673897466, -16990.767954679486, 20132.5515070619, 6435.380153105278, 0.004, 0.97, 0.20400000000000001, 192.0, 0.0, 32.0, 30.0, 80.0, 6.0, 96.0, 0.0, 0.0, 0.0, 1.6878045809391382E9, 0.0, 2023-06-26 13:36:20.939
19.0, 54154.00763201805, 49978.679416022234, 17161.691744529217, -29320.526638093786, -508.65864856942284, -16840.608935428732, 20278.240177421594, 6574.542114084019, 0.004, 0.97, 0.20400000000000001, 192.0, 0.0, 0.0, 0.0, 0.0, 0.0, 0.0, 0.0, 0.0, 0.0, 1.6878045809421685E9, 0.0, 2023-06-26 13:36:20.942
20.0, 54177.789888118496, 49976.734814254625, 17063.031144503493, -29473.54668063482, -434.42850523334806, -16973.378297493255, 20175.444504671636, 6410.949696415627, 0.004, 0.97, 0.20400000000000001, 192.0, 0.0, 0.0, 0.0, 0.0, 0.0, 0.0, 0.0, 0.0, 0.0, 1.6878045809461825E9, 0.0, 2023-06-26 13:36:20.946
21.0, 54139.4789981221, 49913.188804768186, 16915.062596209358, -29620.241179495002, -592.745911210288, -17130.064026124957, 20013.72963353749, 6259.0025376084495, 0.004, 0.97, 0.20400000000000001, 192.0, 0.0, 0.0, 0.0, 0.0, 0.0, 0.0, 0.0, 0.0, 0.0, 1.6878045809512289E9, 0.0, 2023-06-26 13:36:20.951
22.0, 54115.40616934373, 49912.25003150106, 17002.837896685352, -29465.34359041972, -683.449290209924, -17010.50454503352, 20098.08511711182, 6415.21887960659, 0.004, 0.97, 0.20400000000000001, 192.0, 0.0, 0.0, 0.0, 0.0, 0.0, 0.0, 0.0, 0.0, 0.0, 1.6878045809542315E9, 0.0, 2023-06-26 13:36:20.954
23.0, 54151.97362327261, 49979.70759626718, 17170.520683589064, -29284.137998120546, -526.718858089311, -16835.132758037184, 20281.14590420078, 6595.083367238447, 0.004, 0.97, 0.20400000000000001, 192.0, 0.0, 0.0, 0.0, 0.0, 0.0, 0.0, 0.0, 0.0, 0.0, 1.6878045809642835E9, 0.0, 2023-06-26 13:36:20.964
24.0, 54187.46819346764, 49993.2527534071, 17115.557743973462, -29395.85201690817, -406.93585955332037, -16913.229753164025, 20227.993455886062, 6478.6531303707525, 0.004, 0.97, 0.20400000000000001, 192.0, 0.0, 0.0, 0.0, 0.0, 0.0, 0.0, 0.0, 0.0, 0.0, 1.6878045809683373E9, 0.0, 2023-06-26 13:36:20.968
25.0, 54160.89196931029, 49932.09838057737, 16950.49011117102, -29580.499777853463, -539.4370006843807, -17094.412993718743, 20052.286392722894, 6291.367863579734, 0.004, 0.97, 0.20400000000000001, 192.0, 0.0, 0.0, 0.0, 0.0, 0.0, 0.0, 0.0, 0.0, 0.0, 1.6878045809713192E9, 0.0, 2023-06-26 13:36:20.971
26.0, 54110.64524777475, 49897.69904586066, 16978.49684697352, -29489.058791286803, -684.4104152215023, -17046.781426284484, 20075.085172067305, 6378.539666955432, 0.004, 0.97, 0.20400000000000001, 192.0, 0.0, 0.0, 0.0, 0.0, 0.0, 0.0, 0.0, 0.0, 0.0, 1.6878045809743128E9, 0.0, 2023-06-26 13:36:20.974
27.0, 54137.82496903241, 49962.78732571451, 17153.95804094768, -29286.93196617746, -566.8625911310424, -16853.081208834792, 20259.10708416785, 6582.54403859902, 0.004, 0.97, 0.20400000000000001, 192.0, 0.0, 0.0, 0.0, 0.0, 0.0, 0.0, 0.0, 0.0, 0.0, 1.6878045809783528E9, 0.0, 2023-06-26 13:36:20.978
28.0, 54192.743205159095, 50004.830957034945, 17146.4478548107, -29344.599466872154, -414.42369394584824, -16877.399906802166, 20255.977839944106, 6518.707456434662, 0.006, 0.986, 0.186, 192.0, 0.0, 48.0, 30.0, 208.0, 5.0, 208.0, 0.0, 0.0, 0.0, 1.687804580981354E9, 0.0, 2023-06-26 13:36:20.981
29.0, 54164.7364693566, 49935.339383523395, 16956.68154438514, -29567.535766069388, -527.8811488009869, -17086.99221455958, 20049.15714849915, 6290.563200779343, 0.006, 0.986, 0.186, 192.0, 0.0, 0.0, 0.0, 0.0, 0.0, 0.0, 0.0, 0.0, 0.0, 1.6878045809843771E9, 0.0, 2023-06-26 13:36:20.984
30.0, 54117.171957155704, 49896.045016770964, 16949.68544837063, -29529.157820839624, -690.0877583131503, -17082.09718252387, 20037.95892452704, 6334.909061778672, 0.006, 0.986, 0.186, 192.0, 0.0, 0.0, 0.0, 0.0, 0.0, 0.0, 0.0, 0.0, 0.0, 1.68780458098737E9, 0.0, 2023-06-26 13:36:20.987
31.0, 54148.26323369303, 49967.25767460557, 17138.691799484706, -29299.985384939362, -596.4339490454137, -16866.156979341147, 20242.209165359636, 6569.267102392567, 0.006, 0.986, 0.186, 192.0, 0.0, 0.0, 0.0, 0.0, 0.0, 0.0, 0.0, 0.0, 0.0, 1.6878045809914136E9, 0.0, 2023-06-26 13:36:20.991
32.0, 54199.940466873704, 50014.688076339735, 17171.168884178267, -29307.920254220993, -419.83281610403253, -16844.72165640851, 20283.179912946216, 6561.756916255584, 0.006, 0.986, 0.186, 192.0, 0.0, 0.0, 0.0, 0.0, 0.0, 0.0, 0.0, 0.0, 0.0, 1.6878045809944327E9, 0.0, 2023-06-26 13:36:20.994
33.0, 54184.540114944, 49959.00988090156, 16991.39380352423, -29534.61164648672, -481.6130377785013, -17050.827092030893, 20100.87908516873, 6332.942108266605, 0.006, 0.986, 0.186, 192.0, 0.0, 0.0, 0.0, 0.0, 0.0, 0.0, 0.0, 0.0, 0.0, 1.6878045809974408E9, 0.0, 2023-06-26 13:36:20.997
34.0, 54131.030038717996, 49904.225755241605, 16933.39102666271, -29557.18690838658, -668.8536010806085, -17096.49170595309, 20038.96475302753, 6317.273535403435, 0.006, 0.986, 0.186, 192.0, 0.0, 0.0, 0.0, 0.0, 0.0, 0.0, 0.0, 0.0, 0.0, 1.6878045810084884E9, 0.0, 2023-06-26 13:36:21.008
35.0, 54140.84245453387, 49953.712517465654, 17105.946493857682, -29339.36915866961, -632.0402779627178, -16896.421241333635, 20210.827316144387, 6542.757933468572, 0.006, 0.986, 0.186, 192.0, 0.0, 0.0, 0.0, 0.0, 0.0, 0.0, 0.0, 0.0, 0.0, 1.6878045810114956E9, 0.0, 2023-06-26 13:36:21.011
36.0, 54185.72475740013, 50005.680323324246, 17174.49929410211, -29297.638451771552, -454.1874473318395, -16831.064740546317, 20280.76592454504, 6580.39827113131, 0.006, 0.986, 0.186, 192.0, 0.0, 0.0, 0.0, 0.0, 0.0, 0.0, 0.0, 0.0, 0.0, 1.6878045810155373E9, 0.0, 2023-06-26 13:36:21.015
37.0, 54183.10960329886, 49965.49188679361, 17013.723196235085, -29520.88767539116, -464.8939329259316, -17023.982646940072, 20135.74780651901, 6367.073222049859, 0.006, 0.986, 0.186, 192.0, 0.0, 0.0, 0.0, 0.0, 0.0, 0.0, 0.0, 0.0, 0.0, 1.6878045810185125E9, 0.0, 2023-06-26 13:36:21.018
38.0, 54133.30991665243, 49902.03528428499, 16922.572782346342, -29589.932214013603, -644.3113856686814, -17112.24968579408, 20037.690703593576, 6298.408663083156, 0.006, 0.986, 0.186, 192.0, 0.0, 0.0, 0.0, 0.0, 0.0, 0.0, 0.0, 0.0, 0.0, 1.6878045810215569E9, 0.0, 2023-06-26 13:36:21.021
39.0, 54130.739466040075, 49933.26067128905, 17071.904787052248, -29388.386534260102, -652.9615107728853, -16932.00521850648, 20188.90025483373, 6509.029151085514, 0.006, 0.98, 0.18, 192.0, 0.0, 48.0, 30.0, 160.0, 5.0, 160.0, 0.0, 0.0, 0.0, 1.6878045810255728E9, 0.0, 2023-06-26 13:36:21.025
40.0, 54174.72769912812, 49996.11377669738, 17177.852055770403, -29302.064097173705, -471.48769754024715, -16820.782938096876, 20304.794049834498, 6601.386559174844, 0.006, 0.98, 0.18, 192.0, 0.0, 0.0, 0.0, 0.0, 0.0, 0.0, 0.0, 0.0, 0.0, 1.6878045810285888E9, 0.0, 2023-06-26 13:36:21.028
41.0, 54194.91132437126, 49983.440337591215, 17052.23525193158, -29491.361020965698, -427.76768538566654, -16976.64165218373, 20176.204463983115, 6410.368551059789, 0.006, 0.98, 0.18, 192.0, 0.0, 0.0, 0.0, 0.0, 0.0, 0.0, 0.0, 0.0, 0.0, 1.6878045810315783E9, 0.0, 2023-06-26 13:36:21.031
42.0, 54145.60337610285, 49913.27821174601, 16916.44840436559, -29620.598807406284, -613.0189434312515, -17109.232200292612, 20036.841337304275, 6282.874200686718, 0.006, 0.98, 0.18, 192.0, 0.0, 0.0, 0.0, 0.0, 0.0, 0.0, 0.0, 0.0, 0.0, 1.6878045810356088E9, 0.0, 2023-06-26 13:36:21.035
43.0, 54125.911489237726, 49924.27527001802, 17030.777577254485, -29449.853831512195, -674.128612772061, -16970.047887569417, 20152.578670093855, 6459.296519672456, 0.006, 0.98, 0.18, 192.0, 0.0, 0.0, 0.0, 0.0, 0.0, 0.0, 0.0, 0.0, 0.0, 1.6878045810386207E9, 0.0, 2023-06-26 13:36:21.038
44.0, 54173.56540841644, 49997.29841915351, 17174.54399759102, -29308.926082721482, -501.9307734883754, -16816.89373456165, 20295.741593330098, 6596.446823650221, 0.006, 0.98, 0.18, 192.0, 0.0, 0.0, 0.0, 0.0, 0.0, 0.0, 0.0, 0.0, 0.0, 1.6878045810436532E9, 0.0, 2023-06-26 13:36:21.043
45.0, 54212.09981585739, 50008.47429138116, 17088.333319226902, -29459.3533229057, -412.14381601140695, -16932.318142928856, 20206.692243420155, 6443.18091192018, 0.006, 0.98, 0.18, 192.0, 0.0, 0.0, 0.0, 0.0, 0.0, 0.0, 0.0, 0.0, 0.0, 1.6878045810467408E9, 0.0, 2023-06-26 13:36:21.046
46.0, 54174.68299563921, 49942.044906859985, 16935.380331919234, -29626.09733654229, -570.1259458215172, -17101.923179855727, 20049.671238621624, 6279.923770418617, 0.006, 0.98, 0.18, 192.0, 0.0, 0.0, 0.0, 0.0, 0.0, 0.0, 0.0, 0.0, 0.0, 1.6878045810496883E9, 0.0, 2023-06-26 13:36:21.049
47.0, 54145.89394878077, 49936.90400563527, 17016.673626503187, -29492.45625644401, -668.451269680413, -16995.774745437473, 20123.968437191063, 6422.147920387736, 0.006, 0.98, 0.18, 192.0, 0.0, 0.0, 0.0, 0.0, 0.0, 0.0, 0.0, 0.0, 0.0, 1.6878045810536952E9, 0.0, 2023-06-26 13:36:21.053
48.0, 54186.48471671161, 50011.91646002728, 17185.58575935194, -29305.84154198665, -517.9346225183752, -16806.097841989736, 20292.589997361898, 6607.108605755402, 0.006, 0.98, 0.18, 192.0, 0.0, 0.0, 0.0, 0.0, 0.0, 0.0, 0.0, 0.0, 0.0, 1.6878045810577219E9, 0.0, 2023-06-26 13:36:21.057
49.0, 54208.00944662207, 50011.335314671436, 17111.355616015866, -29437.40390985059, -413.5519759120913, -16900.757479757962, 20229.96040939813, 6470.628854111297, 0.004, 0.97, 0.168, 192.0, 0.0, 32.0, 30.0, 80.0, 5.0, 64.0, 0.0, 0.0, 0.0, 1.6878045810617473E9, 0.0, 2023-06-26 13:36:21.061
50.0, 54176.42643170672, 49943.944805138686, 16936.11793948626, -29637.720243659052, -549.6070444115454, -17096.536409441997, 20046.765511842434, 6271.38540403669, 0.004, 0.97, 0.168, 192.0, 0.0, 0.0, 0.0, 0.0, 0.0, 0.0, 0.0, 0.0, 0.0, 1.6878045810647626E9, 0.0, 2023-06-26 13:36:21.064
51.0, 54136.685030065186, 49920.31901124943, 16969.198521280112, -29550.07905364979, -687.159679789505, -17044.41214137222, 20076.515683712445, 6364.1898470151245, 0.004, 0.97, 0.168, 192.0, 0.0, 0.0, 0.0, 0.0, 0.0, 0.0, 0.0, 0.0, 0.0, 1.6878045810687845E9, 0.0, 2023-06-26 13:36:21.068
52.0, 54161.428411177214, 49983.10506142439, 17146.045523410503, -29346.18644072848, -571.1094225775507, -16842.28531626288, 20268.651279050264, 6581.135878698335, 0.004, 0.97, 0.168, 192.0, 0.0, 0.0, 0.0, 0.0, 0.0, 0.0, 0.0, 0.0, 0.0, 1.6878045810727973E9, 0.0, 2023-06-26 13:36:21.072
53.0, 54201.549792474485, 50012.877585038856, 17135.16022386077, -29408.033717636314, -414.6025079014907, -16870.560272998842, 20262.72806676961, 6515.712322677651, 0.004, 0.97, 0.168, 192.0, 0.0, 0.0, 0.0, 0.0, 0.0, 0.0, 0.0, 0.0, 0.0, 1.687804581076826E9, 0.0, 2023-06-26 13:36:21.076
54.0, 54190.59743769139, 49966.02832866053, 16971.74662014802, -29607.05365026637, -493.750035017733, -17062.002964258547, 20092.296015297892, 6315.731265036019, 0.004, 0.97, 0.168, 192.0, 0.0, 0.0, 0.0, 0.0, 0.0, 0.0, 0.0, 0.0, 0.0, 1.6878045810818448E9, 0.0, 2023-06-26 13:36:21.081
55.0, 54145.75983831404, 49928.81267414244, 16964.437599711135, -29570.17327191511, -650.03343224924, -17040.27706864799, 20081.388364003702, 6361.887617336228, 0.004, 0.97, 0.168, 192.0, 0.0, 0.0, 0.0, 0.0, 0.0, 0.0, 0.0, 0.0, 0.0, 1.6878045810868719E9, 0.0, 2023-06-26 13:36:21.086
56.0, 54146.47509413661, 49969.47049730665, 17127.4935755126, -29367.75587412785, -594.9810856558187, -16851.583641956287, 20245.740740983576, 6568.909474481282, 0.004, 0.97, 0.168, 192.0, 0.0, 0.0, 0.0, 0.0, 0.0, 0.0, 0.0, 0.0, 0.0, 1.6878045810908844E9, 0.0, 2023-06-26 13:36:21.090
57.0, 54200.00752210707, 50023.204090977204, 17167.39143936532, -29370.23691776239, -417.88821433642084, -16824.985066054473, 20292.098258983882, 6563.321538367455, 0.004, 0.97, 0.168, 192.0, 0.0, 0.0, 0.0, 0.0, 0.0, 0.0, 0.0, 0.0, 0.0, 1.687804581093908E9, 0.0, 2023-06-26 13:36:21.093
58.0, 54182.21553352065, 49966.385956571816, 16985.381184265756, -29597.487103639498, -475.8909911979427, -17030.33054236538, 20108.009291649974, 6333.076218733338, 0.004, 0.97, 0.168, 192.0, 0.0, 0.0, 0.0, 0.0, 0.0, 0.0, 0.0, 0.0, 0.0, 1.6878045810979407E9, 0.0, 2023-06-26 13:36:21.097
59.0, 54137.42263763221, 49916.72038039212, 16932.07227373985, -29619.72708937253, -654.4367259069355, -17071.971842285617, 20041.35638968425, 6318.368770881745, -0.004, 0.97, 0.166, 192.0, 255.0, 224.0, 30.0, 80.0, 5.0, 48.0, 0.0, 0.0, 0.0, 1.6878045811019504E9, 0.0, 2023-06-26 13:36:21.101
60.0, 54139.30018416646, 49955.23243608862, 17096.04467106398, -29405.686784468508, -624.6642022924665, -16884.32894758331, 20209.262694032514, 6539.204006100179, -0.004, 0.97, 0.166, 192.0, 0.0, 0.0, 0.0, 0.0, 0.0, 0.0, 0.0, 0.0, 0.0, 1.6878045811230395E9, 0.0, 2023-06-26 13:36:21.123
61.0, 54179.80154511947, 50004.51803261257, 17168.509026588086, -29360.178632757503, -444.978528616253, -16821.5205456639, 20294.98163401862, 6580.375919386855, -0.004, 0.97, 0.166, 192.0, 0.0, 0.0, 0.0, 0.0, 0.0, 0.0, 0.0, 0.0, 0.0, 1.6878045811270435E9, 0.0, 2023-06-26 13:36:21.127
62.0, 54193.68197842622, 49982.16628815726, 17023.982646940072, -29558.28214386489, -441.4916564812251, -16991.147934335226, 20151.617545082278, 6378.897294866717, -0.004, 0.97, 0.166, 192.0, 0.0, 0.0, 0.0, 0.0, 0.0, 0.0, 0.0, 0.0, 0.0, 1.6878045811301649E9, 0.0, 2023-06-26 13:36:21.130
63.0, 54149.02319300452, 49926.51044446355, 16933.815709807364, -29622.789278362907, -620.6855917794218, -17077.604481888353, 20049.604183388255, 6312.982000468016, -0.004, 0.97, 0.166, 192.0, 0.0, 0.0, 0.0, 0.0, 0.0, 0.0, 0.0, 0.0, 0.0, 1.6878045811331687E9, 0.0, 2023-06-26 13:36:21.133
64.0, 54138.47316962161, 49948.50456100757, 17071.61421437433, -29428.30674985728, -654.9955195183181, -16917.498936354987, 20179.400763440226, 6508.515060963043, -0.004, 0.97, 0.166, 192.0, 0.0, 0.0, 0.0, 0.0, 0.0, 0.0, 0.0, 0.0, 0.0, 1.687804581136155E9, 0.0, 2023-06-26 13:36:21.136
65.0, 54194.95602786017, 50019.47134965317, 17193.788849567038, -29324.728766051387, -465.98916840424164, -16801.22516169848, 20297.797953819987, 6610.3719604458765, -0.004, 0.97, 0.166, 192.0, 0.0, 0.0, 0.0, 0.0, 0.0, 0.0, 0.0, 0.0, 0.0, 1.6878045811401649E9, 0.0, 2023-06-26 13:36:21.140
66.0, 54205.23783030961, 49996.784329031034, 17068.194397472667, -29502.581596682263, -422.06799054956326, -16944.768064590462, 20175.511559905, 6422.684362254663, -0.004, 0.97, 0.166, 192.0, 0.0, 0.0, 0.0, 0.0, 0.0, 0.0, 0.0, 0.0, 0.0, 1.6878045811431632E9, 0.0, 2023-06-26 13:36:21.143
67.0, 54165.1835042457, 49934.534720723, 16941.392951177713, -29621.358766717767, -588.7896524416986, -17081.113705767835, 20053.046352034373, 6300.442671828589, -0.004, 0.97, 0.166, 192.0, 0.0, 0.0, 0.0, 0.0, 0.0, 0.0, 0.0, 0.0, 0.0, 1.6878045811461527E9, 0.0, 2023-06-26 13:36:21.146
68.0, 54143.4799603796, 49943.520121994035, 17047.98842048507, -29455.419415881566, -658.0130050197846, -16950.601869893297, 20151.975172993563, 6470.4947436445655, -0.004, 0.97, 0.166, 192.0, 0.0, 0.0, 0.0, 0.0, 0.0, 0.0, 0.0, 0.0, 0.0, 1.687804581149162E9, 0.0, 2023-06-26 13:36:21.149
69.0, 54188.47402196813, 50016.69973334071, 17199.108564747403, -29300.70064076193, -484.65287502442305, -16783.32141438978, 20308.34797720289, 6625.749960631128, -0.004, 0.986, 0.158, 192.0, 255.0, 224.0, 30.0, 208.0, 4.0, 240.0, 0.0, 0.0, 0.0, 1.6878045811531708E9, 0.0, 2023-06-26 13:36:21.153
70.0, 54208.59059197791, 50010.86592803788, 17100.80559263296, -29460.537965361833, -401.5267373951361, -16906.993616460994, 20212.682510934177, 6464.593883108364, -0.004, 0.986, 0.158, 192.0, 0.0, 0.0, 0.0, 0.0, 0.0, 0.0, 0.0, 0.0, 0.0, 1.687804581156198E9, 0.0, 2023-06-26 13:36:21.156
71.0, 54165.831704834905, 49935.67465969022, 16940.901212799694, -29623.303368485376, -563.6886434183888, -17083.035955790994, 20044.418578674624, 6291.569029279832, -0.004, 0.986, 0.158, 192.0, 0.0, 0.0, 0.0, 0.0, 0.0, 0.0, 0.0, 0.0, 0.0, 1.6878045811592176E9, 0.0, 2023-06-26 13:36:21.159
72.0, 54134.36044864183, 49928.07506657542, 17015.28781834696, -29488.254128486413, -668.6300836360555, -16982.006070853004, 20115.94416093161, 6434.642545538252, -0.004, 0.986, 0.158, 192.0, 0.0, 0.0, 0.0, 0.0, 0.0, 0.0, 0.0, 0.0, 0.0, 1.687804581162224E9, 0.0, 2023-06-26 13:36:21.162
73.0, 54174.88416133931, 50002.70754131169, 17189.16203846479, -29298.443114571946, -514.4477503833474, -16786.47301035798, 20298.580264875924, 6631.851986867427, -0.004, 0.986, 0.158, 192.0, 0.0, 0.0, 0.0, 0.0, 0.0, 0.0, 0.0, 0.0, 0.0, 1.6878045811652472E9, 0.0, 2023-06-26 13:36:21.165
74.0, 54204.38846402031, 50018.57727987496, 17130.242840080602, -29410.939444415504, -397.95045828228695, -16869.599147987265, 20233.268467577516, 6507.777453396017, -0.004, 0.986, 0.158, 192.0, 0.0, 0.0, 0.0, 0.0, 0.0, 0.0, 0.0, 0.0, 0.0, 1.6878045811782813E9, 0.0, 2023-06-26 13:36:21.178
75.0, 54175.71117588415, 49949.73390695261, 16950.825387337853, -29609.37823168972, -531.1221517470065, -17058.784313056985, 20055.97443055802, 6308.824575999329, -0.004, 0.986, 0.158, 192.0, 0.0, 0.0, 0.0, 0.0, 0.0, 0.0, 0.0, 0.0, 0.0, 1.6878045811823251E9, 0.0, 2023-06-26 13:36:21.182
76.0, 54121.82112000241, 49911.35596172285, 16971.165474792182, -29543.50764077993, -675.4473656949241, -17018.32765559288, 20099.336814801314, 6395.5940479748315, -0.004, 0.986, 0.158, 192.0, 0.0, 0.0, 0.0, 0.0, 0.0, 0.0, 0.0, 0.0, 0.0, 1.6878045811853368E9, 0.0, 2023-06-26 13:36:21.185
77.0, 54137.936727754684, 49966.7435844831, 17150.404113579287, -29337.26809469081, -566.8178876421318, -16813.920952549095, 20280.095372211385, 6609.2096697342, -0.004, 0.986, 0.158, 192.0, 0.0, 0.0, 0.0, 0.0, 0.0, 0.0, 0.0, 0.0, 0.0, 1.6878045811893506E9, 0.0, 2023-06-26 13:36:21.189
78.0, 54196.23007729412, 50017.25852695209, 17160.618860795363, -29377.657696921553, -400.74442633920034, -16826.81790909981, 20290.891264783295, 6562.6509860337965, -0.004, 0.986, 0.158, 192.0, 0.0, 0.0, 0.0, 0.0, 0.0, 0.0, 0.0, 0.0, 0.0, 1.6878045811923776E9, 0.0, 2023-06-26 13:36:21.192
79.0, 54185.83651612241, 49971.83978221891, 16987.728117433562, -29582.37732438771, -488.40796809291464, -17021.434548072168, 20110.98207366253, 6349.638861374719, -0.004, 0.986, 0.158, 192.0, 0.0, 0.0, 0.0, 0.0, 0.0, 0.0, 0.0, 0.0, 0.0, 1.687804581195386E9, 0.0, 2023-06-26 13:36:21.195
80.0, 54132.28173640749, 49919.335534493395, 16966.53866368993, -29556.47165256401, -655.2860921962372, -17029.3694173538, 20080.7401634145, 6376.304492509901, -0.006, 0.992, 0.164, 192.0, 255.0, 208.0, 31.0, 0.0, 5.0, 32.0, 0.0, 0.0, 0.0, 1.6878045811984007E9, 0.0, 2023-06-26 13:36:21.198
81.0, 54154.76759132953, 49976.108965409876, 17156.528491560042, -29331.680158576986, -572.003492355763, -16826.3708742107, 20269.366534872835, 6603.0405882645355, -0.006, 0.992, 0.164, 192.0, 0.0, 0.0, 0.0, 0.0, 0.0, 0.0, 0.0, 0.0, 0.0, 1.6878045812024264E9, 0.0, 2023-06-26 13:36:21.202
82.0, 54196.587705205406, 50019.158425230795, 17186.010442496594, -29347.549897140256, -405.90767930837626, -16813.18334498207, 20305.01756727905, 6588.735471813139, -0.006, 0.992, 0.164, 192.0, 0.0, 0.0, 0.0, 0.0, 0.0, 0.0, 0.0, 0.0, 0.0, 1.6878045812054253E9, 0.0, 2023-06-26 13:36:21.205
83.0, 54184.495411455086, 49970.47632580714, 17013.074995645882, -29558.997399687458, -460.58004624605735, -17001.228571084568, 20126.337722103326, 6366.134448782736, -0.006, 0.992, 0.164, 192.0, 0.0, 0.0, 0.0, 0.0, 0.0, 0.0, 0.0, 0.0, 0.0, 1.6878045812084455E9, 0.0, 2023-06-26 13:36:21.208
84.0, 54157.42744891971, 49937.507502735556, 16975.83698938334, -29562.506623566944, -619.389190601014, -17039.159481425224, 20085.366974516746, 6361.462934191577, -0.006, 0.992, 0.164, 192.0, 0.0, 0.0, 0.0, 0.0, 0.0, 0.0, 0.0, 0.0, 0.0, 1.6878045812124555E9, 0.0, 2023-06-26 13:36:21.212
85.0, 54148.46439939313, 49960.77566871353, 17122.57619173243, -29359.441025190477, -614.3600480985699, -16868.95094739806, 20232.396749543757, 6560.3040528659885, -0.006, 0.992, 0.164, 192.0, 0.0, 0.0, 0.0, 0.0, 0.0, 0.0, 0.0, 0.0, 0.0, 1.6878045812155104E9, 0.0, 2023-06-26 13:36:21.215
86.0, 54201.92977213023, 50019.940736286735, 17206.574047395476, -29300.879454717575, -434.09322906651846, -16786.338899891245, 20319.903829086285, 6616.40693144881, -0.006, 0.992, 0.164, 192.0, 0.0, 0.0, 0.0, 0.0, 0.0, 0.0, 0.0, 0.0, 0.0, 1.6878045812185016E9, 0.0, 2023-06-26 13:36:21.218
87.0, 54214.33499030292, 49995.77850053054, 17058.38198165679, -29507.431925229066, -429.7569906421889, -16966.06927705637, 20168.224891212572, 6407.552231258421, -0.006, 0.992, 0.164, 192.0, 0.0, 0.0, 0.0, 0.0, 0.0, 0.0, 0.0, 0.0, 0.0, 1.687804581222509E9, 0.0, 2023-06-26 13:36:21.222
88.0, 54164.62471063432, 49933.77476141152, 16956.949765318604, -29583.785484288393, -615.2541178767822, -17060.505397380042, 20056.265003235938, 6328.158834953169, -0.006, 0.992, 0.164, 192.0, 0.0, 0.0, 0.0, 0.0, 0.0, 0.0, 0.0, 0.0, 0.0, 1.6878045812255423E9, 0.0, 2023-06-26 13:36:21.225
89.0, 54157.11452449734, 49960.32863382443, 17102.839601378393, -29377.970621343928, -634.6554320639888, -16892.755555242962, 20204.926455608183, 6534.621898486841, -0.006, 0.992, 0.164, 192.0, 0.0, 0.0, 0.0, 0.0, 0.0, 0.0, 0.0, 0.0, 0.0, 1.6878045812285411E9, 0.0, 2023-06-26 13:36:21.228
90.0, 54204.65668495378, 50025.461617167195, 17225.461271460208, -29263.17206182147, -447.9960141177195, -16766.021164181373, 20334.812442637976, 6644.0113358511135, 0.002, 0.994, 0.164, 192.0, 0.0, 16.0, 31.0, 16.0, 5.0, 32.0, 0.0, 0.0, 0.0, 1.6878045812325437E9, 0.0, 2023-06-26 13:36:21.232
91.0, 54220.146443861304, 50005.36739890187, 17098.011624576047, -29444.77998552084, -404.61127812996847, -16914.123822942238, 20204.054737574428, 6453.865045769817, 0.002, 0.994, 0.164, 192.0, 0.0, 0.0, 0.0, 0.0, 0.0, 0.0, 0.0, 0.0, 0.0, 1.687804581235556E9, 0.0, 2023-06-26 13:36:21.235
92.0, 54175.57706541742, 49937.55220622447, 16961.956556076595, -29577.19171967408, -586.5991814850786, -17057.62202234531, 20056.466168936036, 6322.995581983993, 0.002, 0.994, 0.164, 192.0, 0.0, 0.0, 0.0, 0.0, 0.0, 0.0, 0.0, 0.0, 0.0, 1.687804581238588E9, 0.0, 2023-06-26 13:36:21.238
93.0, 54143.99405050207, 49932.59011895539, 17047.94371699616, -29442.2989418863, -676.8108221066979, -16953.038210038925, 20140.955762977097, 6470.651205855752, 0.002, 0.994, 0.164, 192.0, 0.0, 0.0, 0.0, 0.0, 0.0, 0.0, 0.0, 0.0, 0.0, 1.687804581242588E9, 0.0, 2023-06-26 13:36:21.242
94.0, 54169.3856322033, 49980.60166604539, 17188.893817531327, -29288.094256889137, -505.52940434567984, -16788.395260381134, 20292.455886895168, 6618.686809383251, 0.002, 0.994, 0.164, 192.0, 0.0, 0.0, 0.0, 0.0, 0.0, 0.0, 0.0, 0.0, 0.0, 1.6878045812456305E9, 0.0, 2023-06-26 13:36:21.245
95.0, 54210.31167630097, 49993.722140040656, 17106.10295606887, -29422.987034676917, -409.8415863325103, -16886.653529006664, 20218.51631623701, 6474.942740791171, 0.002, 0.994, 0.164, 192.0, 0.0, 0.0, 0.0, 0.0, 0.0, 0.0, 0.0, 0.0, 0.0, 1.6878045812486234E9, 0.0, 2023-06-26 13:36:21.248
96.0, 54159.86378906534, 49910.61835415583, 16927.28900042641, -29613.20037999158, -584.0510826171735, -17075.86104582084, 20035.72375008151, 6289.669131001131, 0.002, 0.994, 0.164, 192.0, 0.0, 0.0, 0.0, 0.0, 0.0, 0.0, 0.0, 0.0, 0.0, 1.687804581252642E9, 0.0, 2023-06-26 13:36:21.252
97.0, 54128.079608449894, 49899.86716507282, 16994.388937281245, -29489.997564553927, -704.4599299979127, -16982.78838190894, 20095.872294410743, 6419.219841864091, 0.002, 0.994, 0.164, 192.0, 0.0, 0.0, 0.0, 0.0, 0.0, 0.0, 0.0, 0.0, 0.0, 1.6878045812556672E9, 0.0, 2023-06-26 13:36:21.255
98.0, 54185.25537076657, 49992.738663284625, 17186.2563116856, -29284.763846965296, -539.4370006843807, -16776.995870708928, 20290.421878149733, 6624.967649575192, 0.002, 0.994, 0.164, 192.0, 0.0, 0.0, 0.0, 0.0, 0.0, 0.0, 0.0, 0.0, 0.0, 1.6878045812586813E9, 0.0, 2023-06-26 13:36:21.258
99.0, 54213.28445831352, 50004.80860529049, 17137.82008145095, -29392.879234895616, -418.62582190344597, -16852.634173945688, 20237.6270577463, 6508.246840029578, 0.002, 0.994, 0.164, 192.0, 0.0, 0.0, 0.0, 0.0, 0.0, 0.0, 0.0, 0.0, 0.0, 1.6878045812616904E9, 0.0, 2023-06-26 13:36:21.261
100.0, 54182.17083003173, 49942.49194174909, 16960.34723047581, -29594.62608034922, -528.4399424123695, -17044.03216171648, 20053.82866309031, 6304.421282341634, 0.004, 0.98, 0.14400000000000002, 192.0, 0.0, 32.0, 30.0, 160.0, 4.0, 128.0, 0.0, 0.0, 0.0, 1.6878045812677276E9, 0.0, 2023-06-26 13:36:21.267
101.0, 54138.070838221414, 49916.85449085885, 16981.5590359639, -29521.580579469275, -674.7321098723543, -16999.328672805867, 20076.31451801235, 6390.184925816647, 0.004, 0.98, 0.14400000000000002, 192.0, 0.0, 0.0, 0.0, 0.0, 0.0, 0.0, 0.0, 0.0, 0.0, 1.6878045812707686E9, 0.0, 2023-06-26 13:36:21.270
102.0, 54149.73844882708, 49970.431622318225, 17149.331229845433, -29322.85121951714, -579.4913267482909, -16813.965656038006, 20252.781540486998, 6590.836535791938, 0.004, 0.98, 0.14400000000000002, 192.0, 0.0, 0.0, 0.0, 0.0, 0.0, 0.0, 0.0, 0.0, 0.0, 1.687804581274774E9, 0.0, 2023-06-26 13:36:21.274
103.0, 54190.91036211376, 50012.43055014975, 17147.67720075574, -29374.081417808702, -422.1573975273845, -16831.355313224234, 20259.554119056957, 6534.621898486841, 0.004, 0.98, 0.14400000000000002, 192.0, 0.0, 0.0, 0.0, 0.0, 0.0, 0.0, 0.0, 0.0, 0.0, 1.6878045812791665E9, 0.0, 2023-06-26 13:36:21.279
104.0, 54174.79475436149, 49962.384994314314, 16973.60181493781, -29589.99926924697, -510.782064292677, -17032.27514413299, 20079.019079091442, 6318.257012159469, 0.004, 0.98, 0.14400000000000002, 192.0, 0.0, 0.0, 0.0, 0.0, 0.0, 0.0, 0.0, 0.0, 0.0, 1.6878045812848E9, 0.0, 2023-06-26 13:36:21.284
105.0, 54148.95613777115, 49943.54247373849, 16973.49005621553, -29548.60383851574, -664.450307422913, -17023.356798095323, 20071.285375509906, 6362.155838269692, 0.004, 0.98, 0.14400000000000002, 192.0, 0.0, 0.0, 0.0, 0.0, 0.0, 0.0, 0.0, 0.0, 0.0, 1.6878045812878237E9, 0.0, 2023-06-26 13:36:21.287
106.0, 54181.81320212045, 50014.553965873005, 17172.53234059004, -29311.094201933647, -573.746928423277, -16808.75769957992, 20277.591976832387, 6602.124166741868, 0.004, 0.98, 0.14400000000000002, 192.0, 0.0, 0.0, 0.0, 0.0, 0.0, 0.0, 0.0, 0.0, 0.0, 1.68780458129084E9, 0.0, 2023-06-26 13:36:21.290
107.0, 54203.13676633081, 50040.2584719966, 17193.341814677933, -29329.780260298285, -413.82019684555496, -16788.104687703217, 20316.372253462345, 6587.64023633483, 0.004, 0.98, 0.14400000000000002, 192.0, 0.0, 0.0, 0.0, 0.0, 0.0, 0.0, 0.0, 0.0, 0.0, 1.6878045812948556E9, 0.0, 2023-06-26 13:36:21.294
108.0, 54195.291304027, 49995.91261099728, 17016.830088714374, -29553.163594384623, -464.96098815929753, -16994.724213448073, 20140.12874843225, 6362.915797581172, 0.004, 0.98, 0.14400000000000002, 192.0, 0.0, 0.0, 0.0, 0.0, 0.0, 0.0, 0.0, 0.0, 0.0, 1.6878045812978692E9, 0.0, 2023-06-26 13:36:21.297
109.0, 54148.285585437494, 49941.12848533732, 16959.07318104186, -29578.309306896845, -639.0810774661395, -17051.22942343109, 20071.598299932277, 6335.691372834608, 0.004, 0.98, 0.14400000000000002, 192.0, 0.0, 0.0, 0.0, 0.0, 0.0, 0.0, 0.0, 0.0, 0.0, 1.687804581300897E9, 0.0, 2023-06-26 13:36:21.300
110.0, 54158.58973963139, 49986.793099259514, 17125.213697578158, -29359.03869379028, -621.1102749240727, -16863.072438606316, 20240.24221184757, 6559.544093554508, -0.016, 0.994, 0.152, 192.0, 255.0, 128.0, 31.0, 16.0, 4.0, 192.0, 0.0, 0.0, 0.0, 1.6878045813059087E9, 0.0, 2023-06-26 13:36:21.305
111.0, 54195.11249007136, 50032.234195737154, 17201.656663615307, -29302.913463463006, -444.6209007049681, -16787.14356269164, 20325.335302988926, 6612.964762802692, -0.016, 0.994, 0.152, 192.0, 0.0, 0.0, 0.0, 0.0, 0.0, 0.0, 0.0, 0.0, 0.0, 1.687804581309932E9, 0.0, 2023-06-26 13:36:21.309
112.0, 54169.96677755914, 49965.71540423816, 17032.230440644078, -29518.674852690085, -463.99986314771934, -16984.107134831804, 20145.64962931271, 6388.374434515767, -0.016, 0.994, 0.152, 192.0, 0.0, 0.0, 0.0, 0.0, 0.0, 0.0, 0.0, 0.0, 0.0, 1.6878045813169725E9, 0.0, 2023-06-26 13:36:21.316
113.0, 54150.61016686084, 49925.37050549633, 16948.053771025392, -29575.3812283732, -632.3755541295474, -17067.61325211683, 20050.140625255182, 6325.521329107443, -0.016, 0.994, 0.152, 192.0, 0.0, 0.0, 0.0, 0.0, 0.0, 0.0, 0.0, 0.0, 0.0, 1.6878045813199806E9, 0.0, 2023-06-26 13:36:21.319
114.0, 54141.33419291189, 49949.19746508569, 17081.560740656943, -29384.184406302502, -665.5231911567678, -16910.45813685157, 20176.539740149947, 6519.355657023866, -0.016, 0.994, 0.152, 192.0, 0.0, 0.0, 0.0, 0.0, 0.0, 0.0, 0.0, 0.0, 0.0, 1.6878045813229988E9, 0.0, 2023-06-26 13:36:21.322
115.0, 54192.09500456989, 50019.27018395307, 17205.389404939342, -29269.07292235767, -485.34577910253756, -16778.09110618724, 20303.40824167827, 6632.656649667818, -0.016, 0.994, 0.152, 192.0, 0.0, 0.0, 0.0, 0.0, 0.0, 0.0, 0.0, 0.0, 0.0, 1.6878045813270144E9, 0.0, 2023-06-26 13:36:21.327
116.0, 54213.88795541382, 50007.87079428087, 17092.75896462905, -29438.297979628802, -428.7735138861554, -16917.342474143803, 20187.60385365532, 6454.781467292484, -0.016, 0.994, 0.152, 192.0, 0.0, 0.0, 0.0, 0.0, 0.0, 0.0, 0.0, 0.0, 0.0, 1.687804581330129E9, 0.0, 2023-06-26 13:36:21.330
117.0, 54173.453649694166, 49939.519159736534, 16960.704858387096, -29563.087768922782, -591.0024751427741, -17053.241080432068, 20063.775189372922, 6328.136483208715, -0.016, 0.994, 0.152, 192.0, 0.0, 0.0, 0.0, 0.0, 0.0, 0.0, 0.0, 0.0, 0.0, 1.6878045813350663E9, 0.0, 2023-06-26 13:36:21.335
118.0, 54133.93576549718, 49926.599851441366, 17042.266373904513, -29418.06965089675, -686.8020518782201, -16946.958535547084, 20139.726417032056, 6474.85333381335, -0.016, 0.994, 0.152, 192.0, 0.0, 0.0, 0.0, 0.0, 0.0, 0.0, 0.0, 0.0, 0.0, 1.6878045813401604E9, 0.0, 2023-06-26 13:36:21.340
119.0, 54175.44295495069, 49999.600648832406, 17195.55463737901, -29258.16527106348, -521.7791225646881, -16783.500228345423, 20301.06130851046, 6635.852949124926, -0.016, 0.994, 0.152, 192.0, 0.0, 0.0, 0.0, 0.0, 0.0, 0.0, 0.0, 0.0, 0.0, 1.687804581343146E9, 0.0, 2023-06-26 13:36:21.343
120.0, 54206.40012102129, 50009.18954720373, 17115.803613162472, -29394.130932585114, -425.3089934955828, -16885.491238294988, 20219.29862729295, 6491.147755521269, -0.016, 0.994, 0.152, 192.0, 0.0, 0.0, 0.0, 0.0, 0.0, 0.0, 0.0, 0.0, 0.0, 1.6878045813471568E9, 0.0, 2023-06-26 13:36:21.347
121.0, 54188.63048417932, 49964.26254084856, 16972.439524226134, -29548.872059449204, -557.4748584598135, -17041.841690759862, 20072.179445288115, 6333.031515244426, -0.01, 0.99, 0.148, 192.0, 255.0, 176.0, 30.0, 240.0, 4.0, 160.0, 0.0, 0.0, 0.0, 1.687804581351126E9, 0.0, 2023-06-26 13:36:21.351
122.0, 54145.491617380576, 49943.76599118304, 17023.334446350866, -29447.953933233493, -673.3910052050359, -16962.82827411035, 20128.12586165975, 6450.80285677944, -0.01, 0.99, 0.148, 192.0, 0.0, 0.0, 0.0, 0.0, 0.0, 0.0, 0.0, 0.0, 0.0, 1.6878045813541489E9, 0.0, 2023-06-26 13:36:21.354
123.0, 54183.73545214361, 50017.01265776309, 17197.856867057904, -29254.767805906275, -537.0230122832074, -16774.581882307753, 20309.55497140348, 6644.637184695863, -0.01, 0.99, 0.148, 192.0, 0.0, 0.0, 0.0, 0.0, 0.0, 0.0, 0.0, 0.0, 0.0, 1.6878045813581727E9, 0.0, 2023-06-26 13:36:21.358
124.0, 54211.71983620165, 50028.881434068855, 17155.142683403814, -29348.153394240548, -401.5043856506808, -16831.578830668786, 20275.312098897946, 6541.416828801254, -0.01, 0.99, 0.148, 192.0, 0.0, 0.0, 0.0, 0.0, 0.0, 0.0, 0.0, 0.0, 0.0, 1.6878045813611805E9, 0.0, 2023-06-26 13:36:21.361
125.0, 54177.789888118496, 49959.74748846859, 16975.233492283045, -29553.163594384623, -526.7412098337662, -17030.2187836431, 20088.250349551483, 6334.462026889566, -0.01, 0.99, 0.148, 192.0, 0.0, 0.0, 0.0, 0.0, 0.0, 0.0, 0.0, 0.0, 0.0, 1.687804581365194E9, 0.0, 2023-06-26 13:36:21.365
126.0, 54125.352695626345, 49923.22473802862, 16981.715498175086, -29499.094724547234, -684.5892291771447, -17010.213972355603, 20089.725564685534, 6396.577524730865, -0.01, 0.99, 0.148, 192.0, 0.0, 0.0, 0.0, 0.0, 0.0, 0.0, 0.0, 0.0, 0.0, 1.6878045813692176E9, 0.0, 2023-06-26 13:36:21.369
127.0, 54151.25836745005, 49983.66385503577, 17166.16209342028, -29282.618079497588, -576.9208761359306, -16803.95207452203, 20276.809665776454, 6607.2650679665885, -0.01, 0.99, 0.148, 192.0, 0.0, 0.0, 0.0, 0.0, 0.0, 0.0, 0.0, 0.0, 0.0, 1.6878045813732464E9, 0.0, 2023-06-26 13:36:21.373
128.0, 54196.00655984957, 50018.68903859724, 17168.553730076997, -29328.685024819973, -418.8046358590884, -16816.29023746136, 20288.186703704203, 6557.890064464816, -0.01, 0.99, 0.148, 192.0, 0.0, 0.0, 0.0, 0.0, 0.0, 0.0, 0.0, 0.0, 0.0, 1.6878045813772771E9, 0.0, 2023-06-26 13:36:21.377
129.0, 54179.71213814165, 49965.11190713786, 16985.336480776845, -29547.687416993074, -496.7675205191995, -17007.93409442116, 20108.009291649974, 6354.198617243603, -0.01, 0.99, 0.148, 192.0, 0.0, 0.0, 0.0, 0.0, 0.0, 0.0, 0.0, 0.0, 0.0, 1.6878045813812778E9, 0.0, 2023-06-26 13:36:21.381
130.0, 54123.81042525893, 49913.21115651264, 16954.6028321508, -29539.32786456679, -677.6378366515443, -17034.75618776753, 20060.86946259373, 6361.664099891675, -0.01, 0.99, 0.148, 192.0, 0.0, 0.0, 0.0, 0.0, 0.0, 0.0, 0.0, 0.0, 0.0, 1.6878045813842788E9, 0.0, 2023-06-26 13:36:21.384
131.0, 54146.38568715879, 49970.52102929605, 17143.363314075865, -29301.840579729153, -606.1793096279275, -16824.69449337655, 20252.043932919973, 6597.407948661798, -0.014, 0.982, 0.14400000000000002, 192.0, 255.0, 144.0, 30.0, 176.0, 4.0, 128.0, 0.0, 0.0, 0.0, 1.6878045813903291E9, 0.0, 2023-06-26 13:36:21.390
132.0, 54195.291304027, 50023.628774121855, 17188.245616942124, -29295.22446337038, -430.1816737868397, -16797.76064130791, 20303.20707597817, 6601.207745219201, -0.014, 0.982, 0.14400000000000002, 192.0, 0.0, 0.0, 0.0, 0.0, 0.0, 0.0, 0.0, 0.0, 0.0, 1.6878045813933096E9, 0.0, 2023-06-26 13:36:21.393
133.0, 54192.27381852554, 49982.83684049092, 17026.955428952628, -29509.13065780767, -460.96002590179756, -16979.279158029458, 20136.530117574945, 6383.2111815465905, -0.014, 0.982, 0.14400000000000002, 192.0, 0.0, 0.0, 0.0, 0.0, 0.0, 0.0, 0.0, 0.0, 0.0, 1.6878045813973432E9, 0.0, 2023-06-26 13:36:21.397
134.0, 54141.28948942298, 49924.297621762475, 16963.901157844204, -29542.79238495736, -634.5213215972569, -17037.03606570197, 20069.184311531106, 6350.644689875208, -0.014, 0.982, 0.14400000000000002, 192.0, 0.0, 0.0, 0.0, 0.0, 0.0, 0.0, 0.0, 0.0, 0.0, 1.687804581402394E9, 0.0, 2023-06-26 13:36:21.402
135.0, 54138.02613473251, 49956.35002331138, 17116.541220729498, -29338.586847613675, -628.6651645499664, -16864.704115951554, 20217.778708669986, 6556.861884219871, -0.014, 0.982, 0.14400000000000002, 192.0, 0.0, 0.0, 0.0, 0.0, 0.0, 0.0, 0.0, 0.0, 0.0, 1.6878045814063964E9, 0.0, 2023-06-26 13:36:21.406
136.0, 54186.88704811181, 50016.56562287398, 17204.562390394498, -29274.75026544932, -449.3147670405826, -16779.432210854557, 20308.817363836453, 6616.429283193265, -0.014, 0.982, 0.14400000000000002, 192.0, 0.0, 0.0, 0.0, 0.0, 0.0, 0.0, 0.0, 0.0, 0.0, 1.6878045814094148E9, 0.0, 2023-06-26 13:36:21.409
137.0, 54191.71502491415, 49988.0000934601, 17056.14680721126, -29479.805169082305, -439.99408960271955, -16956.5027304295, 20155.104417217306, 6405.764091701996, -0.014, 0.982, 0.14400000000000002, 192.0, 0.0, 0.0, 0.0, 0.0, 0.0, 0.0, 0.0, 0.0, 0.0, 1.6878045814154377E9, 0.0, 2023-06-26 13:36:21.415
138.0, 54149.85020754936, 49929.84085438739, 16953.239375739024, -29566.574641057807, -617.6681062779554, -17062.047667747458, 20048.464244421037, 6320.20161392708, -0.014, 0.982, 0.14400000000000002, 192.0, 0.0, 0.0, 0.0, 0.0, 0.0, 0.0, 0.0, 0.0, 0.0, 1.6878045814184577E9, 0.0, 2023-06-26 13:36:21.418
139.0, 54149.00084126006, 49959.50161927958, 17096.022319319527, -29369.834586362194, -641.1821414449385, -16891.325043597823, 20184.496961176035, 6520.428540757721, -0.014, 0.982, 0.14400000000000002, 192.0, 0.0, 0.0, 0.0, 0.0, 0.0, 0.0, 0.0, 0.0, 0.0, 1.6878045814224718E9, 0.0, 2023-06-26 13:36:21.422
140.0, 54186.931751600714, 50019.87368105337, 17213.50308817662, -29263.105006588103, -471.51004928470246, -16768.36809734918, 20305.82223007944, 6624.319448985988, -0.014, 0.982, 0.14400000000000002, 192.0, 0.0, 0.0, 0.0, 0.0, 0.0, 0.0, 0.0, 0.0, 0.0, 1.6878045814425704E9, 0.0, 2023-06-26 13:36:21.442
141.0, 54205.68486519872, 50009.88245128185, 17097.542237942485, -29439.773194762853, -411.65207763339015, -16909.117032184247, 20200.053775316926, 6446.980708477582, -0.014, 0.986, 0.152, 192.0, 255.0, 144.0, 30.0, 208.0, 4.0, 192.0, 0.0, 0.0, 0.0, 1.687804581445577E9, 0.0, 2023-06-26 13:36:21.445
142.0, 54163.44006817819, 49943.05073536048, 16959.207291508592, -29580.343315642276, -575.1327365795061, -17050.156539697236, 20065.071590551328, 6311.10445393377, -0.014, 0.986, 0.152, 192.0, 0.0, 0.0, 0.0, 0.0, 0.0, 0.0, 0.0, 0.0, 0.0, 1.687804581449604E9, 0.0, 2023-06-26 13:36:21.449
143.0, 54128.638402061275, 49934.534720723, 17045.373266383802, -29433.648816782097, -665.3667289455807, -16939.20248022109, 20153.159815449693, 6459.520037117009, -0.014, 0.986, 0.152, 192.0, 0.0, 0.0, 0.0, 0.0, 0.0, 0.0, 0.0, 0.0, 0.0, 1.6878045814526217E9, 0.0, 2023-06-26 13:36:21.452
144.0, 54162.277777466516, 49998.23719242063, 17195.73345133465, -29276.51605326129, -508.77040729169937, -16779.163989921093, 20311.20900049317, 6614.328219214466, -0.014, 0.986, 0.152, 192.0, 0.0, 0.0, 0.0, 0.0, 0.0, 0.0, 0.0, 0.0, 0.0, 1.687804581455615E9, 0.0, 2023-06-26 13:36:21.455
145.0, 54196.40889124977, 50010.46359663768, 17119.022264364037, -29412.5934735052, -406.7793973421332, -16877.399906802166, 20238.521127524513, 6475.255665213545, -0.014, 0.986, 0.152, 192.0, 0.0, 0.0, 0.0, 0.0, 0.0, 0.0, 0.0, 0.0, 0.0, 1.687804581459648E9, 0.0, 2023-06-26 13:36:21.459
146.0, 54169.02800429201, 49950.873845919836, 16964.862282855785, -29580.72329529802, -546.5448554211683, -17044.926231494694, 20080.561349458858, 6308.265782387946, -0.014, 0.986, 0.152, 192.0, 0.0, 0.0, 0.0, 0.0, 0.0, 0.0, 0.0, 0.0, 0.0, 1.687804581462684E9, 0.0, 2023-06-26 13:36:21.462
147.0, 54133.33226839689, 49936.00993585705, 17022.865059717307, -29467.288192187334, -666.0596330236951, -16967.991527079528, 20128.41643433767, 6428.428760579677, -0.014, 0.986, 0.152, 192.0, 0.0, 0.0, 0.0, 0.0, 0.0, 0.0, 0.0, 0.0, 0.0, 1.6878045814657E9, 0.0, 2023-06-26 13:36:21.465
148.0, 54172.38076596031, 50007.1555384583, 17200.762593837095, -29268.961163635395, -528.9540325348416, -16773.196074151525, 20311.87955282683, 6629.92973684427, -0.014, 0.986, 0.152, 192.0, 0.0, 0.0, 0.0, 0.0, 0.0, 0.0, 0.0, 0.0, 0.0, 1.6878045814687068E9, 0.0, 2023-06-26 13:36:21.468
149.0, 54199.42637675123, 50017.30323044101, 17151.856976968884, -29369.879289851106, -405.4382926748148, -16837.569098182812, 20278.597805332876, 6527.1340640943135, -0.014, 0.986, 0.152, 192.0, 0.0, 0.0, 0.0, 0.0, 0.0, 0.0, 0.0, 0.0, 0.0, 1.6878045814727263E9, 0.0, 2023-06-26 13:36:21.472
150.0, 54179.26510325255, 49961.82620070293, 16977.289852772934, -29568.34042886978, -515.5653376061127, -17028.60945804232, 20096.319329299848, 6322.593250583798, -0.014, 0.986, 0.152, 192.0, 0.0, 0.0, 0.0, 0.0, 0.0, 0.0, 0.0, 0.0, 0.0, 1.6878045814757216E9, 0.0, 2023-06-26 13:36:21.475
151.0, 54136.327402153904, 49928.11977006433, 16995.148896592724, -29505.576730439276, -657.0518800082065, -16993.83014366986, 20107.182277105127, 6394.364702029789, -0.012, 0.972, 0.14200000000000002, 192.0, 255.0, 160.0, 30.0, 96.0, 4.0, 112.0, 0.0, 0.0, 0.0, 1.687804581478765E9, 0.0, 2023-06-26 13:36:21.478
152.0, 54151.95127152816, 49980.713424767666, 17169.850131255404, -29296.878492460073, -563.7333469072994, -16793.670272072588, 20290.310119427457, 6610.662533123796, -0.012, 0.972, 0.14200000000000002, 192.0, 0.0, 0.0, 0.0, 0.0, 0.0, 0.0, 0.0, 0.0, 0.0, 1.6878045814827995E9, 0.0, 2023-06-26 13:36:21.482
153.0, 54190.798603391486, 50018.532576386046, 17173.53816909053, -29333.781222555786, -405.1030165079852, -16797.581827352267, 20307.476259169132, 6571.2787593935445, -0.012, 0.972, 0.14200000000000002, 192.0, 0.0, 0.0, 0.0, 0.0, 0.0, 0.0, 0.0, 0.0, 0.0, 1.6878045814857757E9, 0.0, 2023-06-26 13:36:21.485
154.0, 54181.5896846759, 49970.96806418515, 17001.921475162682, -29546.92745768159, -481.7024447563225, -16994.4112890257, 20126.382425592237, 6355.763239355474, -0.012, 0.972, 0.14200000000000002, 192.0, 0.0, 0.0, 0.0, 0.0, 0.0, 0.0, 0.0, 0.0, 0.0, 1.687804581488799E9, 0.0, 2023-06-26 13:36:21.488
155.0, 54146.49744588107, 49936.88165389081, 16977.580425450855, -29531.3706435407, -653.0956212396171, -17011.778594467472, 20085.344622772292, 6374.628111675753, -0.012, 0.972, 0.14200000000000002, 192.0, 0.0, 0.0, 0.0, 0.0, 0.0, 0.0, 0.0, 0.0, 0.0, 1.68780458149181E9, 0.0, 2023-06-26 13:36:21.491
156.0, 54165.00469029006, 49993.27510515155, 17164.709230030683, -29297.772562238286, -585.6604082179557, -16804.287350688857, 20276.07205820943, 6609.768463345584, -0.012, 0.972, 0.14200000000000002, 192.0, 0.0, 0.0, 0.0, 0.0, 0.0, 0.0, 0.0, 0.0, 0.0, 1.6878045814958389E9, 0.0, 2023-06-26 13:36:21.495
157.0, 54208.94821988919, 50041.28665224155, 17217.034663800558, -29279.421780040477, -406.6229351309461, -16760.299117600814, 20344.244878798116, 6622.888937340848, -0.012, 0.972, 0.14200000000000002, 192.0, 0.0, 0.0, 0.0, 0.0, 0.0, 0.0, 0.0, 0.0, 0.0, 1.6878045815079036E9, 0.0, 2023-06-26 13:36:21.507
158.0, 54202.26504829706, 49997.924267998256, 17042.869871004805, -29506.359041495212, -445.9620053722865, -16974.652346927207, 20177.18794073915, 6390.162574072191, -0.012, 0.972, 0.14200000000000002, 192.0, 0.0, 0.0, 0.0, 0.0, 0.0, 0.0, 0.0, 0.0, 0.0, 1.6878045815109122E9, 0.0, 2023-06-26 13:36:21.510
159.0, 54165.3846699458, 49951.902026164775, 16975.61347193879, -29545.161669869623, -626.8546732490865, -17038.779501769484, 20091.82662866433, 6352.231663731535, -0.012, 0.972, 0.14200000000000002, 192.0, 0.0, 0.0, 0.0, 0.0, 0.0, 0.0, 0.0, 0.0, 0.0, 1.6878045815149324E9, 0.0, 2023-06-26 13:36:21.514
160.0, 54152.64417560628, 49973.67262526425, 17129.326418557932, -29338.31862668021, -621.8478824910978, -16858.736200181986, 20240.421025803214, 6559.0747069209465, -0.012, 0.972, 0.14200000000000002, 192.0, 0.0, 0.0, 0.0, 0.0, 0.0, 0.0, 0.0, 0.0, 0.0, 1.6878045815179563E9, 0.0, 2023-06-26 13:36:21.517
161.0, 54188.63048417932, 50020.6559921093, 17215.40298645532, -29272.26922181478, -444.5314937271469, -16776.057097441804, 20331.839660625417, 6619.335009972455, -0.012, 0.972, 0.14200000000000002, 192.0, 0.0, 0.0, 0.0, 0.0, 0.0, 0.0, 0.0, 0.0, 0.0, 1.6878045815209653E9, 0.0, 2023-06-26 13:36:21.520
162.0, 54210.088158856415, 50005.56856460197, 17076.352784198854, -29460.292096172823, -424.83960686202136, -16938.196651720602, 20189.99549031204, 6422.818472721395, -0.01, 0.988, 0.14, 192.0, 255.0, 176.0, 30.0, 224.0, 4.0, 96.0, 0.0, 0.0, 0.0, 1.6878045815249796E9, 0.0, 2023-06-26 13:36:21.524
163.0, 54161.24959722157, 49936.72519167962, 16955.049867039903, -29561.99253344447, -608.906222451475, -17062.226481703103, 20059.30484048186, 6317.564108081354, -0.01, 0.988, 0.14, 192.0, 0.0, 0.0, 0.0, 0.0, 0.0, 0.0, 0.0, 0.0, 0.0, 1.6878045815280027E9, 0.0, 2023-06-26 13:36:21.528
164.0, 54137.26617542103, 49939.183883569705, 17080.62196738982, -29378.283545766302, -655.2637404517818, -16914.257933408968, 20181.412420441204, 6505.229354528112, -0.01, 0.988, 0.14, 192.0, 0.0, 0.0, 0.0, 0.0, 0.0, 0.0, 0.0, 0.0, 0.0, 1.6878045815310144E9, 0.0, 2023-06-26 13:36:21.531
165.0, 54196.453594738676, 50017.52674788556, 17228.322294750487, -29235.21002950788, -459.5965694900238, -16753.683001242043, 20339.282791529036, 6653.443772011254, -0.01, 0.988, 0.14, 192.0, 0.0, 0.0, 0.0, 0.0, 0.0, 0.0, 0.0, 0.0, 0.0, 1.6878045815350385E9, 0.0, 2023-06-26 13:36:21.535
166.0, 54208.97057163365, 50003.93688725673, 17104.62774093482, -29411.028851393326, -406.3323624530271, -16894.364880843747, 20215.677644691186, 6474.741575091073, -0.01, 0.988, 0.14, 192.0, 0.0, 0.0, 0.0, 0.0, 0.0, 0.0, 0.0, 0.0, 0.0, 1.6878045815380425E9, 0.0, 2023-06-26 13:36:21.538
167.0, 54161.94250129968, 49928.45504623116, 16952.747637361008, -29558.550364798353, -586.9791611408187, -17056.303269422446, 20056.667334636135, 6322.123863950237, -0.01, 0.988, 0.14, 192.0, 0.0, 0.0, 0.0, 0.0, 0.0, 0.0, 0.0, 0.0, 0.0, 1.6878045815410545E9, 0.0, 2023-06-26 13:36:21.541
168.0, 54140.68599232269, 49931.22666254362, 17052.83874903187, -29399.271833809835, -669.8147260921868, -16927.601924848786, 20149.963515992586, 6484.9339705626935, -0.01, 0.988, 0.14, 192.0, 0.0, 0.0, 0.0, 0.0, 0.0, 0.0, 0.0, 0.0, 0.0, 1.6878045815441656E9, 0.0, 2023-06-26 13:36:21.544
169.0, 54183.042548065496, 50002.5510791005, 17213.816012598993, -29234.293607985215, -498.1086251865179, -16752.99009716393, 20342.188518308227, 6664.999623894647, -0.01, 0.988, 0.14, 192.0, 0.0, 0.0, 0.0, 0.0, 0.0, 0.0, 0.0, 0.0, 0.0, 1.6878045815481544E9, 0.0, 2023-06-26 13:36:21.548
170.0, 54203.62850470883, 50001.053512221995, 17133.282677326522, -29376.540109698788, -393.90479253587637, -16858.3785722707, 20267.041953449483, 6523.669543703741, -0.01, 0.988, 0.14, 192.0, 0.0, 0.0, 0.0, 0.0, 0.0, 0.0, 0.0, 0.0, 0.0, 1.6878045815511477E9, 0.0, 2023-06-26 13:36:21.551
171.0, 54166.68107112421, 49931.24901428807, 16965.5551869339, -29559.399731087655, -540.3981256959588, -17042.75811228253, 20085.92576812813, 6335.4455036456, -0.01, 0.988, 0.14, 192.0, 0.0, 0.0, 0.0, 0.0, 0.0, 0.0, 0.0, 0.0, 0.0, 1.6878045815541685E9, 0.0, 2023-06-26 13:36:21.554
172.0, 54135.00864923104, 49917.659153659246, 17014.058472401914, -29453.07248271376, -673.5921709051337, -16961.26365199848, 20118.916942944164, 6448.545330589453, -0.006, 0.98, 0.14200000000000002, 192.0, 255.0, 208.0, 30.0, 160.0, 4.0, 112.0, 0.0, 0.0, 0.0, 1.6878045815581627E9, 0.0, 2023-06-26 13:36:21.558
173.0, 54169.5867979034, 49986.61428530387, 17192.02306175507, -29255.147785562014, -542.9909280527745, -16770.22329213897, 20297.976767775628, 6649.375754520387, -0.006, 0.98, 0.14200000000000002, 192.0, 0.0, 0.0, 0.0, 0.0, 0.0, 0.0, 0.0, 0.0, 0.0, 1.687804581561163E9, 0.0, 2023-06-26 13:36:21.561
174.0, 54201.95212387468, 50003.89218376782, 17157.44491308271, -29344.822984316706, -405.3935891859042, -16822.593429397755, 20280.497703611578, 6560.371108099354, -0.006, 0.98, 0.14200000000000002, 192.0, 0.0, 0.0, 0.0, 0.0, 0.0, 0.0, 0.0, 0.0, 0.0, 1.6878045815641763E9, 0.0, 2023-06-26 13:36:21.564
175.0, 54171.844324093385, 49940.45793300366, 16971.299585258912, -29554.79527172986, -525.9141952889199, -17028.36358885331, 20089.077364096327, 6340.452294403589, -0.006, 0.98, 0.14200000000000002, 192.0, 0.0, 0.0, 0.0, 0.0, 0.0, 0.0, 0.0, 0.0, 0.0, 1.6878045815681984E9, 0.0, 2023-06-26 13:36:21.568
176.0, 54134.98629748658, 49914.68637164669, 16985.336480776845, -29495.60785241221, -674.9556273169073, -17006.749451965028, 20094.955872888073, 6394.476460752066, -0.006, 0.98, 0.14200000000000002, 192.0, 0.0, 0.0, 0.0, 0.0, 0.0, 0.0, 0.0, 0.0, 0.0, 1.6878045815712357E9, 0.0, 2023-06-26 13:36:21.571
177.0, 54156.22045471912, 49971.03511941852, 17173.627576068353, -29275.66668697199, -566.8625911310424, -16797.35830990771, 20309.666730125755, 6639.2504142821335, -0.006, 0.98, 0.14200000000000002, 192.0, 0.0, 0.0, 0.0, 0.0, 0.0, 0.0, 0.0, 0.0, 0.0, 1.687804581574244E9, 0.0, 2023-06-26 13:36:21.574
178.0, 54196.69946392769, 50005.83678553543, 17180.86954127187, -29312.949396723438, -405.3712374414489, -16801.94041752105, 20321.26728549806, 6608.874393567371, -0.006, 0.98, 0.14200000000000002, 192.0, 0.0, 0.0, 0.0, 0.0, 0.0, 0.0, 0.0, 0.0, 0.0, 1.6878045815772443E9, 0.0, 2023-06-26 13:36:21.577
179.0, 54177.5887224184, 49947.364622040346, 16993.45016401412, -29539.32786456679, -490.48668032725817, -17017.99237942605, 20130.852774483297, 6366.559131927387, -0.006, 0.98, 0.14200000000000002, 192.0, 0.0, 0.0, 0.0, 0.0, 0.0, 0.0, 0.0, 0.0, 0.0, 1.6878045815822582E9, 0.0, 2023-06-26 13:36:21.582
180.0, 54131.52177709601, 49899.755406350545, 16960.63780315373, -29529.381338284176, -664.8973423120192, -17040.008847714525, 20087.15511407317, 6378.472611722066, -0.006, 0.98, 0.14200000000000002, 192.0, 0.0, 0.0, 0.0, 0.0, 0.0, 0.0, 0.0, 0.0, 0.0, 1.687804581586282E9, 0.0, 2023-06-26 13:36:21.586
181.0, 54134.56161434193, 49938.9380143807, 17125.973656889637, -29316.816248514206, -623.1889871584162, -16850.398999500158, 20254.614383532335, 6598.369073673377, -0.006, 0.98, 0.14200000000000002, 192.0, 0.0, 0.0, 0.0, 0.0, 0.0, 0.0, 0.0, 0.0, 0.0, 1.6878045815902934E9, 0.0, 2023-06-26 13:36:21.590
182.0, 54188.36226324586, 50002.729893056145, 17194.280587945057, -29276.761922450296, -432.3274412545492, -16783.83550451225, 20327.59282917891, 6634.064809568502, -0.006, 0.982, 0.152, 192.0, 255.0, 208.0, 30.0, 176.0, 4.0, 192.0, 0.0, 0.0, 0.0, 1.6878045815943227E9, 0.0, 2023-06-26 13:36:21.594
183.0, 54191.80443189197, 49970.07399440694, 17034.17504241169, -29490.46695118749, -457.38374678894843, -16973.534759704442, 20156.713742818087, 6414.548327272932, -0.006, 0.982, 0.152, 192.0, 0.0, 0.0, 0.0, 0.0, 0.0, 0.0, 0.0, 0.0, 0.0, 1.6878045815993576E9, 0.0, 2023-06-26 13:36:21.599
184.0, 54156.55573088596, 49923.20238628416, 16966.717477645576, -29530.07424236229, -632.0849814516284, -17039.450054103145, 20081.96950935954, 6370.046004062415, -0.006, 0.982, 0.152, 192.0, 0.0, 0.0, 0.0, 0.0, 0.0, 0.0, 0.0, 0.0, 0.0, 1.687804581602358E9, 0.0, 2023-06-26 13:36:21.602
185.0, 54135.65684982024, 49938.915662636246, 17111.57913346042, -29334.831754545183, -638.7234495548546, -16864.257081062446, 20228.82047043091, 6571.748146027106, -0.006, 0.982, 0.152, 192.0, 0.0, 0.0, 0.0, 0.0, 0.0, 0.0, 0.0, 0.0, 0.0, 1.6878045816053696E9, 0.0, 2023-06-26 13:36:21.605
186.0, 54178.77336487453, 49999.71240755468, 17216.74409112264, -29257.53942221873, -444.10681058249605, -16767.4069723376, 20343.46256774218, 6648.414629508809, -0.006, 0.982, 0.152, 192.0, 0.0, 0.0, 0.0, 0.0, 0.0, 0.0, 0.0, 0.0, 0.0, 1.6878045816093879E9, 0.0, 2023-06-26 13:36:21.609
187.0, 54187.356434745365, 49973.31499735296, 17065.691002093674, -29464.226003196956, -429.4440662198146, -16942.398779678202, 20198.109173549317, 6435.581318805375, -0.006, 0.982, 0.152, 192.0, 0.0, 0.0, 0.0, 0.0, 0.0, 0.0, 0.0, 0.0, 0.0, 1.6878045816124048E9, 0.0, 2023-06-26 13:36:21.612
188.0, 54145.91630052523, 49918.843796115376, 16955.049867039903, -29556.404597330642, -604.7487979827879, -17048.211937929624, 20077.096829068283, 6338.977079269538, -0.006, 0.982, 0.152, 192.0, 0.0, 0.0, 0.0, 0.0, 0.0, 0.0, 0.0, 0.0, 0.0, 1.6878045816164331E9, 0.0, 2023-06-26 13:36:21.616
189.0, 54122.64813454726, 49932.746581166575, 17076.732763854598, -29374.14847304207, -659.3764614315584, -16901.40568034717, 20189.70491763412, 6521.523776236031, -0.006, 0.982, 0.152, 192.0, 0.0, 0.0, 0.0, 0.0, 0.0, 0.0, 0.0, 0.0, 0.0, 1.6878045816214435E9, 0.0, 2023-06-26 13:36:21.621
190.0, 54170.95025431517, 50007.51316636958, 17215.626503899875, -29242.094366800116, -480.1154708999957, -16759.896786200617, 20343.01553285307, 6652.572053977497, -0.006, 0.982, 0.152, 192.0, 0.0, 0.0, 0.0, 0.0, 0.0, 0.0, 0.0, 0.0, 0.0, 1.68780458162547E9, 0.0, 2023-06-26 13:36:21.625
191.0, 54198.621713950844, 50009.5024716261, 17111.333264271412, -29397.416639020044, -403.76191184066676, -16882.85373244926, 20243.371456071312, 6485.001025796059, -0.006, 0.982, 0.152, 192.0, 0.0, 0.0, 0.0, 0.0, 0.0, 0.0, 0.0, 0.0, 0.0, 1.6878045816284835E9, 0.0, 2023-06-26 13:36:21.628
192.0, 54162.0319082775, 49949.823313930436, 16965.778704378452, -29539.5737337558, -568.7848411541988, -17030.03996968746, 20084.674070438632, 6338.373582169245, -0.02, 0.984, 0.164, 192.0, 255.0, 96.0, 30.0, 192.0, 5.0, 32.0, 0.0, 0.0, 0.0, 1.687804581632504E9, 0.0, 2023-06-26 13:36:21.632
193.0, 54134.87453876431, 49945.50942725056, 17054.291612421468, -29399.651813465574, -667.2666272242817, -16931.11114872827, 20163.352210921315, 6485.269246729523, -0.02, 0.984, 0.164, 192.0, 0.0, 0.0, 0.0, 0.0, 0.0, 0.0, 0.0, 0.0, 0.0, 1.6878045816365185E9, 0.0, 2023-06-26 13:36:21.636
194.0, 54173.654815394264, 50015.738608329135, 17217.951085323224, -29224.101212513593, -503.89772700044244, -16749.25735583989, 20336.354713005392, 6663.658519227329, -0.02, 0.984, 0.164, 192.0, 0.0, 0.0, 0.0, 0.0, 0.0, 0.0, 0.0, 0.0, 0.0, 1.687804581640574E9, 0.0, 2023-06-26 13:36:21.640
195.0, 54206.95891463267, 50028.03206777955, 17150.29235485701, -29349.76271984133, -381.5889813410022, -16834.79748187035, 20288.052593237473, 6541.148607867791, -0.02, 0.984, 0.164, 192.0, 0.0, 0.0, 0.0, 0.0, 0.0, 0.0, 0.0, 0.0, 0.0, 1.6878045816445615E9, 0.0, 2023-06-26 13:36:21.644
196.0, 54185.34477774439, 49971.92918919673, 16989.203332567613, -29530.051890617837, -517.6440498404563, -17015.13135613577, 20122.046187167907, 6360.680623135641, -0.02, 0.984, 0.164, 192.0, 0.0, 0.0, 0.0, 0.0, 0.0, 0.0, 0.0, 0.0, 0.0, 1.6878045816496036E9, 0.0, 2023-06-26 13:36:21.649
197.0, 54136.70738180964, 49940.70380219267, 17025.055530673926, -29439.92965697404, -657.7447840863209, -16961.97890782105, 20154.14329220573, 6456.122571959802, -0.02, 0.984, 0.164, 192.0, 0.0, 0.0, 0.0, 0.0, 0.0, 0.0, 0.0, 0.0, 0.0, 1.687804581653588E9, 0.0, 2023-06-26 13:36:21.653
198.0, 54155.058164007445, 49992.71631154017, 17191.59837861042, -29252.622038438567, -542.1862652523835, -16772.726687517963, 20326.385834978322, 6653.644937711351, -0.02, 0.984, 0.164, 192.0, 0.0, 0.0, 0.0, 0.0, 0.0, 0.0, 0.0, 0.0, 0.0, 1.6878045816576264E9, 0.0, 2023-06-26 13:36:21.657
199.0, 54192.98907434811, 50018.51022464159, 17165.223320153156, -29330.361405654123, -393.21188845776186, -16811.4175571701, 20309.73378535912, 6572.575160571952, -0.02, 0.984, 0.164, 192.0, 0.0, 0.0, 0.0, 0.0, 0.0, 0.0, 0.0, 0.0, 0.0, 1.6878045816616402E9, 0.0, 2023-06-26 13:36:21.661
200.0, 54181.81320212045, 49972.040947919006, 16998.23343732756, -29529.291931306358, -483.848212224032, -16998.702823961117, 20149.56118459239, 6375.432774476144, -0.02, 0.984, 0.164, 192.0, 0.0, 0.0, 0.0, 0.0, 0.0, 0.0, 0.0, 0.0, 0.0, 1.687804581665648E9, 0.0, 2023-06-26 13:36:21.665
201.0, 54145.558672613945, 49943.29660454948, 17004.93896066415, -29472.227927711956, -640.8021617891982, -16976.88752137274, 20141.98394322204, 6434.08375192687, -0.02, 0.984, 0.164, 192.0, 0.0, 0.0, 0.0, 0.0, 0.0, 0.0, 0.0, 0.0, 0.0, 1.687804581669674E9, 0.0, 2023-06-26 13:36:21.669
202.0, 54152.66652735073, 49987.46365159317, 17175.81804702497, -29268.067093857182, -564.359195752048, -16785.824809768776, 20313.4441749387, 6644.41366725131, -0.02, 0.984, 0.164, 192.0, 0.0, 0.0, 0.0, 0.0, 0.0, 0.0, 0.0, 0.0, 0.0, 1.6878045816746964E9, 0.0, 2023-06-26 13:36:21.674
203.0, 54180.85207710887, 50016.029181007056, 17182.277701172556, -29306.690908275952, -407.6287636314349, -16794.407879639613, 20329.73859664662, 6600.894820796826, -0.026000000000000002, 0.968, 0.17, 192.0, 255.0, 48.0, 30.0, 64.0, 5.0, 80.0, 0.0, 0.0, 0.0, 1.687804581678709E9, 0.0, 2023-06-26 13:36:21.678
204.0, 54172.64898689378, 49971.10217465189, 17007.688225232152, -29521.64763470264, -471.91238068489804, -16993.27135005848, 20149.248260170014, 6379.053757077904, -0.026000000000000002, 0.968, 0.17, 192.0, 0.0, 0.0, 0.0, 0.0, 0.0, 0.0, 0.0, 0.0, 0.0, 1.6878045816817336E9, 0.0, 2023-06-26 13:36:21.681
205.0, 54140.28366092249, 49936.255805046065, 16982.74367842003, -29508.817733385295, -635.4824466088351, -17013.544382279444, 20112.12201262975, 6391.771899672974, -0.026000000000000002, 0.968, 0.17, 192.0, 0.0, 0.0, 0.0, 0.0, 0.0, 0.0, 0.0, 0.0, 0.0, 1.6878045816857648E9, 0.0, 2023-06-26 13:36:21.685
206.0, 54152.3312511839, 49984.71438702517, 17164.195139908214, -29279.17591085147, -589.0802251196176, -16807.304836190324, 20290.44422989419, 6623.179510018767, -0.026000000000000002, 0.968, 0.17, 192.0, 0.0, 0.0, 0.0, 0.0, 0.0, 0.0, 0.0, 0.0, 0.0, 1.687804581688771E9, 0.0, 2023-06-26 13:36:21.688
207.0, 54196.07361508294, 50033.217672493185, 17222.01910281409, -29252.97966634985, -410.28862122161644, -16756.342858832224, 20352.470320757668, 6641.105609071924, -0.026000000000000002, 0.968, 0.17, 192.0, 0.0, 0.0, 0.0, 0.0, 0.0, 0.0, 0.0, 0.0, 0.0, 1.6878045816927867E9, 0.0, 2023-06-26 13:36:21.692
208.0, 54196.40889124977, 49994.32563714095, 17055.69977232215, -29470.350381177712, -430.62870867594586, -16953.708762372586, 20185.23456874306, 6416.98466741856, -0.026000000000000002, 0.968, 0.17, 192.0, 0.0, 0.0, 0.0, 0.0, 0.0, 0.0, 0.0, 0.0, 0.0, 1.6878045816968172E9, 0.0, 2023-06-26 13:36:21.696
209.0, 54152.822989561915, 49940.234415559105, 16976.39578299472, -29523.055794603326, -606.4922340503018, -17031.604591799332, 20112.45728879658, 6366.536780182932, -0.026000000000000002, 0.968, 0.17, 192.0, 0.0, 0.0, 0.0, 0.0, 0.0, 0.0, 0.0, 0.0, 0.0, 1.6878045817008264E9, 0.0, 2023-06-26 13:36:21.700
210.0, 54140.104846966846, 49967.771764728044, 17126.48774701211, -29317.866780503606, -610.8955277079973, -16858.5797379708, 20259.509415568045, 6572.753974527594, -0.026000000000000002, 0.968, 0.17, 192.0, 0.0, 0.0, 0.0, 0.0, 0.0, 0.0, 0.0, 0.0, 0.0, 1.687804581704838E9, 0.0, 2023-06-26 13:36:21.704
211.0, 54176.69465264019, 50021.46065490969, 17220.58859116895, -29242.876677856053, -435.41198198938156, -16764.434190325046, 20361.902756917807, 6650.1133620874125, -0.026000000000000002, 0.968, 0.17, 192.0, 0.0, 0.0, 0.0, 0.0, 0.0, 0.0, 0.0, 0.0, 0.0, 1.687804581707844E9, 0.0, 2023-06-26 13:36:21.707
212.0, 54188.74224290159, 50000.24884942161, 17079.839656333883, -29434.2970173713, -411.7638363556667, -16923.01981723545, 20223.500755250545, 6452.009850980026, -0.026000000000000002, 0.968, 0.17, 192.0, 0.0, 0.0, 0.0, 0.0, 0.0, 0.0, 0.0, 0.0, 0.0, 1.687804581711888E9, 0.0, 2023-06-26 13:36:21.711
213.0, 54158.45562916466, 49946.82818017342, 16968.371506735268, -29534.969274398005, -586.3309605516149, -17039.65121980324, 20102.533114258422, 6351.762277097974, -0.02, 0.97, 0.17400000000000002, 192.0, 255.0, 96.0, 30.0, 80.0, 5.0, 112.0, 0.0, 0.0, 0.0, 1.6878045817159224E9, 0.0, 2023-06-26 13:36:21.715
214.0, 54131.61118407383, 49947.38697378481, 17084.622929647318, -29363.15141477006, -645.3842694025361, -16899.841058235295, 20218.24809530355, 6533.7725321975395, -0.02, 0.97, 0.17400000000000002, 192.0, 0.0, 0.0, 0.0, 0.0, 0.0, 0.0, 0.0, 0.0, 0.0, 1.6878045817219343E9, 0.0, 2023-06-26 13:36:21.721
215.0, 54164.5353036565, 50006.68615182473, 17217.88403008986, -29233.377186462545, -474.460479552803, -16750.106722129192, 20365.724905219664, 6668.1288681183905, -0.02, 0.97, 0.17400000000000002, 192.0, 0.0, 0.0, 0.0, 0.0, 0.0, 0.0, 0.0, 0.0, 0.0, 1.6878045817249444E9, 0.0, 2023-06-26 13:36:21.724
216.0, 54198.197030806194, 50015.380980417845, 17127.11359585686, -29380.138740556093, -383.48887961970325, -16863.34065953978, 20275.62502332032, 6510.392607497288, -0.02, 0.97, 0.17400000000000002, 192.0, 0.0, 0.0, 0.0, 0.0, 0.0, 0.0, 0.0, 0.0, 0.0, 1.6878045817300775E9, 0.0, 2023-06-26 13:36:21.730
217.0, 54152.554768628455, 49941.53081673751, 16964.012916566484, -29548.313265837824, -557.6760241599112, -17036.43256860168, 20108.32221607235, 6346.554320639887, -0.02, 0.97, 0.17400000000000002, 192.0, 0.0, 0.0, 0.0, 0.0, 0.0, 0.0, 0.0, 0.0, 0.0, 1.687804581732978E9, 0.0, 2023-06-26 13:36:21.732
218.0, 54119.675352534694, 49929.79615089848, 17047.98842048507, -29407.00553739137, -660.739917843332, -16934.620372607755, 20186.03923154345, 6495.126366034314, -0.02, 0.97, 0.17400000000000002, 192.0, 0.0, 0.0, 0.0, 0.0, 0.0, 0.0, 0.0, 0.0, 0.0, 1.687804581736979E9, 0.0, 2023-06-26 13:36:21.736
219.0, 54150.81133256094, 49990.83876500592, 17211.469079431186, -29230.247942238802, -503.0036572222301, -16755.85112045421, 20354.817253925474, 6674.879094943893, -0.02, 0.97, 0.17400000000000002, 192.0, 0.0, 0.0, 0.0, 0.0, 0.0, 0.0, 0.0, 0.0, 0.0, 1.6878045817430153E9, 0.0, 2023-06-26 13:36:21.743
220.0, 54186.328254500426, 50003.13222445634, 17141.10578788588, -29358.05521703425, -387.3780831549267, -16831.355313224234, 20301.038956766006, 6547.34004108191, -0.02, 0.97, 0.17400000000000002, 192.0, 0.0, 0.0, 0.0, 0.0, 0.0, 0.0, 0.0, 0.0, 0.0, 1.6878045817460396E9, 0.0, 2023-06-26 13:36:21.746
221.0, 54148.419695904224, 49927.35981075285, 16957.10622752979, -29558.863289220728, -539.9510908068527, -17030.688170276662, 20115.407719064682, 6347.247224718002, -0.02, 0.97, 0.17400000000000002, 192.0, 0.0, 0.0, 0.0, 0.0, 0.0, 0.0, 0.0, 0.0, 0.0, 1.6878045817501316E9, 0.0, 2023-06-26 13:36:21.750
222.0, 54111.85224197534, 49909.2325459996, 17008.761108966006, -29448.088043700227, -669.613560392089, -16958.626146152754, 20163.03928649894, 6461.464638884621, -0.02, 0.97, 0.17400000000000002, 192.0, 0.0, 0.0, 0.0, 0.0, 0.0, 0.0, 0.0, 0.0, 0.0, 1.6878045817541387E9, 0.0, 2023-06-26 13:36:21.754
223.0, 54155.95223378566, 49992.98453247363, 17204.875314816873, -29229.711500371875, -534.8101895821321, -16747.759788961386, 20358.326477804956, 6679.863533957427, -0.014, 0.968, 0.176, 192.0, 255.0, 144.0, 30.0, 64.0, 5.0, 128.0, 0.0, 0.0, 0.0, 1.687804581758144E9, 0.0, 2023-06-26 13:36:21.758
224.0, 54198.57701046193, 50021.84063456543, 17182.277701172556, -29305.819190242197, -391.8707837904434, -16787.99292898094, 20334.4995182156, 6596.357416672399, -0.014, 0.968, 0.176, 192.0, 0.0, 0.0, 0.0, 0.0, 0.0, 0.0, 0.0, 0.0, 0.0, 1.687804581762143E9, 0.0, 2023-06-26 13:36:21.762
225.0, 54172.894856082785, 49956.41707854475, 16993.718384947584, -29528.196695828046, -501.77431127718825, -17004.17900135267, 20134.004370451497, 6366.849704605306, -0.014, 0.968, 0.176, 192.0, 0.0, 0.0, 0.0, 0.0, 0.0, 0.0, 0.0, 0.0, 0.0, 1.6878045817661583E9, 0.0, 2023-06-26 13:36:21.766
226.0, 54120.99410545756, 49916.87684260331, 16990.320919790378, -29481.302735960813, -661.1198974990723, -16998.65812047221, 20125.13072790274, 6413.922478428183, -0.014, 0.968, 0.176, 192.0, 0.0, 0.0, 0.0, 0.0, 0.0, 0.0, 0.0, 0.0, 0.0, 1.68780458176917E9, 0.0, 2023-06-26 13:36:21.769
227.0, 54138.786094043986, 49974.38788108682, 17178.67907031525, -29254.767805906275, -571.7129196778441, -16788.37290863668, 20325.089433799916, 6645.799475407538, -0.014, 0.968, 0.176, 192.0, 0.0, 0.0, 0.0, 0.0, 0.0, 0.0, 0.0, 0.0, 0.0, 1.687804581772182E9, 0.0, 2023-06-26 13:36:21.772
228.0, 54193.167888303746, 50026.98153579015, 17211.379672453364, -29263.820262410674, -391.8037285570775, -16764.478893813957, 20369.278832588057, 6631.9190421007925, -0.014, 0.968, 0.176, 192.0, 0.0, 0.0, 0.0, 0.0, 0.0, 0.0, 0.0, 0.0, 0.0, 1.6878045817762153E9, 0.0, 2023-06-26 13:36:21.776
229.0, 54173.34189097189, 49970.87865720733, 17016.852440458828, -29500.525236192378, -468.6266742499679, -16987.07991684436, 20168.493112146036, 6388.016806604482, -0.014, 0.968, 0.176, 192.0, 0.0, 0.0, 0.0, 0.0, 0.0, 0.0, 0.0, 0.0, 0.0, 1.6878045817802215E9, 0.0, 2023-06-26 13:36:21.780
230.0, 54124.99506771506, 49917.50269144806, 16965.801056122906, -29513.51159972091, -655.6660718519773, -17031.626943543786, 20104.857695681774, 6372.616454674775, -0.014, 0.968, 0.176, 192.0, 0.0, 0.0, 0.0, 0.0, 0.0, 0.0, 0.0, 0.0, 0.0, 1.6878045817852564E9, 0.0, 2023-06-26 13:36:21.785
231.0, 54130.85122476235, 49959.523971024035, 17140.457587296678, -29294.218634869892, -618.6962865228995, -16841.39124648467, 20278.01665997704, 6596.804451561506, -0.014, 0.968, 0.176, 192.0, 0.0, 0.0, 0.0, 0.0, 0.0, 0.0, 0.0, 0.0, 0.0, 1.6878045817892497E9, 0.0, 2023-06-26 13:36:21.789
232.0, 54182.617864920845, 50021.192433976226, 17218.621637656885, -29247.21291628038, -425.7113248957783, -16757.415742566078, 20369.50235003261, 6639.228062537678, -0.014, 0.968, 0.176, 192.0, 0.0, 0.0, 0.0, 0.0, 0.0, 0.0, 0.0, 0.0, 0.0, 1.687804581792284E9, 0.0, 2023-06-26 13:36:21.792
233.0, 54190.61978943584, 49991.57637257295, 17055.498606622055, -29466.01414275338, -440.7987524031106, -16956.92741357415, 20201.6183974288, 6410.882641182261, -0.014, 0.966, 0.184, 192.0, 255.0, 144.0, 30.0, 48.0, 5.0, 192.0, 0.0, 0.0, 0.0, 1.687804581796273E9, 0.0, 2023-06-26 13:36:21.796
234.0, 54147.167998214725, 49935.07116258993, 16971.366640492277, -29527.727309194484, -622.6525452914889, -17038.89126049176, 20103.695404970098, 6354.511541665976, -0.014, 0.966, 0.184, 192.0, 0.0, 0.0, 0.0, 0.0, 0.0, 0.0, 0.0, 0.0, 0.0, 1.687804581800326E9, 0.0, 2023-06-26 13:36:21.800
235.0, 54137.69085856568, 49959.27810183503, 17121.95034288768, -29322.247722416847, -633.1578651854832, -16861.463113005535, 20252.02158117552, 6568.998881459103, -0.014, 0.966, 0.184, 192.0, 0.0, 0.0, 0.0, 0.0, 0.0, 0.0, 0.0, 0.0, 0.0, 1.6878045818043463E9, 0.0, 2023-06-26 13:36:21.804
236.0, 54182.99784457658, 50022.84646306592, 17229.976323840183, -29226.93988405942, -448.9571391292977, -16748.07271338376, 20374.375030323867, 6663.345594804954, -0.014, 0.966, 0.184, 192.0, 0.0, 0.0, 0.0, 0.0, 0.0, 0.0, 0.0, 0.0, 0.0, 1.687804581808363E9, 0.0, 2023-06-26 13:36:21.808
237.0, 54193.57021970394, 50002.595782589415, 17089.24974074957, -29423.746993988396, -417.95526956978676, -16912.179221174625, 20236.688284479176, 6457.866008027317, -0.014, 0.966, 0.184, 192.0, 0.0, 0.0, 0.0, 0.0, 0.0, 0.0, 0.0, 0.0, 0.0, 1.6878045818143847E9, 0.0, 2023-06-26 13:36:21.814
238.0, 54141.75887605654, 49931.293717776985, 16955.228680995548, -29544.066434391312, -604.9499636828856, -17045.015638472516, 20093.346547287292, 6337.1889397131135, -0.014, 0.966, 0.184, 192.0, 0.0, 0.0, 0.0, 0.0, 0.0, 0.0, 0.0, 0.0, 0.0, 1.6878045818173933E9, 0.0, 2023-06-26 13:36:21.817
239.0, 54120.256497890536, 49940.25676730356, 17073.491760908575, -29367.375894472112, -664.6067696341001, -16901.025700691425, 20210.76026091102, 6522.171976825235, -0.014, 0.966, 0.184, 192.0, 0.0, 0.0, 0.0, 0.0, 0.0, 0.0, 0.0, 0.0, 0.0, 1.6878045818214264E9, 0.0, 2023-06-26 13:36:21.821
240.0, 54146.318631925424, 49991.978703973145, 17200.02498627007, -29243.949561589907, -504.0541892116296, -16760.522635045367, 20347.262364299582, 6650.068658598502, -0.014, 0.966, 0.184, 192.0, 0.0, 0.0, 0.0, 0.0, 0.0, 0.0, 0.0, 0.0, 0.0, 1.6878045818244288E9, 0.0, 2023-06-26 13:36:21.824
241.0, 54190.26216152456, 50010.150672215306, 17116.049482351482, -29388.274775537822, -410.5791938995354, -16871.946081155074, 20255.24023237708, 6497.696816646674, -0.014, 0.966, 0.184, 192.0, 0.0, 0.0, 0.0, 0.0, 0.0, 0.0, 0.0, 0.0, 0.0, 1.687804581828456E9, 0.0, 2023-06-26 13:36:21.828
242.0, 54160.869617565826, 49951.477343020124, 16971.143123047725, -29537.718538966008, -559.2182945273274, -17020.27225736049, 20107.674015483146, 6347.917777051661, -0.014, 0.966, 0.184, 192.0, 0.0, 0.0, 0.0, 0.0, 0.0, 0.0, 0.0, 0.0, 0.0, 1.6878045818324678E9, 0.0, 2023-06-26 13:36:21.832
243.0, 54129.51012009503, 49943.60952897186, 17056.772656056008, -29396.835493664206, -658.3482811866143, -16914.257933408968, 20202.04308057345, 6499.95434283666, -0.014, 0.966, 0.184, 192.0, 0.0, 0.0, 0.0, 0.0, 0.0, 0.0, 0.0, 0.0, 0.0, 1.6878045818385077E9, 0.0, 2023-06-26 13:36:21.838
244.0, 54166.50225716856, 50013.83871005043, 17222.868469103392, -29217.44039266591, -509.1280352029843, -16735.913364400072, 20370.79875121102, 6680.690548502273, -0.026000000000000002, 0.968, 0.186, 192.0, 255.0, 48.0, 30.0, 64.0, 5.0, 208.0, 0.0, 0.0, 0.0, 1.687804581841514E9, 0.0, 2023-06-26 13:36:21.841
245.0, 54199.35932151787, 50028.97084104668, 17154.82975898144, -29348.645132618563, -394.4188826583484, -16826.75085386644, 20306.291616713002, 6549.463456805165, -0.026000000000000002, 0.968, 0.186, 192.0, 0.0, 0.0, 0.0, 0.0, 0.0, 0.0, 0.0, 0.0, 0.0, 1.6878045818455355E9, 0.0, 2023-06-26 13:36:21.845
246.0, 54161.94250129968, 49959.27810183503, 16973.60181493781, -29553.722387996007, -532.6867738588779, -17026.351931852332, 20129.22109713806, 6344.855588061284, -0.026000000000000002, 0.968, 0.186, 192.0, 0.0, 0.0, 0.0, 0.0, 0.0, 0.0, 0.0, 0.0, 0.0, 1.687804581848539E9, 0.0, 2023-06-26 13:36:21.848
247.0, 54131.298259651456, 49943.229549316115, 17020.138146893758, -29456.179375193045, -662.4162986774801, -16959.40845720869, 20165.676792344668, 6452.143961446758, -0.026000000000000002, 0.968, 0.186, 192.0, 0.0, 0.0, 0.0, 0.0, 0.0, 0.0, 0.0, 0.0, 0.0, 1.6878045818515432E9, 0.0, 2023-06-26 13:36:21.851
248.0, 54153.69470759568, 50002.439320378224, 17197.16396297979, -29249.470442470367, -544.6449571424672, -16758.3545158332, 20348.938745133728, 6660.350461047943, -0.026000000000000002, 0.968, 0.186, 192.0, 0.0, 0.0, 0.0, 0.0, 0.0, 0.0, 0.0, 0.0, 0.0, 1.6878045818565767E9, 0.0, 2023-06-26 13:36:21.856
249.0, 54203.76261517556, 50043.6112336649, 17193.721794333673, -29306.176818153483, -382.6618650748569, -16780.03570795485, 20352.98441088014, 6601.900649297315, -0.026000000000000002, 0.968, 0.186, 192.0, 0.0, 0.0, 0.0, 0.0, 0.0, 0.0, 0.0, 0.0, 0.0, 1.687804581860618E9, 0.0, 2023-06-26 13:36:21.860
250.0, 54174.86180959485, 49977.31595961046, 17003.17317285218, -29535.3716057982, -487.78211924816605, -16992.287873302444, 20156.780798051455, 6374.248132020013, -0.026000000000000002, 0.968, 0.186, 192.0, 0.0, 0.0, 0.0, 0.0, 0.0, 0.0, 0.0, 0.0, 0.0, 1.6878045818646328E9, 0.0, 2023-06-26 13:36:21.864
251.0, 54113.9756576986, 49923.02357232852, 16977.491018473032, -29516.529085222377, -671.3122929706923, -17004.335463563857, 20122.56027729038, 6398.544478242931, -0.026000000000000002, 0.968, 0.186, 192.0, 0.0, 0.0, 0.0, 0.0, 0.0, 0.0, 0.0, 0.0, 0.0, 1.6878045818716855E9, 0.0, 2023-06-26 13:36:21.871
252.0, 54134.11457945283, 49979.01469218906, 17163.81516025247, -29294.4645040589, -588.521431508235, -16798.587655852756, 20315.20996275067, 6628.365114732399, -0.026000000000000002, 0.968, 0.186, 192.0, 0.0, 0.0, 0.0, 0.0, 0.0, 0.0, 0.0, 0.0, 0.0, 1.687804581874651E9, 0.0, 2023-06-26 13:36:21.874
253.0, 54178.86277185235, 50022.22061422117, 17190.92782627676, -29312.144733923047, -416.27888873563876, -16784.03667021235, 20344.51309973158, 6603.509974898097, -0.026000000000000002, 0.968, 0.186, 192.0, 0.0, 0.0, 0.0, 0.0, 0.0, 0.0, 0.0, 0.0, 0.0, 1.687804581878704E9, 0.0, 2023-06-26 13:36:21.878
254.0, 54178.48279219661, 49987.44129984872, 17022.70859750612, -29526.18503882707, -462.3905375469372, -16973.26653877098, 20175.89153956074, 6385.178135058658, -0.036000000000000004, 0.968, 0.182, 192.0, 254.0, 224.0, 30.0, 64.0, 5.0, 176.0, 0.0, 0.0, 0.0, 1.6878045818817017E9, 0.0, 2023-06-26 13:36:21.881
255.0, 54128.83956776137, 49932.65717418876, 16968.125637546258, -29542.814736701817, -640.0869059666284, -17019.266428860003, 20119.65455051119, 6374.963387842583, -0.036000000000000004, 0.968, 0.182, 192.0, 0.0, 0.0, 0.0, 0.0, 0.0, 0.0, 0.0, 0.0, 0.0, 1.687804581884736E9, 0.0, 2023-06-26 13:36:21.884
0.0, 54127.721980538605, 49968.956407184174, 17134.020284893548, -29328.685024819973, -612.5719085421454, -16829.81304285682, 20278.329584399413, 6595.776271316561, -0.036000000000000004, 0.968, 0.182, 192.0, 0.0, 0.0, 0.0, 0.0, 0.0, 0.0, 0.0, 0.0, 0.0, 1.6878045818887448E9, 0.0, 2023-06-26 13:36:21.888
1.0, 54176.29232123999, 50028.07677126846, 17213.927771321272, -29275.331410805156, -417.55293816959124, -16739.199070835002, 20365.4566842862, 6648.727553931183, -0.036000000000000004, 0.968, 0.182, 192.0, 0.0, 0.0, 0.0, 0.0, 0.0, 0.0, 0.0, 0.0, 0.0, 1.687804581892746E9, 0.0, 2023-06-26 13:36:21.892
2.0, 54186.70823415616, 50001.388788388824, 17057.018525245014, -29486.443637185534, -420.1904440153175, -16922.908058513174, 20216.169383069206, 6432.228557137079, -0.036000000000000004, 0.968, 0.182, 192.0, 0.0, 0.0, 0.0, 0.0, 0.0, 0.0, 0.0, 0.0, 0.0, 1.6878045818987844E9, 0.0, 2023-06-26 13:36:21.898
3.0, 54134.67337306421, 49935.51819747904, 16953.97698330605, -29569.14509167017, -615.0306004322291, -17021.99334168355, 20101.75080320249, 6352.075201520348, -0.036000000000000004, 0.968, 0.182, 192.0, 0.0, 0.0, 0.0, 0.0, 0.0, 0.0, 0.0, 0.0, 0.0, 1.6878045819018066E9, 0.0, 2023-06-26 13:36:21.901
4.0, 54119.56359381242, 49953.712517465654, 17097.81045887595, -29371.086284051693, -637.2258826763491, -16854.802293157853, 20244.936078183186, 6557.1301051533355, -0.036000000000000004, 0.968, 0.182, 192.0, 0.0, 0.0, 0.0, 0.0, 0.0, 0.0, 0.0, 0.0, 0.0, 1.6878045819048228E9, 0.0, 2023-06-26 13:36:21.904
5.0, 54170.927902570715, 50023.96405028868, 17218.621637656885, -29269.966992135884, -442.89981638190943, -16734.88518415513, 20374.375030323867, 6659.277577314088, -0.036000000000000004, 0.968, 0.182, 192.0, 0.0, 0.0, 0.0, 0.0, 0.0, 0.0, 0.0, 0.0, 0.0, 1.687804581908852E9, 0.0, 2023-06-26 13:36:21.908
6.0, 54166.79282984648, 49988.15655567128, 17060.930080524693, -29487.248299985924, -422.9397085833202, -16916.068424709847, 20222.00318837204, 6438.330583373378, -0.036000000000000004, 0.968, 0.182, 192.0, 0.0, 0.0, 0.0, 0.0, 0.0, 0.0, 0.0, 0.0, 0.0, 1.6878045819138615E9, 0.0, 2023-06-26 13:36:21.913
7.0, 54121.73171302459, 49923.82823512891, 16929.79239580541, -29605.869007810237, -609.2191468738494, -17051.43058913119, 20075.509855211956, 6315.016009213449, -0.036000000000000004, 0.968, 0.182, 192.0, 0.0, 0.0, 0.0, 0.0, 0.0, 0.0, 0.0, 0.0, 0.0, 1.6878045819168828E9, 0.0, 2023-06-26 13:36:21.916
8.0, 54120.10003567935, 49951.52204650904, 17067.52384513901, -29411.364127560155, -655.196685218416, -16889.96158718605, 20206.71459516461, 6516.00289535557, -0.036000000000000004, 0.966, 0.184, 192.0, 254.0, 224.0, 30.0, 48.0, 5.0, 192.0, 0.0, 0.0, 0.0, 1.6878045819208925E9, 0.0, 2023-06-26 13:36:21.920
9.0, 54167.95512055816, 50024.411085177795, 17219.582762668462, -29265.78721592274, -477.9249999433756, -16729.92309688605, 20361.522777262067, 6667.882998929382, -0.036000000000000004, 0.966, 0.184, 192.0, 0.0, 0.0, 0.0, 0.0, 0.0, 0.0, 0.0, 0.0, 0.0, 1.6878045819249032E9, 0.0, 2023-06-26 13:36:21.924
10.0, 54196.72181567214, 50023.4052566773, 17120.67629345373, -29423.523476543844, -391.915487279354, -16851.583641956287, 20269.47829359511, 6504.603505683363, -0.036000000000000004, 0.966, 0.184, 192.0, 0.0, 0.0, 0.0, 0.0, 0.0, 0.0, 0.0, 0.0, 0.0, 1.6878045819279592E9, 0.0, 2023-06-26 13:36:21.927
11.0, 54157.025117519515, 49954.31601456595, 16957.285041485437, -29595.698964083072, -557.3183962486263, -17025.346103351843, 20105.103564870784, 6333.947936767094, -0.036000000000000004, 0.966, 0.184, 192.0, 0.0, 0.0, 0.0, 0.0, 0.0, 0.0, 0.0, 0.0, 0.0, 1.6878045819319353E9, 0.0, 2023-06-26 13:36:21.931
12.0, 54117.93191646718, 49935.9875841126, 17027.402463841732, -29468.65164859911, -671.1334790150498, -16934.3968551632, 20164.5592051219, 6468.103106987847, -0.036000000000000004, 0.966, 0.184, 192.0, 0.0, 0.0, 0.0, 0.0, 0.0, 0.0, 0.0, 0.0, 0.0, 1.6878045819359505E9, 0.0, 2023-06-26 13:36:21.935
13.0, 54145.625727847306, 49995.13029994134, 17192.44774489972, -29291.670536001988, -524.9083667884311, -16759.829730967253, 20345.74244567662, 6649.398106264843, -0.036000000000000004, 0.966, 0.184, 192.0, 0.0, 0.0, 0.0, 0.0, 0.0, 0.0, 0.0, 0.0, 0.0, 1.687804581939978E9, 0.0, 2023-06-26 13:36:21.939
14.0, 54174.75005087257, 50008.809567547985, 17136.09899712789, -29402.959871644962, -399.3809699274266, -16840.608935428732, 20294.691061340698, 6530.106846106869, -0.036000000000000004, 0.966, 0.184, 192.0, 0.0, 0.0, 0.0, 0.0, 0.0, 0.0, 0.0, 0.0, 0.0, 1.6878045819439905E9, 0.0, 2023-06-26 13:36:21.943
15.0, 54155.50519889656, 49954.20425584367, 16973.802980637905, -29586.154769200657, -521.2873841866713, -17007.956446165615, 20122.403815079193, 6344.453256661089, -0.036000000000000004, 0.966, 0.184, 192.0, 0.0, 0.0, 0.0, 0.0, 0.0, 0.0, 0.0, 0.0, 0.0, 1.687804581948024E9, 0.0, 2023-06-26 13:36:21.948
16.0, 54113.41686408721, 49927.292755519484, 17004.35781530831, -29498.871207102682, -666.1266882570611, -16961.911852587684, 20142.073350199862, 6432.9885164485595, -0.036000000000000004, 0.966, 0.184, 192.0, 0.0, 0.0, 0.0, 0.0, 0.0, 0.0, 0.0, 0.0, 0.0, 1.6878045819530628E9, 0.0, 2023-06-26 13:36:21.953
17.0, 54135.701553309154, 49983.149764913294, 17181.942425005727, -29291.871701702083, -554.5691316806235, -16767.138751404138, 20321.624913409345, 6643.273728284089, -0.036000000000000004, 0.966, 0.184, 192.0, 0.0, 0.0, 0.0, 0.0, 0.0, 0.0, 0.0, 0.0, 0.0, 1.6878045819561205E9, 0.0, 2023-06-26 13:36:21.956
18.0, 54181.25440850907, 50018.398465919316, 17173.31465164598, -29349.270981463313, -394.77651056963333, -16783.56728357879, 20329.380968735335, 6584.913323511282, -0.024, 0.972, 0.17, 192.0, 255.0, 64.0, 30.0, 96.0, 5.0, 80.0, 0.0, 0.0, 0.0, 1.687804581960145E9, 0.0, 2023-06-26 13:36:21.960
19.0, 54164.89293156778, 49964.486058293114, 16992.556094235908, -29564.384170101188, -487.1115669145068, -16989.851533156816, 20151.684600315642, 6364.122791781759, -0.024, 0.972, 0.17, 192.0, 0.0, 0.0, 0.0, 0.0, 0.0, 0.0, 0.0, 0.0, 0.0, 1.687804581964125E9, 0.0, 2023-06-26 13:36:21.964
20.0, 54115.786148999476, 49919.760217638046, 16979.256806285, -29537.025634887894, -655.8448858076198, -17001.161515851203, 20122.69438775711, 6395.236420063547, -0.024, 0.972, 0.17, 192.0, 0.0, 0.0, 0.0, 0.0, 0.0, 0.0, 0.0, 0.0, 0.0, 1.687804581968135E9, 0.0, 2023-06-26 13:36:21.968
21.0, 54132.86288176333, 49973.6949770087, 17163.524587574553, -29312.435306600968, -582.2852948052043, -16790.116344704194, 20306.962169046663, 6625.526443186574, -0.024, 0.972, 0.17, 192.0, 0.0, 0.0, 0.0, 0.0, 0.0, 0.0, 0.0, 0.0, 0.0, 1.6878045819721296E9, 0.0, 2023-06-26 13:36:21.972
22.0, 54175.01827180604, 50017.92907928576, 17192.20187571071, -29315.966882224904, -410.66860087735665, -16767.094047915227, 20347.485881744135, 6613.858832580904, -0.024, 0.972, 0.17, 192.0, 0.0, 0.0, 0.0, 0.0, 0.0, 0.0, 0.0, 0.0, 0.0, 1.6878045819761672E9, 0.0, 2023-06-26 13:36:21.976
23.0, 54160.35552744335, 49965.067203648956, 17010.32573107788, -29544.08878613577, -469.85602019500976, -16976.082858572347, 20161.854644042807, 6377.891466366228, -0.024, 0.972, 0.17, 192.0, 0.0, 0.0, 0.0, 0.0, 0.0, 0.0, 0.0, 0.0, 0.0, 1.6878045819822E9, 0.0, 2023-06-26 13:36:21.982
24.0, 54113.30510536493, 49914.66401990224, 16958.98377406404, -29564.40652184564, -647.4406298924243, -17017.32182709239, 20099.560332245866, 6362.759335369985, -0.024, 0.972, 0.17, 192.0, 0.0, 0.0, 0.0, 0.0, 0.0, 0.0, 0.0, 0.0, 0.0, 1.6878045819852238E9, 0.0, 2023-06-26 13:36:21.985
25.0, 54118.915393223215, 49958.78636345701, 17128.834680179916, -29343.95126628295, -616.036428932718, -16826.81790909981, 20269.902976739762, 6588.266085179578, -0.024, 0.972, 0.17, 192.0, 0.0, 0.0, 0.0, 0.0, 0.0, 0.0, 0.0, 0.0, 0.0, 1.6878045819892385E9, 0.0, 2023-06-26 13:36:21.989
26.0, 54169.5867979034, 50018.08554149694, 17205.098832261425, -29293.168102880492, -432.39449648791515, -16750.68786748503, 20356.426579526258, 6634.310678757511, -0.024, 0.972, 0.17, 192.0, 0.0, 0.0, 0.0, 0.0, 0.0, 0.0, 0.0, 0.0, 0.0, 1.6878045819932528E9, 0.0, 2023-06-26 13:36:21.993
27.0, 54176.471135195636, 49987.24013414862, 17050.737685053075, -29496.79249486834, -428.7288103972448, -16922.14809920169, 20210.29087427746, 6426.595917534342, -0.024, 0.972, 0.17, 192.0, 0.0, 0.0, 0.0, 0.0, 0.0, 0.0, 0.0, 0.0, 0.0, 1.6878045819972904E9, 0.0, 2023-06-26 13:36:21.997
28.0, 54131.8794050073, 49929.483226476106, 16953.64170713922, -29571.939059727083, -613.6000887870895, -17016.852440458828, 20107.226980594038, 6353.30454746539, -0.024, 0.972, 0.17, 192.0, 0.0, 0.0, 0.0, 0.0, 0.0, 0.0, 0.0, 0.0, 0.0, 1.687804582003302E9, 0.0, 2023-06-26 13:36:22.003
29.0, 54124.25746014804, 49955.90298842228, 17103.04076707849, -29368.560536928242, -635.9518332423966, -16844.878118619697, 20250.188738130182, 6564.528532568042, -0.018000000000000002, 0.976, 0.168, 192.0, 255.0, 112.0, 30.0, 128.0, 5.0, 64.0, 0.0, 0.0, 0.0, 1.6878045820063207E9, 0.0, 2023-06-26 13:36:22.006
30.0, 54168.37980370281, 50017.973782774665, 17221.348550480434, -29265.74251243383, -451.8628659084876, -16722.703483426987, 20376.11846639138, 6668.50884777413, -0.018000000000000002, 0.976, 0.168, 192.0, 0.0, 0.0, 0.0, 0.0, 0.0, 0.0, 0.0, 0.0, 0.0, 1.687804582010331E9, 0.0, 2023-06-26 13:36:22.010
31.0, 54183.511934699054, 50002.104044211395, 17090.09910703887, -29457.453424626998, -405.0359612746193, -16879.299805080867, 20256.313116110938, 6474.763926835529, -0.018000000000000002, 0.976, 0.168, 192.0, 0.0, 0.0, 0.0, 0.0, 0.0, 0.0, 0.0, 0.0, 0.0, 1.6878045820134368E9, 0.0, 2023-06-26 13:36:22.013
32.0, 54132.19232942967, 49927.9856595976, 16949.394875692713, -29591.832112292304, -591.5612687541567, -17022.775652739485, 20109.26098933947, 6343.738000838519, -0.018000000000000002, 0.976, 0.168, 192.0, 0.0, 0.0, 0.0, 0.0, 0.0, 0.0, 0.0, 0.0, 0.0, 1.687804582016373E9, 0.0, 2023-06-26 13:36:22.016
33.0, 54108.56653554041, 49933.55124396697, 17058.918423523715, -29421.243598609402, -664.8302870786533, -16893.40375583217, 20213.978912112583, 6519.065084345947, -0.018000000000000002, 0.976, 0.168, 192.0, 0.0, 0.0, 0.0, 0.0, 0.0, 0.0, 0.0, 0.0, 0.0, 1.6878045820213797E9, 0.0, 2023-06-26 13:36:22.021
34.0, 54157.785076830995, 50010.66476233778, 17215.335931221955, -29262.725026932363, -488.2962093706381, -16731.331256786736, 20376.99018442514, 6674.588522265974, -0.018000000000000002, 0.976, 0.168, 192.0, 0.0, 0.0, 0.0, 0.0, 0.0, 0.0, 0.0, 0.0, 0.0, 1.687804582024387E9, 0.0, 2023-06-26 13:36:22.024
35.0, 54184.38365273281, 50013.145805972315, 17122.91146789926, -29414.471020039444, -400.2973914500942, -16848.499101221456, 20283.24696817958, 6514.482976732609, -0.018000000000000002, 0.976, 0.168, 192.0, 0.0, 0.0, 0.0, 0.0, 0.0, 0.0, 0.0, 0.0, 0.0, 1.687804582028419E9, 0.0, 2023-06-26 13:36:22.028
36.0, 54139.07666672191, 49936.56872946844, 16955.765122862475, -29591.608594847752, -565.4767829748134, -17032.118681921802, 20107.6963672276, 6335.713724579064, -0.018000000000000002, 0.976, 0.168, 192.0, 0.0, 0.0, 0.0, 0.0, 0.0, 0.0, 0.0, 0.0, 0.0, 1.6878045820324352E9, 0.0, 2023-06-26 13:36:22.032
37.0, 54110.13115765228, 49927.7844938975, 17032.118681921802, -29456.35818914869, -673.3463017161253, -16930.53000337243, 20172.024687769972, 6472.796973323461, -0.018000000000000002, 0.976, 0.168, 192.0, 0.0, 0.0, 0.0, 0.0, 0.0, 0.0, 0.0, 0.0, 0.0, 1.6878045820364628E9, 0.0, 2023-06-26 13:36:22.036
38.0, 54151.19131221668, 50001.07586396645, 17212.3631492094, -29257.897050130017, -520.5721283641014, -16733.74524518791, 20353.766721936074, 6671.414574553321, -0.018000000000000002, 0.976, 0.168, 192.0, 0.0, 0.0, 0.0, 0.0, 0.0, 0.0, 0.0, 0.0, 0.0, 1.6878045820404909E9, 0.0, 2023-06-26 13:36:22.040
39.0, 54183.75780388806, 50015.02335250656, 17158.607203794385, -29365.72186538242, -395.2682489476501, -16806.522525134387, 20309.376157447834, 6555.990166186115, -0.016, 0.976, 0.162, 192.0, 255.0, 128.0, 30.0, 128.0, 5.0, 16.0, 0.0, 0.0, 0.0, 1.6878045820435026E9, 0.0, 2023-06-26 13:36:22.043
40.0, 54151.97362327261, 49948.415154029746, 16981.424925497166, -29563.020713689413, -523.2766894431936, -17002.88260017426, 20131.5009750725, 6353.058678276382, -0.016, 0.976, 0.162, 192.0, 0.0, 0.0, 0.0, 0.0, 0.0, 0.0, 0.0, 0.0, 0.0, 1.687804582047514E9, 0.0, 2023-06-26 13:36:22.047
41.0, 54119.965925212615, 49929.34911600937, 17018.260600359514, -29468.182261965547, -661.7457463438209, -16950.53481465993, 20160.066504486385, 6450.668746312707, -0.016, 0.976, 0.162, 192.0, 0.0, 0.0, 0.0, 0.0, 0.0, 0.0, 0.0, 0.0, 0.0, 1.6878045820525353E9, 0.0, 2023-06-26 13:36:22.052
42.0, 54150.29724243847, 49992.381035373335, 17200.852000814917, -29253.136128561036, -549.5623409226348, -16748.27387908386, 20344.848375898408, 6666.564246006518, -0.016, 0.976, 0.162, 192.0, 0.0, 0.0, 0.0, 0.0, 0.0, 0.0, 0.0, 0.0, 0.0, 1.6878045820575771E9, 0.0, 2023-06-26 13:36:22.057
43.0, 54185.56829518894, 50015.671553095766, 17188.11150647539, -29317.285635147768, -394.9329727808205, -16783.120248689684, 20340.959172363186, 6596.558582372497, -0.016, 0.976, 0.162, 192.0, 0.0, 0.0, 0.0, 0.0, 0.0, 0.0, 0.0, 0.0, 0.0, 1.6878045820615692E9, 0.0, 2023-06-26 13:36:22.061
44.0, 54154.52172214052, 49949.73390695261, 16996.065318115394, -29546.70394023704, -493.48181408426933, -17001.69795771813, 20144.912021745688, 6364.569826670865, -0.016, 0.976, 0.162, 192.0, 0.0, 0.0, 0.0, 0.0, 0.0, 0.0, 0.0, 0.0, 0.0, 1.6878045820656064E9, 0.0, 2023-06-26 13:36:22.065
45.0, 54103.71620699361, 49903.9798860526, 16975.97109985007, -29519.255998045923, -670.6193888925778, -17001.385033295755, 20114.915980686663, 6393.73885318504, -0.016, 0.976, 0.162, 192.0, 0.0, 0.0, 0.0, 0.0, 0.0, 0.0, 0.0, 0.0, 0.0, 1.6878045820685947E9, 0.0, 2023-06-26 13:36:22.068
46.0, 54122.692838036164, 49959.03223264602, 17161.982317207137, -29291.491722046343, -602.5806787706231, -16798.94528376404, 20301.329529443923, 6624.78883561955, -0.016, 0.976, 0.162, 192.0, 0.0, 0.0, 0.0, 0.0, 0.0, 0.0, 0.0, 0.0, 0.0, 1.6878045820736108E9, 0.0, 2023-06-26 13:36:22.073
47.0, 54194.4419377377, 50031.04955328102, 17225.215402271202, -29265.831919411652, -403.5830978850243, -16746.530443016345, 20369.99408841063, 6644.860702140415, -0.016, 0.976, 0.162, 192.0, 0.0, 0.0, 0.0, 0.0, 0.0, 0.0, 0.0, 0.0, 0.0, 1.6878045820776565E9, 0.0, 2023-06-26 13:36:22.077
48.0, 54197.43707149471, 49994.12447144085, 17059.141940968268, -29479.425189426565, -440.91051112538713, -16941.97409653355, 20203.65240617423, 6423.958411688615, -0.016, 0.976, 0.162, 192.0, 0.0, 0.0, 0.0, 0.0, 0.0, 0.0, 0.0, 0.0, 0.0, 1.6878045820816748E9, 0.0, 2023-06-26 13:36:22.081
49.0, 54135.567442842424, 49923.962345595646, 16983.704803431607, -29520.26182654641, -639.3940018885138, -17004.22370484158, 20118.447556310603, 6381.400690245711, -0.018000000000000002, 0.982, 0.162, 192.0, 255.0, 112.0, 30.0, 176.0, 5.0, 16.0, 0.0, 0.0, 0.0, 1.6878045820856977E9, 0.0, 2023-06-26 13:36:22.085
50.0, 54147.167998214725, 49972.15270664128, 17155.768532248563, -29295.582091281667, -616.774036499743, -16813.22804847098, 20281.190607689692, 6605.298114454522, -0.018000000000000002, 0.982, 0.162, 192.0, 0.0, 0.0, 0.0, 0.0, 0.0, 0.0, 0.0, 0.0, 0.0, 1.687804582089718E9, 0.0, 2023-06-26 13:36:22.089
51.0, 54198.06292033946, 50032.234195737154, 17241.4204170013, -29236.77465161975, -425.3089934955828, -16725.855079395187, 20384.254501373114, 6662.943263404759, -0.018000000000000002, 0.982, 0.162, 192.0, 0.0, 0.0, 0.0, 0.0, 0.0, 0.0, 0.0, 0.0, 0.0, 1.6878045820937212E9, 0.0, 2023-06-26 13:36:22.093
52.0, 54196.47594648313, 49994.32563714095, 17081.113705767835, -29451.97724723545, -428.4158859748705, -16914.749671786987, 20216.348197024847, 6438.822321751395, -0.018000000000000002, 0.982, 0.162, 192.0, 0.0, 0.0, 0.0, 0.0, 0.0, 0.0, 0.0, 0.0, 0.0, 1.6878045820968776E9, 0.0, 2023-06-26 13:36:22.096
53.0, 54152.95710002865, 49936.27815679052, 16982.251940042013, -29534.477536019986, -612.9742399423409, -17015.71250149161, 20095.067631610353, 6358.758373112485, -0.018000000000000002, 0.982, 0.162, 192.0, 0.0, 0.0, 0.0, 0.0, 0.0, 0.0, 0.0, 0.0, 0.0, 1.6878045820997744E9, 0.0, 2023-06-26 13:36:22.099
54.0, 54140.68599232269, 49956.12650586683, 17119.67046495324, -29338.430385402487, -644.1772752019496, -16858.66914494862, 20238.230554846592, 6556.906587708782, -0.018000000000000002, 0.982, 0.162, 192.0, 0.0, 0.0, 0.0, 0.0, 0.0, 0.0, 0.0, 0.0, 0.0, 1.6878045821037931E9, 0.0, 2023-06-26 13:36:22.103
55.0, 54188.71989115714, 50023.18173923275, 17241.331010023478, -29230.180887005437, -457.6743194668674, -16725.765672417365, 20386.60143454092, 6668.50884777413, -0.018000000000000002, 0.982, 0.162, 192.0, 0.0, 0.0, 0.0, 0.0, 0.0, 0.0, 0.0, 0.0, 0.0, 1.6878045821078048E9, 0.0, 2023-06-26 13:36:22.107
56.0, 54208.83646116692, 50013.16815771678, 17119.737520186605, -29411.29707232679, -399.0903972495076, -16867.34162179728, 20265.16440691524, 6484.9339705626935, -0.018000000000000002, 0.982, 0.162, 192.0, 0.0, 0.0, 0.0, 0.0, 0.0, 0.0, 0.0, 0.0, 0.0, 1.6878045821128616E9, 0.0, 2023-06-26 13:36:22.112
57.0, 54155.90753029675, 49939.63091845881, 16974.138256804737, -29553.342408340268, -579.0442918591848, -17024.630847529275, 20116.70412024309, 6343.849759560795, -0.018000000000000002, 0.982, 0.162, 192.0, 0.0, 0.0, 0.0, 0.0, 0.0, 0.0, 0.0, 0.0, 0.0, 1.6878045821168633E9, 0.0, 2023-06-26 13:36:22.116
58.0, 54137.78026554349, 49950.56092149746, 17085.13701976979, -29379.334077755702, -651.3074816831925, -16888.553427285366, 20221.75731918303, 6523.535433237009, -0.018000000000000002, 0.982, 0.162, 192.0, 0.0, 0.0, 0.0, 0.0, 0.0, 0.0, 0.0, 0.0, 0.0, 1.6878045821198645E9, 0.0, 2023-06-26 13:36:22.119
59.0, 54172.31371072694, 50014.01752400608, 17231.27272501859, -29229.711500371875, -484.1164331574957, -16724.424567750048, 20383.69570776173, 6676.46606880022, -0.014, 0.982, 0.162, 192.0, 255.0, 144.0, 30.0, 176.0, 5.0, 16.0, 0.0, 0.0, 0.0, 1.687804582123893E9, 0.0, 2023-06-26 13:36:22.123
60.0, 54189.882181868816, 50006.23911693563, 17133.68500872672, -29388.25242379337, -393.81538555805514, -16844.386380241678, 20292.835866550908, 6520.070912846436, -0.014, 0.982, 0.162, 192.0, 0.0, 0.0, 0.0, 0.0, 0.0, 0.0, 0.0, 0.0, 0.0, 1.6878045821279106E9, 0.0, 2023-06-26 13:36:22.127
61.0, 54150.520759883024, 49934.60177595637, 16968.34915499081, -29562.461920078033, -554.4126694694364, -17017.14301313675, 20117.642893510212, 6346.800189828896, -0.014, 0.982, 0.162, 192.0, 0.0, 0.0, 0.0, 0.0, 0.0, 0.0, 0.0, 0.0, 0.0, 1.68780458213193E9, 0.0, 2023-06-26 13:36:22.131
62.0, 54122.558727569434, 49927.73979040859, 17036.499623835043, -29435.77223250535, -670.0158917922845, -16920.96345674556, 20178.506693662013, 6477.960226292637, -0.014, 0.982, 0.162, 192.0, 0.0, 0.0, 0.0, 0.0, 0.0, 0.0, 0.0, 0.0, 0.0, 1.6878045821379805E9, 0.0, 2023-06-26 13:36:22.137
63.0, 54168.17863800271, 50007.53551811403, 17223.159041781313, -29230.22559049435, -513.8889567719647, -16715.126242056638, 20374.68795474624, 6691.061757929535, -0.014, 0.982, 0.162, 192.0, 0.0, 0.0, 0.0, 0.0, 0.0, 0.0, 0.0, 0.0, 0.0, 1.6878045821409843E9, 0.0, 2023-06-26 13:36:22.140
64.0, 54195.67128368274, 50020.700695598214, 17169.224282410658, -29339.883248792084, -385.0982052204854, -16789.646958070633, 20335.482994971633, 6576.576122829452, -0.014, 0.982, 0.162, 192.0, 0.0, 0.0, 0.0, 0.0, 0.0, 0.0, 0.0, 0.0, 0.0, 1.6878045821449976E9, 0.0, 2023-06-26 13:36:22.144
65.0, 54161.361355943845, 49951.92437790923, 16980.799076652416, -29551.04017866137, -519.6557068414339, -16998.524010005476, 20142.40862636669, 6362.602873158798, -0.014, 0.982, 0.162, 192.0, 0.0, 0.0, 0.0, 0.0, 0.0, 0.0, 0.0, 0.0, 0.0, 1.6878045821500294E9, 0.0, 2023-06-26 13:36:22.150
66.0, 54108.1195006513, 49910.84187160038, 16995.17124833718, -29485.97425055197, -681.7282058868655, -16969.489093958033, 20144.375579878757, 6433.144978659747, -0.014, 0.982, 0.162, 192.0, 0.0, 0.0, 0.0, 0.0, 0.0, 0.0, 0.0, 0.0, 0.0, 1.6878045821530352E9, 0.0, 2023-06-26 13:36:22.153
67.0, 54139.836626033386, 49978.23238113313, 17185.809276796495, -29264.5578699777, -572.1152510780396, -16761.819036223773, 20339.059274084484, 6655.36602203441, -0.014, 0.982, 0.162, 192.0, 0.0, 0.0, 0.0, 0.0, 0.0, 0.0, 0.0, 0.0, 0.0, 1.6878045821580667E9, 0.0, 2023-06-26 13:36:22.158
68.0, 54192.67614992573, 50023.58407063295, 17195.331119934453, -29305.394507097546, -402.6443246179014, -16766.535254303846, 20353.431445769245, 6608.852041822915, -0.014, 0.982, 0.162, 192.0, 0.0, 0.0, 0.0, 0.0, 0.0, 0.0, 0.0, 0.0, 0.0, 1.687804582163147E9, 0.0, 2023-06-26 13:36:22.163
69.0, 54167.95512055816, 49961.80384895848, 17010.191620611145, -29529.917780151103, -490.41962509389225, -16977.759239406496, 20164.290984188436, 6381.3559867568, -0.014, 0.982, 0.162, 192.0, 0.0, 0.0, 0.0, 0.0, 0.0, 0.0, 0.0, 0.0, 0.0, 1.6878045821671512E9, 0.0, 2023-06-26 13:36:22.167
70.0, 54123.877480492294, 49920.4307699717, 16990.45503025711, -29509.421230485586, -664.5397144007343, -16992.354928535813, 20131.45627158359, 6405.8087951909065, -0.016, 0.98, 0.158, 192.0, 255.0, 128.0, 30.0, 160.0, 4.0, 240.0, 0.0, 0.0, 0.0, 1.687804582170152E9, 0.0, 2023-06-26 13:36:22.170
71.0, 54142.25061443456, 49975.17019214275, 17175.54982609151, -29281.344030063636, -598.8926409354974, -16788.305853403315, 20314.74057611711, 6633.17073979029, -0.016, 0.98, 0.158, 192.0, 0.0, 0.0, 0.0, 0.0, 0.0, 0.0, 0.0, 0.0, 0.0, 1.68780458217413E9, 0.0, 2023-06-26 13:36:22.174
72.0, 54191.35739700287, 50027.56268114599, 17222.22026851419, -29274.437341026944, -414.3566387124823, -16751.26901284087, 20371.17873086676, 6637.462274725709, -0.016, 0.98, 0.158, 192.0, 0.0, 0.0, 0.0, 0.0, 0.0, 0.0, 0.0, 0.0, 0.0, 1.6878045821771472E9, 0.0, 2023-06-26 13:36:22.177
73.0, 54187.378786489826, 49985.966084714666, 17050.38005714179, -29489.461122687, -451.751107186211, -16940.409474421678, 20200.031423572473, 6417.208184863113, -0.016, 0.98, 0.158, 192.0, 0.0, 0.0, 0.0, 0.0, 0.0, 0.0, 0.0, 0.0, 0.0, 1.6878045821801836E9, 0.0, 2023-06-26 13:36:22.180
74.0, 54129.01838171702, 49920.00608682705, 16972.037192825937, -29537.875001177195, -649.9216735269634, -17014.70667299112, 20114.424242308647, 6372.459992463589, -0.016, 0.98, 0.158, 192.0, 0.0, 0.0, 0.0, 0.0, 0.0, 0.0, 0.0, 0.0, 0.0, 1.6878045821841793E9, 0.0, 2023-06-26 13:36:22.184
75.0, 54131.85705326284, 49961.73679372511, 17143.11744488686, -29315.452792102435, -633.7166587968659, -16813.98800778246, 20281.525883856524, 6598.97257077367, -0.016, 0.98, 0.158, 192.0, 0.0, 0.0, 0.0, 0.0, 0.0, 0.0, 0.0, 0.0, 0.0, 1.687804582188196E9, 0.0, 2023-06-26 13:36:22.188
76.0, 54187.89287661229, 50033.66470738229, 17239.87814663388, -29240.64150341052, -434.6073191889905, -16717.02614033534, 20389.998899698126, 6670.341690819466, -0.016, 0.98, 0.158, 192.0, 0.0, 0.0, 0.0, 0.0, 0.0, 0.0, 0.0, 0.0, 0.0, 1.687804582192201E9, 0.0, 2023-06-26 13:36:22.192
77.0, 54177.81223986295, 49989.67647429425, 17069.89313005127, -29467.869337543172, -435.74725815621116, -16911.6427793077, 20222.98666512807, 6439.671688040697, -0.016, 0.98, 0.158, 192.0, 0.0, 0.0, 0.0, 0.0, 0.0, 0.0, 0.0, 0.0, 0.0, 1.6878045821962435E9, 0.0, 2023-06-26 13:36:22.196
78.0, 54122.58107931389, 49920.11784554933, 16954.87105308426, -29564.451225334553, -630.1403796840167, -17031.671647032697, 20097.816896178352, 6340.318183936856, -0.016, 0.98, 0.158, 192.0, 0.0, 0.0, 0.0, 0.0, 0.0, 0.0, 0.0, 0.0, 0.0, 1.6878045822002459E9, 0.0, 2023-06-26 13:36:22.200
79.0, 54122.201099658145, 49954.83010468842, 17104.985368846104, -29357.027036789306, -656.515438141279, -16856.635136203186, 20248.087674151382, 6553.5538260404865, -0.016, 0.98, 0.158, 192.0, 0.0, 0.0, 0.0, 0.0, 0.0, 0.0, 0.0, 0.0, 0.0, 1.6878045822052863E9, 0.0, 2023-06-26 13:36:22.205
80.0, 54172.15724851576, 50028.76967534658, 17233.35143725293, -29239.479212698843, -466.23503759325, -16722.815242149263, 20390.98237645416, 6673.403879809843, -0.032, 0.98, 0.164, 192.0, 255.0, 0.0, 30.0, 160.0, 5.0, 32.0, 0.0, 0.0, 0.0, 1.687804582208285E9, 0.0, 2023-06-26 13:36:22.208
81.0, 54182.036719565, 50008.809567547985, 17102.303159511466, -29430.38546209162, -414.9824875572309, -16878.897473680674, 20264.560909814943, 6477.557894892442, -0.032, 0.98, 0.164, 192.0, 0.0, 0.0, 0.0, 0.0, 0.0, 0.0, 0.0, 0.0, 0.0, 1.687804582211308E9, 0.0, 2023-06-26 13:36:22.211
82.0, 54144.374030157815, 49945.71059295066, 16965.17520727816, -29566.75345501345, -589.9519431533746, -17022.909763206215, 20116.637065009723, 6341.212253715069, -0.032, 0.98, 0.164, 192.0, 0.0, 0.0, 0.0, 0.0, 0.0, 0.0, 0.0, 0.0, 0.0, 1.6878045822153254E9, 0.0, 2023-06-26 13:36:22.215
83.0, 54132.79582652996, 49960.35098556888, 17081.493685423575, -29393.25921455136, -659.6223306205667, -16886.184142373102, 20225.28889480697, 6520.182671568713, -0.032, 0.98, 0.164, 192.0, 0.0, 0.0, 0.0, 0.0, 0.0, 0.0, 0.0, 0.0, 0.0, 1.687804582220353E9, 0.0, 2023-06-26 13:36:22.220
84.0, 54176.113507284346, 50029.775503847064, 17241.487472234665, -29230.180887005437, -490.3078663716157, -16715.506221712378, 20397.598492812933, 6688.290141617077, -0.032, 0.98, 0.164, 192.0, 0.0, 0.0, 0.0, 0.0, 0.0, 0.0, 0.0, 0.0, 0.0, 1.6878045822243874E9, 0.0, 2023-06-26 13:36:22.224
85.0, 54208.545888488996, 50040.90667258581, 17161.758799762585, -29366.772397371817, -384.22648718672843, -16813.38451068217, 20318.36155871887, 6546.825950959439, -0.032, 0.98, 0.164, 192.0, 0.0, 0.0, 0.0, 0.0, 0.0, 0.0, 0.0, 0.0, 0.0, 1.6878045822284064E9, 0.0, 2023-06-26 13:36:22.228
86.0, 54150.69957383866, 49953.15372385427, 16972.953614348604, -29566.485234079988, -558.6147974270341, -17008.425832799177, 20121.397986578704, 6348.565977640865, -0.032, 0.98, 0.164, 192.0, 0.0, 0.0, 0.0, 0.0, 0.0, 0.0, 0.0, 0.0, 0.0, 1.6878045822344556E9, 0.0, 2023-06-26 13:36:22.234
87.0, 54109.907640207726, 49932.23249104411, 17031.71635052161, -29448.982113478436, -681.6164471645889, -16938.196651720602, 20182.820580341886, 6470.539447133476, -0.032, 0.98, 0.164, 192.0, 0.0, 0.0, 0.0, 0.0, 0.0, 0.0, 0.0, 0.0, 0.0, 1.687804582237429E9, 0.0, 2023-06-26 13:36:22.237
88.0, 54160.95902454365, 50016.58797461844, 17225.662437160307, -29231.7008056284, -522.6061371095344, -16719.01544559186, 20383.60630078391, 6688.021920683614, -0.032, 0.98, 0.164, 192.0, 0.0, 0.0, 0.0, 0.0, 0.0, 0.0, 0.0, 0.0, 0.0, 1.6878045822414494E9, 0.0, 2023-06-26 13:36:22.241
89.0, 54200.074577340434, 50042.515998186595, 17188.06680298648, -29320.99602472735, -377.4762603612257, -16772.480818328957, 20353.49850100261, 6591.842364292427, -0.032, 0.98, 0.164, 192.0, 0.0, 0.0, 0.0, 0.0, 0.0, 0.0, 0.0, 0.0, 0.0, 1.68780458224548E9, 0.0, 2023-06-26 13:36:22.245
90.0, 54154.14174248478, 49959.43456404621, 16986.632881955255, -29543.060605890823, -516.3476486620484, -16984.285948787445, 20154.076236972363, 6370.448335462611, -0.044, 0.98, 0.16, 192.0, 254.0, 160.0, 30.0, 160.0, 5.0, 0.0, 0.0, 0.0, 0.0, 1.6878045822494974E9, 0.0, 2023-06-26 13:36:22.249
91.0, 54119.25066939004, 49936.322860279426, 17010.30337933342, -29466.662343342585, -672.0722522821727, -16949.3501722038, 20167.152007478715, 6448.947661989649, -0.044, 0.98, 0.16, 192.0, 0.0, 0.0, 0.0, 0.0, 0.0, 0.0, 0.0, 0.0, 0.0, 1.6878045822535276E9, 0.0, 2023-06-26 13:36:22.253
92.0, 54161.1825419882, 50014.621021106366, 17209.993864297136, -29234.226552751847, -558.0560038156515, -16732.113567842673, 20367.06600988698, 6682.366929336421, -0.044, 0.98, 0.16, 192.0, 0.0, 0.0, 0.0, 0.0, 0.0, 0.0, 0.0, 0.0, 0.0, 1.6878045822575536E9, 0.0, 2023-06-26 13:36:22.257
93.0, 54200.83453665192, 50048.97565233418, 17210.329140463968, -29284.383867309556, -394.2624204471613, -16747.46921628347, 20375.69378324673, 6627.1581205318125, -0.044, 0.98, 0.16, 192.0, 0.0, 0.0, 0.0, 0.0, 0.0, 0.0, 0.0, 0.0, 0.0, 1.6878045822615712E9, 0.0, 2023-06-26 13:36:22.261
94.0, 54180.20387651967, 49991.196392917205, 17024.720254507098, -29512.2151985425, -481.7694999896884, -16956.659192640687, 20184.42990594267, 6390.319036283378, -0.044, 0.98, 0.16, 192.0, 0.0, 0.0, 0.0, 0.0, 0.0, 0.0, 0.0, 0.0, 0.0, 1.6878045822645886E9, 0.0, 2023-06-26 13:36:22.264
95.0, 54138.786094043986, 49953.19842734319, 17004.067242630394, -29491.383372710156, -652.9391590284299, -16973.154780048702, 20151.014047981986, 6410.480309782066, -0.044, 0.98, 0.16, 192.0, 0.0, 0.0, 0.0, 0.0, 0.0, 0.0, 0.0, 0.0, 0.0, 1.6878045822706196E9, 0.0, 2023-06-26 13:36:22.270
96.0, 54155.214626218636, 50009.97185825966, 17191.419564654778, -29259.260506541792, -585.4592425178579, -16762.04255366833, 20342.143814819316, 6648.951071375736, -0.044, 0.98, 0.16, 192.0, 0.0, 0.0, 0.0, 0.0, 0.0, 0.0, 0.0, 0.0, 0.0, 1.68780458227363E9, 0.0, 2023-06-26 13:36:22.273
97.0, 54203.04735935299, 50063.124306574384, 17238.537041966563, -29248.12933780305, -402.42080717334835, -16719.954218858984, 20402.582931826466, 6654.963690634214, -0.044, 0.98, 0.16, 192.0, 0.0, 0.0, 0.0, 0.0, 0.0, 0.0, 0.0, 0.0, 0.0, 1.6878045822776256E9, 0.0, 2023-06-26 13:36:22.277
98.0, 54192.899667370286, 50012.519957127566, 17062.606461358842, -29471.93735503404, -439.9046826248983, -16921.29873291239, 20223.880734906284, 6425.411275078211, -0.044, 0.98, 0.16, 192.0, 0.0, 0.0, 0.0, 0.0, 0.0, 0.0, 0.0, 0.0, 0.0, 1.6878045822806284E9, 0.0, 2023-06-26 13:36:22.280
99.0, 54145.33515516939, 49954.02544188803, 16993.114887847292, -29510.270596774888, -625.3794581150363, -16985.738812177042, 20144.26382115648, 6392.800079917918, -0.044, 0.98, 0.16, 192.0, 0.0, 0.0, 0.0, 0.0, 0.0, 0.0, 0.0, 0.0, 0.0, 1.6878045822836409E9, 0.0, 2023-06-26 13:36:22.283
100.0, 54153.448838406664, 49997.56664008697, 17158.67425902775, -29290.307079590213, -613.8012544871873, -16798.27473143038, 20307.655073124777, 6612.763597102595, -0.046, 0.97, 0.166, 192.0, 254.0, 144.0, 30.0, 80.0, 5.0, 48.0, 0.0, 0.0, 0.0, 1.6878045822866833E9, 0.0, 2023-06-26 13:36:22.286
101.0, 54192.85496388137, 50049.981480834664, 17244.348495524944, -29228.97389280485, -428.30412725259396, -16716.17677404604, 20406.405080128323, 6672.733327476183, -0.046, 0.97, 0.166, 192.0, 0.0, 0.0, 0.0, 0.0, 0.0, 0.0, 0.0, 0.0, 0.0, 1.6878045822916827E9, 0.0, 2023-06-26 13:36:22.291
102.0, 54189.47985046862, 50013.54813737251, 17088.24391224908, -29442.321293630757, -418.53641492562474, -16894.990729688496, 20256.357819599845, 6458.156580705236, -0.046, 0.97, 0.166, 192.0, 0.0, 0.0, 0.0, 0.0, 0.0, 0.0, 0.0, 0.0, 0.0, 1.687804582295719E9, 0.0, 2023-06-26 13:36:22.295
103.0, 54135.567442842424, 49945.64353771729, 16971.143123047725, -29542.546515768354, -608.8615189625643, -17011.622132256285, 20133.959666962586, 6361.597044658309, -0.046, 0.97, 0.166, 192.0, 0.0, 0.0, 0.0, 0.0, 0.0, 0.0, 0.0, 0.0, 0.0, 1.6878045822997365E9, 0.0, 2023-06-26 13:36:22.299
104.0, 54125.509157837536, 49969.35873858437, 17107.53346771401, -29346.253495961846, -646.5465601142121, -16853.796464657364, 20268.785389516997, 6562.606282544885, -0.046, 0.97, 0.166, 192.0, 0.0, 0.0, 0.0, 0.0, 0.0, 0.0, 0.0, 0.0, 0.0, 1.687804582303754E9, 0.0, 2023-06-26 13:36:22.303
105.0, 54178.2369230076, 50042.091315041944, 17241.822748401493, -29220.681395611933, -457.3613950444931, -16710.141803043105, 20415.256370932624, 6687.9772171947025, -0.046, 0.97, 0.166, 192.0, 0.0, 0.0, 0.0, 0.0, 0.0, 0.0, 0.0, 0.0, 0.0, 1.6878045823097963E9, 0.0, 2023-06-26 13:36:22.309
106.0, 54200.40985350727, 50033.57530040447, 17126.48774701211, -29392.119275584137, -392.6530948463792, -16839.71486565052, 20304.81640157895, 6510.370255752833, -0.046, 0.97, 0.166, 192.0, 0.0, 0.0, 0.0, 0.0, 0.0, 0.0, 0.0, 0.0, 0.0, 1.6878045823128037E9, 0.0, 2023-06-26 13:36:22.312
107.0, 54145.87159703632, 49955.74652621109, 16970.919605603172, -29544.066434391312, -574.6633499459446, -17004.111946119305, 20145.962553735084, 6361.619396402764, -0.046, 0.97, 0.166, 192.0, 0.0, 0.0, 0.0, 0.0, 0.0, 0.0, 0.0, 0.0, 0.0, 1.6878045823168116E9, 0.0, 2023-06-26 13:36:22.316
108.0, 54116.34494261086, 49950.9409011532, 17066.830941060896, -29389.213548804946, -666.1043365126058, -16893.649625021175, 20232.374397799304, 6520.607354713364, -0.046, 0.97, 0.166, 192.0, 0.0, 0.0, 0.0, 0.0, 0.0, 0.0, 0.0, 0.0, 0.0, 1.6878045823208487E9, 0.0, 2023-06-26 13:36:22.320
109.0, 54169.51974267003, 50033.59765214892, 17240.54869896754, -29205.77278206024, -487.82682273707667, -16705.671454152045, 20411.188353441757, 6703.534031335596, -0.046, 0.97, 0.166, 192.0, 0.0, 0.0, 0.0, 0.0, 0.0, 0.0, 0.0, 0.0, 0.0, 1.6878045823268914E9, 0.0, 2023-06-26 13:36:22.326
110.0, 54195.44776623819, 50036.637489394845, 17156.841415982417, -29344.04067326077, -384.0029697421753, -16805.80726931182, 20337.74052116162, 6559.968776699159, -0.046, 0.97, 0.166, 192.0, 0.0, 0.0, 0.0, 0.0, 0.0, 0.0, 0.0, 0.0, 0.0, 1.6878045823298793E9, 0.0, 2023-06-26 13:36:22.329
111.0, 54156.22045471912, 49963.793154215, 16985.291777287934, -29529.046062117348, -537.2688814722159, -16995.014786125994, 20160.245318442026, 6368.459030206088, -0.024, 0.978, 0.17, 192.0, 255.0, 64.0, 30.0, 144.0, 5.0, 80.0, 0.0, 0.0, 0.0, 1.687804582333891E9, 0.0, 2023-06-26 13:36:22.333
112.0, 54119.92122172371, 49945.30826155046, 17042.065208204414, -29413.01815664985, -667.1772202464605, -16918.527116599933, 20211.09553707785, 6491.281865988, -0.024, 0.978, 0.17, 192.0, 0.0, 0.0, 0.0, 0.0, 0.0, 0.0, 0.0, 0.0, 0.0, 1.687804582337936E9, 0.0, 2023-06-26 13:36:22.337
113.0, 54158.09800125337, 50014.621021106366, 17220.856812102415, -29212.768878074752, -531.3903726804701, -16719.417776992057, 20399.297225391536, 6697.856688243948, -0.024, 0.978, 0.17, 192.0, 0.0, 0.0, 0.0, 0.0, 0.0, 0.0, 0.0, 0.0, 0.0, 1.6878045823409507E9, 0.0, 2023-06-26 13:36:22.340
114.0, 54178.683957896705, 50020.074846753465, 17167.59260506542, -29321.420707872, -409.68512412132316, -16786.741231291442, 20355.711323703687, 6584.39923338881, -0.024, 0.978, 0.17, 192.0, 0.0, 0.0, 0.0, 0.0, 0.0, 0.0, 0.0, 0.0, 0.0, 1.6878045823439624E9, 0.0, 2023-06-26 13:36:22.343
115.0, 54127.61022181633, 49930.98079335461, 16966.583367178842, -29554.839975218772, -549.3835269669923, -17007.93409442116, 20143.07917870035, 6347.49309390701, -0.024, 0.978, 0.17, 192.0, 0.0, 0.0, 0.0, 0.0, 0.0, 0.0, 0.0, 0.0, 0.0, 1.6878045823469872E9, 0.0, 2023-06-26 13:36:22.346
116.0, 54102.6209715153, 49914.14992977976, 16996.847629171327, -29475.156006235604, -688.321970501181, -16971.50075095901, 20161.31820217588, 6428.004077435026, -0.024, 0.978, 0.17, 192.0, 0.0, 0.0, 0.0, 0.0, 0.0, 0.0, 0.0, 0.0, 0.0, 1.687804582351982E9, 0.0, 2023-06-26 13:36:22.351
117.0, 54140.95421325615, 49989.18473591623, 17195.73345133465, -29244.910686601484, -575.4680127463356, -16757.08046639925, 20362.461550529188, 6657.712955202217, -0.024, 0.978, 0.17, 192.0, 0.0, 0.0, 0.0, 0.0, 0.0, 0.0, 0.0, 0.0, 0.0, 1.6878045823559904E9, 0.0, 2023-06-26 13:36:22.355
118.0, 54181.50027769808, 50025.01458227808, 17201.790774082037, -29288.675402244975, -412.9261270673427, -16764.613004280687, 20375.98435592465, 6608.2038412337115, -0.024, 0.978, 0.17, 192.0, 0.0, 0.0, 0.0, 0.0, 0.0, 0.0, 0.0, 0.0, 0.0, 1.6878045823600628E9, 0.0, 2023-06-26 13:36:22.360
119.0, 54160.75785884355, 49965.60364551588, 17015.332521835866, -29517.914893378605, -495.73934027425537, -16977.491018473032, 20187.29092923295, 6371.1188877962695, -0.024, 0.978, 0.17, 192.0, 0.0, 0.0, 0.0, 0.0, 0.0, 0.0, 0.0, 0.0, 0.0, 1.6878045823640547E9, 0.0, 2023-06-26 13:36:22.364
120.0, 54112.209869886625, 49917.77091238152, 16981.53668421944, -29513.243378787447, -677.9507610739186, -17013.097347390336, 20135.814861752377, 6373.3540622418, -0.024, 0.978, 0.17, 192.0, 0.0, 0.0, 0.0, 0.0, 0.0, 0.0, 0.0, 0.0, 0.0, 1.6878045823671484E9, 0.0, 2023-06-26 13:36:22.367
121.0, 54119.85416649034, 49962.42969780323, 17159.411866594775, -29292.98928892485, -627.5475773272011, -16803.75090882193, 20312.371291204847, 6598.078500995458, -0.014, 0.976, 0.162, 192.0, 255.0, 144.0, 30.0, 128.0, 5.0, 16.0, 0.0, 0.0, 0.0, 1.6878045823711462E9, 0.0, 2023-06-26 13:36:22.371
122.0, 54166.97164380213, 50016.56562287398, 17217.034663800558, -29269.89993690252, -441.91633962587593, -16753.727704730954, 20383.18161763926, 6617.748036116128, -0.014, 0.976, 0.162, 192.0, 0.0, 0.0, 0.0, 0.0, 0.0, 0.0, 0.0, 0.0, 0.0, 1.687804582375146E9, 0.0, 2023-06-26 13:36:22.375
123.0, 54166.30109146847, 49980.646369534305, 17053.799874043452, -29481.101570260715, -462.54699975812434, -16946.556204146887, 20227.881697163786, 6397.851574164817, -0.014, 0.976, 0.162, 192.0, 0.0, 0.0, 0.0, 0.0, 0.0, 0.0, 0.0, 0.0, 0.0, 1.6878045823791623E9, 0.0, 2023-06-26 13:36:22.379
124.0, 54124.50332933704, 49929.483226476106, 16982.654271442207, -29522.117021336202, -648.1558857149942, -17017.32182709239, 20142.31921938887, 6357.68548937863, -0.014, 0.976, 0.162, 192.0, 0.0, 0.0, 0.0, 0.0, 0.0, 0.0, 0.0, 0.0, 0.0, 1.687804582384146E9, 0.0, 2023-06-26 13:36:22.384
125.0, 54131.83470151838, 49970.18575312922, 17147.319572844455, -29301.03591692876, -640.2880716667261, -16829.5224701789, 20299.653148609777, 6579.034814719536, -0.014, 0.976, 0.162, 192.0, 0.0, 0.0, 0.0, 0.0, 0.0, 0.0, 0.0, 0.0, 0.0, 1.687804582388148E9, 0.0, 2023-06-26 13:36:22.388
126.0, 54172.22430374913, 50023.71818109968, 17232.144443052344, -29232.25959923978, -462.3458340580266, -16739.422588279558, 20394.312786378003, 6643.117266072902, -0.014, 0.976, 0.162, 192.0, 0.0, 0.0, 0.0, 0.0, 0.0, 0.0, 0.0, 0.0, 0.0, 1.6878045823921857E9, 0.0, 2023-06-26 13:36:22.392
127.0, 54170.77144035953, 49987.88833473782, 17076.263377221036, -29438.07446218425, -452.8686944089764, -16915.710796798565, 20245.33840958338, 6429.345182102345, -0.014, 0.976, 0.162, 192.0, 0.0, 0.0, 0.0, 0.0, 0.0, 0.0, 0.0, 0.0, 0.0, 1.6878045823962247E9, 0.0, 2023-06-26 13:36:22.396
128.0, 54116.836680988876, 49916.4298077142, 16954.334611217335, -29538.836126188773, -651.2851299387372, -17035.918478479205, 20110.266817839958, 6325.230756429524, -0.014, 0.976, 0.162, 192.0, 0.0, 0.0, 0.0, 0.0, 0.0, 0.0, 0.0, 0.0, 0.0, 1.6878045824002438E9, 0.0, 2023-06-26 13:36:22.400
129.0, 54121.41878860221, 49951.03030813102, 17100.917351355238, -29330.406109143034, -688.1878600344492, -16869.733258453998, 20248.95939218514, 6534.420732786743, -0.014, 0.976, 0.162, 192.0, 0.0, 0.0, 0.0, 0.0, 0.0, 0.0, 0.0, 0.0, 0.0, 1.6878045824052413E9, 0.0, 2023-06-26 13:36:22.405
130.0, 54178.549847429975, 50029.015544535585, 17246.337800781464, -29189.47836035232, -492.85596523952074, -16714.72391065644, 20405.779231283574, 6677.427193811798, -0.014, 0.976, 0.162, 192.0, 0.0, 0.0, 0.0, 0.0, 0.0, 0.0, 0.0, 0.0, 0.0, 1.687804582409256E9, 0.0, 2023-06-26 13:36:22.409
131.0, 54192.184411547714, 50014.86689029538, 17126.398340034288, -29367.554708427753, -425.10782779548504, -16855.696362936065, 20294.802820062974, 6497.361540479844, -0.004, 0.98, 0.164, 192.0, 255.0, 224.0, 30.0, 160.0, 5.0, 32.0, 0.0, 0.0, 0.0, 1.6878045824134119E9, 0.0, 2023-06-26 13:36:22.413
132.0, 54132.974640485605, 49928.432694486706, 16962.917681088173, -29531.95178889654, -608.2580218622711, -17025.99430394105, 20127.879992470742, 6335.579614112332, -0.004, 0.98, 0.164, 192.0, 0.0, 0.0, 0.0, 0.0, 0.0, 0.0, 0.0, 0.0, 0.0, 1.6878045824173188E9, 0.0, 2023-06-26 13:36:22.417
133.0, 54102.03982615946, 49921.74952289457, 17055.163330455223, -29381.323383012223, -704.5046334868233, -16915.464927609555, 20215.76705166901, 6495.461642201143, -0.004, 0.98, 0.164, 192.0, 0.0, 0.0, 0.0, 0.0, 0.0, 0.0, 0.0, 0.0, 0.0, 1.6878045824213371E9, 0.0, 2023-06-26 13:36:22.421
134.0, 54162.05426002196, 50010.44124489323, 17234.35726575342, -29198.01672673425, -527.6129278675232, -16727.017370106863, 20398.3137486355, 6680.623493268907, -0.004, 0.98, 0.164, 192.0, 0.0, 0.0, 0.0, 0.0, 0.0, 0.0, 0.0, 0.0, 0.0, 1.6878045824253478E9, 0.0, 2023-06-26 13:36:22.425
135.0, 54184.89774285528, 50011.04474199352, 17151.454645568687, -29342.699568593453, -424.0572958060856, -16832.80817661383, 20323.50245994359, 6529.659811217763, -0.004, 0.98, 0.164, 192.0, 0.0, 0.0, 0.0, 0.0, 0.0, 0.0, 0.0, 0.0, 0.0, 1.6878045824283636E9, 0.0, 2023-06-26 13:36:22.428
136.0, 54138.11554171033, 49932.8359881444, 16972.014841081484, -29539.61843724471, -578.1055185920619, -17028.698865020142, 20138.49707108701, 6333.053866988882, -0.004, 0.98, 0.164, 192.0, 0.0, 0.0, 0.0, 0.0, 0.0, 0.0, 0.0, 0.0, 0.0, 1.6878045824313793E9, 0.0, 2023-06-26 13:36:22.431
137.0, 54105.16907038321, 49918.843796115376, 17030.777577254485, -29425.66924401155, -703.2082323084155, -16949.21606173707, 20188.43086820017, 6458.156580705236, -0.004, 0.98, 0.164, 192.0, 0.0, 0.0, 0.0, 0.0, 0.0, 0.0, 0.0, 0.0, 0.0, 1.6878045824353957E9, 0.0, 2023-06-26 13:36:22.435
138.0, 54143.79288480197, 49991.28579989503, 17211.580838153463, -29226.269331725758, -567.7566609092547, -16754.331201831246, 20370.865806444384, 6661.333937803976, -0.004, 0.98, 0.164, 192.0, 0.0, 0.0, 0.0, 0.0, 0.0, 0.0, 0.0, 0.0, 0.0, 1.6878045824394443E9, 0.0, 2023-06-26 13:36:22.439
139.0, 54191.82678363643, 50024.679306111255, 17187.55271286401, -29303.00287044083, -414.73661836822254, -16793.69262381704, 20357.499463260112, 6578.297207152511, -0.004, 0.98, 0.164, 192.0, 0.0, 0.0, 0.0, 0.0, 0.0, 0.0, 0.0, 0.0, 0.0, 1.687804582443436E9, 0.0, 2023-06-26 13:36:22.443
140.0, 54158.410925675744, 49956.01474714455, 16999.932169906162, -29519.85949514622, -535.6148523825232, -16992.958425636105, 20167.554338878912, 6358.199579501103, -0.004, 0.98, 0.164, 192.0, 0.0, 0.0, 0.0, 0.0, 0.0, 0.0, 0.0, 0.0, 0.0, 1.6878045824484603E9, 0.0, 2023-06-26 13:36:22.448
141.0, 54110.77935824149, 49917.994429826074, 16999.686300717152, -29472.02676201186, -706.80686316572, -16984.867094143283, 20156.624335840268, 6406.702864969118, 0.004, 0.96, 0.154, 192.0, 0.0, 32.0, 30.0, 0.0, 4.0, 208.0, 0.0, 0.0, 0.0, 1.6878045824514887E9, 0.0, 2023-06-26 13:36:22.451
142.0, 54131.4770736071, 49972.75620374158, 17177.941462748226, -29259.573430964167, -620.6855917794218, -16784.6625190571, 20336.01943683856, 6623.246565252133, 0.004, 0.96, 0.154, 192.0, 0.0, 0.0, 0.0, 0.0, 0.0, 0.0, 0.0, 0.0, 0.0, 1.6878045824554992E9, 0.0, 2023-06-26 13:36:22.455
143.0, 54175.77823111752, 50015.02335250656, 17194.325291433965, -29289.65887900101, -445.69378443882283, -16781.667385300087, 20367.289527331537, 6590.657721836295, 0.004, 0.96, 0.154, 192.0, 0.0, 0.0, 0.0, 0.0, 0.0, 0.0, 0.0, 0.0, 0.0, 1.6878045824595008E9, 0.0, 2023-06-26 13:36:22.459
144.0, 54155.080515751906, 49959.03223264602, 17012.3150363344, -29512.483419475964, -517.1523114624395, -16991.326748290867, 20184.496961176035, 6360.948844069105, 0.004, 0.96, 0.154, 192.0, 0.0, 0.0, 0.0, 0.0, 0.0, 0.0, 0.0, 0.0, 0.0, 1.687804582463529E9, 0.0, 2023-06-26 13:36:22.463
145.0, 54117.35077111135, 49920.587232182894, 16983.88361738725, -29503.78859088285, -688.0090460788067, -17013.45497530162, 20140.5534315769, 6373.778745386451, 0.004, 0.96, 0.154, 192.0, 0.0, 0.0, 0.0, 0.0, 0.0, 0.0, 0.0, 0.0, 0.0, 1.6878045824675589E9, 0.0, 2023-06-26 13:36:22.467
146.0, 54136.01447773153, 49975.9972066876, 17165.133913175334, -29278.88533817355, -632.2637954072709, -16808.981217024473, 20322.83190760993, 6607.2650679665885, 0.004, 0.96, 0.154, 192.0, 0.0, 0.0, 0.0, 0.0, 0.0, 0.0, 0.0, 0.0, 0.0, 1.6878045824735858E9, 0.0, 2023-06-26 13:36:22.473
147.0, 54183.33312074341, 50032.167140503785, 17220.3650737244, -29256.220669295868, -449.0465461071189, -16754.80058846481, 20392.211722399203, 6627.895728098837, 0.004, 0.96, 0.154, 192.0, 0.0, 0.0, 0.0, 0.0, 0.0, 0.0, 0.0, 0.0, 0.0, 1.6878045824765947E9, 0.0, 2023-06-26 13:36:22.476
