%OpenBCI Raw EEG Data
%Number of channels = 8
%Sample Rate = 250 Hz
%Board = OpenBCI_GUI$BoardCytonSerial
Sample Index, EXG Channel 0, EXG Channel 1, EXG Channel 2, EXG Channel 3, EXG Channel 4, EXG Channel 5, EXG Channel 6, EXG Channel 7, Accel Channel 0, Accel Channel 1, Accel Channel 2, Other, Other, Other, Other, Other, Other, Other, Analog Channel 0, Analog Channel 1, Analog Channel 2, Timestamp, Other, Timestamp (Formatted)
80.0, 53704.223478343905, 49877.940103762165, 17114.73072942862, -29314.066983946203, -1110.1217401172805, -16799.2135046975, 20321.624913409345, 6340.6534601036865, 0.0, 0.0, 0.0, 192.0, 0.0, 0.0, 0.0, 0.0, 0.0, 0.0, 0.0, 0.0, 0.0, 1.6878046280981176E9, 0.0, 2023-06-26 13:37:08.098
81.0, 53709.610248757635, 49919.55905193795, 17292.3823943594, -29081.832359055563, -1113.9885919080486, -16607.837868671166, 20490.604101491466, 6580.264160664578, 0.0, 0.0, 0.0, 192.0, 0.0, 0.0, 0.0, 0.0, 0.0, 0.0, 0.0, 0.0, 0.0, 1.6878046280981464E9, 0.0, 2023-06-26 13:37:08.098
82.0, 53758.24764469238, 49982.546267813006, 17388.561950750583, -29010.172666331848, -909.9171650310952, -16508.909047711975, 20605.469716247288, 6648.593443464451, -0.03, 0.966, 0.20800000000000002, 192.0, 255.0, 16.0, 30.0, 48.0, 6.0, 128.0, 0.0, 0.0, 0.0, 1.6878046280981634E9, 0.0, 2023-06-26 13:37:08.098
83.0, 53759.27582493733, 49947.789305185, 17226.37769298288, -29231.03025329474, -886.0455019528273, -16688.21474173245, 20445.945316069763, 6421.678533754174, -0.03, 0.966, 0.20800000000000002, 192.0, 0.0, 0.0, 0.0, 0.0, 0.0, 0.0, 0.0, 0.0, 0.0, 1.687804628098183E9, 0.0, 2023-06-26 13:37:08.098
84.0, 53707.86681269012, 49879.08004272939, 17106.77350840253, -29330.428460887488, -1087.658236939697, -16807.863629801708, 20310.672558626244, 6323.777893039929, -0.03, 0.966, 0.20800000000000002, 192.0, 0.0, 0.0, 0.0, 0.0, 0.0, 0.0, 0.0, 0.0, 0.0, 1.6878046280982E9, 0.0, 2023-06-26 13:37:08.098
85.0, 53694.09813810565, 49899.911868561736, 17249.020010116103, -29124.077156076095, -1147.0915254463584, -16649.18859591348, 20450.013333560626, 6533.571366497442, -0.03, 0.966, 0.20800000000000002, 192.0, 0.0, 0.0, 0.0, 0.0, 0.0, 0.0, 0.0, 0.0, 0.0, 1.6878046280982172E9, 0.0, 2023-06-26 13:37:08.098
86.0, 53745.08246720821, 49975.84074447641, 17391.57943625205, -28989.11732305495, -949.792677139363, -16501.197695874893, 20601.89343713444, 6665.0219756391025, -0.03, 0.966, 0.20800000000000002, 192.0, 0.0, 0.0, 0.0, 0.0, 0.0, 0.0, 0.0, 0.0, 0.0, 1.6878046280982332E9, 0.0, 2023-06-26 13:37:08.098
87.0, 53763.3885459171, 49966.251846105086, 17271.438809804775, -29172.893365966484, -864.4984202979113, -16638.10213066365, 20490.492342769187, 6473.936912290682, -0.03, 0.966, 0.20800000000000002, 192.0, 0.0, 0.0, 0.0, 0.0, 0.0, 0.0, 0.0, 0.0, 0.0, 1.687804628098245E9, 0.0, 2023-06-26 13:37:08.098
88.0, 53734.130112425104, 49910.21602275563, 17135.0931686274, -29307.7190885209, -1031.5777101013316, -16781.667385300087, 20345.630686954344, 6335.713724579064, -0.03, 0.966, 0.20800000000000002, 192.0, 0.0, 0.0, 0.0, 0.0, 0.0, 0.0, 0.0, 0.0, 0.0, 1.6878046280982556E9, 0.0, 2023-06-26 13:37:08.098
89.0, 53706.63746674508, 49907.71262737663, 17237.240640788157, -29142.4279382739, -1140.2965951319452, -16662.510235608846, 20430.410853673322, 6504.044712071981, -0.03, 0.966, 0.20800000000000002, 192.0, 0.0, 0.0, 0.0, 0.0, 0.0, 0.0, 0.0, 0.0, 0.0, 1.6878046280982664E9, 0.0, 2023-06-26 13:37:08.098
90.0, 53741.483836350904, 49972.33152059693, 17401.280093345653, -28971.68296237981, -975.0948518627706, -16489.55243701368, 20601.513457478697, 6675.259074599633, -0.03, 0.966, 0.20800000000000002, 192.0, 0.0, 0.0, 0.0, 0.0, 0.0, 0.0, 0.0, 0.0, 0.0, 1.6878046280982769E9, 0.0, 2023-06-26 13:37:08.098
91.0, 53764.416726162046, 49973.158535141774, 17312.744833558183, -29124.43478398738, -856.831771949741, -16597.71252843291, 20522.902372229382, 6517.411055256254, -0.03, 0.966, 0.20800000000000002, 192.0, 0.0, 0.0, 0.0, 0.0, 0.0, 0.0, 0.0, 0.0, 0.0, 1.6878046280982873E9, 0.0, 2023-06-26 13:37:08.098
92.0, 53722.887184964085, 49897.92256330521, 17129.169956346745, -29324.728766051387, -1016.7361517830077, -16797.76064130791, 20330.230335024637, 6315.217174913547, -0.03, 0.966, 0.20600000000000002, 192.0, 255.0, 16.0, 30.0, 48.0, 6.0, 112.0, 0.0, 0.0, 0.0, 1.6878046280982976E9, 0.0, 2023-06-26 13:37:08.098
93.0, 53689.6724927035, 49883.63979859827, 17190.301977432013, -29202.86705528105, -1161.6648628312187, -16726.369169517657, 20380.119428648883, 6439.582281062875, -0.03, 0.966, 0.20600000000000002, 192.0, 0.0, 0.0, 0.0, 0.0, 0.0, 0.0, 0.0, 0.0, 0.0, 1.6878046280983088E9, 0.0, 2023-06-26 13:37:08.098
94.0, 53727.06696117723, 49954.427773288226, 17385.2538925712, -28983.30586949657, -1015.6185645602424, -16514.005245447785, 20580.569872924076, 6662.898559915849, -0.03, 0.966, 0.20600000000000002, 192.0, 0.0, 0.0, 0.0, 0.0, 0.0, 0.0, 0.0, 0.0, 0.0, 1.6878046280983207E9, 0.0, 2023-06-26 13:37:08.098
95.0, 53769.088240753204, 49980.95929395668, 17355.302555001086, -29073.42810314037, -847.6228532341544, -16557.300574457717, 20561.906166303896, 6570.407041359787, -0.03, 0.966, 0.20600000000000002, 192.0, 0.0, 0.0, 0.0, 0.0, 0.0, 0.0, 0.0, 0.0, 0.0, 1.687804628098331E9, 0.0, 2023-06-26 13:37:08.098
96.0, 53742.06498170674, 49916.250993758564, 17159.233052639134, -29302.37702159608, -964.7012906910528, -16771.87732122866, 20373.682126245752, 6339.535872880921, -0.03, 0.966, 0.20600000000000002, 192.0, 0.0, 0.0, 0.0, 0.0, 0.0, 0.0, 0.0, 0.0, 0.0, 1.6878046280985014E9, 0.0, 2023-06-26 13:37:08.098
97.0, 53699.41785328602, 49884.243295698565, 17167.324384131956, -29238.27221849826, -1147.046821957448, -16752.54306227482, 20364.85318718591, 6407.641638236241, -0.03, 0.966, 0.20600000000000002, 192.0, 0.0, 0.0, 0.0, 0.0, 0.0, 0.0, 0.0, 0.0, 0.0, 1.6878046280985136E9, 0.0, 2023-06-26 13:37:08.098
98.0, 53715.22053661592, 49937.32868877992, 17353.20149102229, -29015.067698367562, -1065.7758791179513, -16550.393885421025, 20545.008247495683, 6633.438960723754, -0.03, 0.966, 0.20600000000000002, 192.0, 0.0, 0.0, 0.0, 0.0, 0.0, 0.0, 0.0, 0.0, 0.0, 1.6878046280985246E9, 0.0, 2023-06-26 13:37:08.098
99.0, 53750.64805157758, 49966.855343205374, 17357.984764335724, -29060.955829734306, -884.7043972855089, -16554.104275000605, 20569.55046290761, 6584.332178155444, -0.03, 0.966, 0.20600000000000002, 192.0, 0.0, 0.0, 0.0, 0.0, 0.0, 0.0, 0.0, 0.0, 0.0, 1.6878046280985353E9, 0.0, 2023-06-26 13:37:08.098
100.0, 53745.618909075136, 49920.92250834972, 17176.26508191408, -29287.915442933496, -938.8403223562625, -16754.442960553522, 20392.636405543853, 6354.846817832807, -0.03, 0.966, 0.20600000000000002, 192.0, 0.0, 0.0, 0.0, 0.0, 0.0, 0.0, 0.0, 0.0, 0.0, 1.687804628098546E9, 0.0, 2023-06-26 13:37:08.098
101.0, 53694.83574567267, 49870.0722897139, 17134.2438023381, -29285.99319291034, -1137.1226474192915, -16790.496324359934, 20335.68416067173, 6360.166533013169, -0.03, 0.966, 0.20600000000000002, 192.0, 0.0, 0.0, 0.0, 0.0, 0.0, 0.0, 0.0, 0.0, 0.0, 1.6878046280985565E9, 0.0, 2023-06-26 13:37:08.098
102.0, 53705.38576905558, 49918.62027867082, 17325.015941264148, -29044.46024232629, -1093.6708561981745, -16579.205284023916, 20519.68372102782, 6609.4331871787535, -0.024, 0.966, 0.21, 192.0, 255.0, 64.0, 30.0, 48.0, 6.0, 144.0, 0.0, 0.0, 0.0, 1.68780462809857E9, 0.0, 2023-06-26 13:37:08.098
103.0, 53754.559606857256, 49973.292645608504, 17390.841828685025, -29014.575959989546, -883.8103275072966, -16513.98289370333, 20600.284111533656, 6635.852949124926, -0.024, 0.966, 0.21, 192.0, 0.0, 0.0, 0.0, 0.0, 0.0, 0.0, 0.0, 0.0, 0.0, 1.6878046280985816E9, 0.0, 2023-06-26 13:37:08.098
104.0, 53750.78216204431, 49932.07602883292, 17213.324274220977, -29245.536535446234, -896.9308015025618, -16713.047529822295, 20428.175679227792, 6398.544478242931, -0.024, 0.966, 0.21, 192.0, 0.0, 0.0, 0.0, 0.0, 0.0, 0.0, 0.0, 0.0, 0.0, 1.687804628098592E9, 0.0, 2023-06-26 13:37:08.098
105.0, 53698.03204512979, 49868.239446668566, 17124.297276055488, -29302.17585589598, -1107.9983243940264, -16801.22516169848, 20330.25268676909, 6341.949861282094, -0.024, 0.966, 0.21, 192.0, 0.0, 0.0, 0.0, 0.0, 0.0, 0.0, 0.0, 0.0, 0.0, 1.6878046280986023E9, 0.0, 2023-06-26 13:37:08.098
106.0, 53697.093271862665, 49902.750540107554, 17287.733231512695, -29077.69728633133, -1125.5667955358977, -16618.164374609518, 20486.91606365634, 6570.451744848699, -0.024, 0.966, 0.21, 192.0, 0.0, 0.0, 0.0, 0.0, 0.0, 0.0, 0.0, 0.0, 0.0, 1.6878046280986128E9, 0.0, 2023-06-26 13:37:08.098
0.0, 0.0, 0.0, 0.0, 0.0, 0.0, 0.0, 0.0, 0.0, 0.02, 0.972, 0.182, 192.0, 0.0, 160.0, 30.0, 96.0, 5.0, 176.0, 0.0, 0.0, 0.0, 1.6878046281732273E9, 0.0, 2023-06-26 13:37:08.173
1.0, 53200.34810308792, 49984.66968353626, 21397.61553974337, -28275.202605152444, -2060.339100401294, -16368.540092532647, 21104.494762956474, 6318.301715648379, 0.02, 0.972, 0.182, 192.0, 0.0, 0.0, 0.0, 0.0, 0.0, 0.0, 0.0, 0.0, 0.0, 1.6878046281853232E9, 0.0, 2023-06-26 13:37:08.185
2.0, 53170.75439342909, 49907.82438609891, 21232.279686007463, -28492.327450791294, -2185.7770902844777, -16555.13245524555, 20915.37665312012, 6099.8134135977525, 0.02, 0.972, 0.182, 192.0, 0.0, 0.0, 0.0, 0.0, 0.0, 0.0, 0.0, 0.0, 0.0, 1.687804628190286E9, 0.0, 2023-06-26 13:37:08.190
3.0, 53131.884709821315, 49885.0256067545, 21196.695708834613, -28428.021481993375, -2356.7455836231215, -16522.253039151794, 20902.166772147033, 6171.182533643549, 0.02, 0.972, 0.182, 192.0, 0.0, 0.0, 0.0, 0.0, 0.0, 0.0, 0.0, 0.0, 0.0, 1.6878046281943302E9, 0.0, 2023-06-26 13:37:08.194
4.0, 53152.53772169802, 49952.28200582052, 21330.47089939963, -28216.81984863518, -2257.4591347526475, -16324.171879788862, 21089.16146626013, 6401.517260255488, 0.02, 0.972, 0.182, 192.0, 0.0, 0.0, 0.0, 0.0, 0.0, 0.0, 0.0, 0.0, 0.0, 1.6878046281983547E9, 0.0, 2023-06-26 13:37:08.198
5.0, 53202.71738800018, 50000.04768372151, 21374.369725509852, -28246.54766876074, -2085.8647925692553, -16309.12915577044, 21134.42374878213, 6372.661158163686, 0.02, 0.972, 0.182, 192.0, 0.0, 0.0, 0.0, 0.0, 0.0, 0.0, 0.0, 0.0, 0.0, 1.6878046282013671E9, 0.0, 2023-06-26 13:37:08.201
6.0, 53210.11581541489, 49964.82133445994, 21253.513843240005, -28445.25467696842, -2157.993871926531, -16517.02273094925, 20985.96346210998, 6167.472144063967, 0.02, 0.972, 0.182, 192.0, 0.0, 0.0, 0.0, 0.0, 0.0, 0.0, 0.0, 0.0, 0.0, 1.6878046282053657E9, 0.0, 2023-06-26 13:37:08.205
7.0, 53157.29864326699, 49906.68444713169, 21177.249691158497, -28450.797909593333, -2300.732112018122, -16532.244268923318, 20915.399004864576, 6163.337071339735, 0.02, 0.972, 0.182, 192.0, 0.0, 0.0, 0.0, 0.0, 0.0, 0.0, 0.0, 0.0, 0.0, 1.6878046282114053E9, 0.0, 2023-06-26 13:37:08.211
8.0, 53169.9497306287, 49954.36071805486, 21308.83441076689, -28230.29795054173, -2263.203533077661, -16331.771472903667, 21070.207186962034, 6379.053757077904, 0.038, 0.972, 0.17200000000000001, 192.0, 1.0, 48.0, 30.0, 96.0, 5.0, 96.0, 0.0, 0.0, 0.0, 1.687804628215433E9, 0.0, 2023-06-26 13:37:08.215
9.0, 53223.68332429926, 50010.59770710441, 21391.200589084696, -28202.000642061314, -2074.9794930195208, -16259.642393546392, 21147.298353588387, 6398.8797544097615, 0.038, 0.972, 0.17200000000000001, 192.0, 0.0, 0.0, 0.0, 0.0, 0.0, 0.0, 0.0, 0.0, 0.0, 1.687804628218444E9, 0.0, 2023-06-26 13:37:08.218
10.0, 53209.35585610341, 49957.154686111775, 21236.05713082041, -28439.04089200984, -2123.773351165456, -16467.82654140312, 20966.450389200498, 6157.033879403339, 0.038, 0.972, 0.17200000000000001, 192.0, 0.0, 0.0, 0.0, 0.0, 0.0, 0.0, 0.0, 0.0, 0.0, 1.6878046282234745E9, 0.0, 2023-06-26 13:37:08.223
11.0, 53172.81075391898, 49917.56974668142, 21149.466472800552, -28467.9193458461, -2325.0061064965853, -16566.241272239837, 20872.237786321377, 6112.39744572609, 0.038, 0.972, 0.17200000000000001, 192.0, 0.0, 0.0, 0.0, 0.0, 0.0, 0.0, 0.0, 0.0, 0.0, 1.687804628227502E9, 0.0, 2023-06-26 13:37:08.227
12.0, 53171.87198065186, 49952.55022675398, 21268.467160280605, -28253.968447919902, -2338.1936357252166, -16388.187275908862, 21016.227724102464, 6328.315297164357, 0.038, 0.972, 0.17200000000000001, 192.0, 0.0, 0.0, 0.0, 0.0, 0.0, 0.0, 0.0, 0.0, 0.0, 1.6878046282315004E9, 0.0, 2023-06-26 13:37:08.231
13.0, 53239.93304251826, 50033.59765214892, 21394.70981296418, -28156.984228728325, -2125.2932697884166, -16267.26433840565, 21137.798862194883, 6414.749492973029, 0.038, 0.972, 0.17200000000000001, 192.0, 0.0, 0.0, 0.0, 0.0, 0.0, 0.0, 0.0, 0.0, 0.0, 1.6878046282344997E9, 0.0, 2023-06-26 13:37:08.234
14.0, 53233.83101628197, 49990.03410220553, 21271.86462543781, -28378.020629646857, -2107.32246724635, -16449.96749758333, 20996.759354681893, 6187.834583262752, 0.038, 0.972, 0.17200000000000001, 192.0, 0.0, 0.0, 0.0, 0.0, 0.0, 0.0, 0.0, 0.0, 0.0, 1.687804628237533E9, 0.0, 2023-06-26 13:37:08.237
15.0, 53178.59985573291, 49912.004162312056, 21136.8377371833, -28492.953299636043, -2314.79135928051, -16585.91080736051, 20848.991972087857, 6062.48600035739, 0.038, 0.972, 0.17200000000000001, 192.0, 0.0, 0.0, 0.0, 0.0, 0.0, 0.0, 0.0, 0.0, 0.0, 1.687804628241554E9, 0.0, 2023-06-26 13:37:08.241
16.0, 53177.12464059886, 49941.95549988216, 21225.507107437505, -28287.384305880583, -2367.720290150677, -16446.34651498157, 20966.360982222675, 6265.9315783895945, 0.038, 0.972, 0.17200000000000001, 192.0, 0.0, 0.0, 0.0, 0.0, 0.0, 0.0, 0.0, 0.0, 0.0, 1.68780462824557E9, 0.0, 2023-06-26 13:37:08.245
17.0, 53238.770751806594, 50030.33429745845, 21377.677783689236, -28136.37592034053, -2183.407805372215, -16281.502399623681, 21131.003931880467, 6412.514318527498, 0.038, 0.972, 0.17200000000000001, 192.0, 0.0, 0.0, 0.0, 0.0, 0.0, 0.0, 0.0, 0.0, 0.0, 1.6878046282495828E9, 0.0, 2023-06-26 13:37:08.249
18.0, 53253.567606636, 50019.00196301961, 21305.63811130978, -28306.204474711954, -2097.51005143047, -16403.185296438372, 21039.138262169155, 6231.867519839707, 0.048, 0.974, 0.164, 192.0, 1.0, 128.0, 30.0, 112.0, 5.0, 32.0, 0.0, 0.0, 0.0, 1.68780462825762E9, 0.0, 2023-06-26 13:37:08.257
19.0, 53199.29757109852, 49934.66883118974, 21136.949495905577, -28474.803683138336, -2288.863335712354, -16577.193627022938, 20859.11731232611, 6066.218741681426, 0.048, 0.974, 0.164, 192.0, 0.0, 0.0, 0.0, 0.0, 0.0, 0.0, 0.0, 0.0, 0.0, 1.687804628260636E9, 0.0, 2023-06-26 13:37:08.260
20.0, 53174.42007951976, 49930.91373812124, 21180.37893538224, -28332.98186456941, -2367.116793050384, -16493.39693705999, 20929.23473468241, 6222.23391797947, 0.048, 0.974, 0.164, 192.0, 0.0, 0.0, 0.0, 0.0, 0.0, 0.0, 0.0, 0.0, 0.0, 1.6878046282636576E9, 0.0, 2023-06-26 13:37:08.263
21.0, 53228.75717029061, 50017.07971299645, 21347.905260074767, -28134.990112184303, -2181.776128026978, -16286.576245615035, 21105.768812390426, 6402.5230887559765, 0.048, 0.974, 0.164, 192.0, 0.0, 0.0, 0.0, 0.0, 0.0, 0.0, 0.0, 0.0, 0.0, 1.6878046282666616E9, 0.0, 2023-06-26 13:37:08.266
22.0, 53246.102123987934, 50016.23034670715, 21293.50111407055, -28272.922727218, -2081.863830311755, -16368.42833381037, 21058.047837978345, 6250.620633437709, 0.048, 0.974, 0.164, 192.0, 0.0, 0.0, 0.0, 0.0, 0.0, 0.0, 0.0, 0.0, 0.0, 1.6878046282706904E9, 0.0, 2023-06-26 13:37:08.270
23.0, 53207.18773689124, 49935.22762480112, 21123.85137365477, -28478.96110760702, -2253.726393428611, -16574.7125833884, 20873.824760177704, 6053.254729897348, 0.048, 0.974, 0.164, 192.0, 0.0, 0.0, 0.0, 0.0, 0.0, 0.0, 0.0, 0.0, 0.0, 1.6878046282736883E9, 0.0, 2023-06-26 13:37:08.273
24.0, 53181.32676855645, 49918.776740882015, 21132.12151910323, -28376.835987190723, -2391.882525906864, -16518.40853910548, 20895.99769067737, 6164.812286473785, 0.048, 0.974, 0.164, 192.0, 0.0, 0.0, 0.0, 0.0, 0.0, 0.0, 0.0, 0.0, 0.0, 1.687804628278729E9, 0.0, 2023-06-26 13:37:08.278
25.0, 53216.57546956247, 49991.822241761955, 21296.138619916277, -28167.131920711032, -2255.983919618597, -16314.582981417536, 21076.64448936516, 6373.4658209640775, 0.048, 0.974, 0.164, 192.0, 0.0, 0.0, 0.0, 0.0, 0.0, 0.0, 0.0, 0.0, 0.0, 1.6878046282827375E9, 0.0, 2023-06-26 13:37:08.282
26.0, 53253.45584791373, 50023.002925277106, 21304.051137453454, -28245.58654374916, -2095.118414773752, -16336.197118305818, 21079.393753933164, 6294.206535125558, 0.048, 0.974, 0.164, 192.0, 0.0, 0.0, 0.0, 0.0, 0.0, 0.0, 0.0, 0.0, 0.0, 1.6878046282867637E9, 0.0, 2023-06-26 13:37:08.286
27.0, 53232.64637382584, 49967.280026350025, 21140.27990582942, -28461.526746931882, -2205.156052727229, -16533.875946268552, 20902.434993080496, 6084.547172134778, 0.048, 0.974, 0.164, 192.0, 0.0, 0.0, 0.0, 0.0, 0.0, 0.0, 0.0, 0.0, 0.0, 1.687804628290795E9, 0.0, 2023-06-26 13:37:08.290
28.0, 53173.07897485244, 49916.00512456955, 21085.473428425008, -28429.20612444951, -2380.2596187901045, -16545.096521985117, 20864.593489717663, 6117.225422528437, 0.05, 0.97, 0.166, 192.0, 1.0, 144.0, 30.0, 80.0, 5.0, 48.0, 0.0, 0.0, 0.0, 1.687804628293792E9, 0.0, 2023-06-26 13:37:08.293
29.0, 53192.077957639456, 49973.0467764195, 21234.44780521963, -28208.750868886815, -2301.2014986516833, -16329.737464158234, 21040.412311603108, 6343.849759560795, 0.05, 0.97, 0.166, 192.0, 0.0, 0.0, 0.0, 0.0, 0.0, 0.0, 0.0, 0.0, 0.0, 1.6878046282988138E9, 0.0, 2023-06-26 13:37:08.298
30.0, 53240.60359485193, 50019.98543977564, 21287.98023319009, -28223.592427205138, -2104.9755340785428, -16296.723937597746, 21096.336376230287, 6331.221023943547, 0.05, 0.97, 0.166, 192.0, 0.0, 0.0, 0.0, 0.0, 0.0, 0.0, 0.0, 0.0, 0.0, 1.687804628303842E9, 0.0, 2023-06-26 13:37:08.303
31.0, 53230.74647554714, 49962.49675303659, 21146.448987299085, -28451.043778782343, -2177.6857587916566, -16514.675797781445, 20918.81882176624, 6087.452898913968, 0.05, 0.97, 0.166, 192.0, 0.0, 0.0, 0.0, 0.0, 0.0, 0.0, 0.0, 0.0, 0.0, 1.6878046283078673E9, 0.0, 2023-06-26 13:37:08.307
32.0, 53179.22570457765, 49911.04303730048, 21066.273279937897, -28466.421778967593, -2377.2644850330935, -16574.466714199392, 20848.07555056519, 6075.651177841566, 0.05, 0.97, 0.166, 192.0, 0.0, 0.0, 0.0, 0.0, 0.0, 0.0, 0.0, 0.0, 0.0, 1.6878046283118956E9, 0.0, 2023-06-26 13:37:08.311
33.0, 53197.33061758645, 49968.50937229507, 21206.28460720594, -28233.203677320922, -2330.07995248794, -16368.249519854728, 21020.049872404325, 6319.39695112669, 0.05, 0.97, 0.166, 192.0, 0.0, 0.0, 0.0, 0.0, 0.0, 0.0, 0.0, 0.0, 0.0, 1.6878046283149428E9, 0.0, 2023-06-26 13:37:08.314
34.0, 53243.59872860894, 50022.153558987804, 21292.361175103328, -28195.92096756947, -2125.963822122076, -16288.833771805022, 21107.199324035566, 6358.244282990013, 0.05, 0.97, 0.166, 192.0, 0.0, 0.0, 0.0, 0.0, 0.0, 0.0, 0.0, 0.0, 0.0, 1.6878046283179216E9, 0.0, 2023-06-26 13:37:08.317
35.0, 53232.132283703366, 49974.56669504246, 21166.18557765312, -28418.320824899773, -2135.865644915777, -16470.754619926767, 20967.970307823456, 6130.100027334694, 0.05, 0.97, 0.166, 192.0, 0.0, 0.0, 0.0, 0.0, 0.0, 0.0, 0.0, 0.0, 0.0, 1.6878046283219683E9, 0.0, 2023-06-26 13:37:08.321
36.0, 53172.497829496606, 49902.23644998508, 21041.820471503794, -28500.463485773027, -2351.1576475092947, -16580.456981713414, 20840.721826639394, 6051.176017663004, 0.05, 0.97, 0.166, 192.0, 0.0, 0.0, 0.0, 0.0, 0.0, 0.0, 0.0, 0.0, 0.0, 1.6878046283259563E9, 0.0, 2023-06-26 13:37:08.325
37.0, 53178.353986543894, 49937.75337192457, 21158.80950198287, -28278.823587754203, -2368.2343802731493, -16408.750880807744, 20973.42413347055, 6273.374709293212, 0.05, 0.97, 0.166, 192.0, 0.0, 0.0, 0.0, 0.0, 0.0, 0.0, 0.0, 0.0, 0.0, 1.6878046283299744E9, 0.0, 2023-06-26 13:37:08.329
38.0, 53234.233347682166, 50012.721122827665, 21293.903445470747, -28163.957972998378, -2152.4953427905252, -16271.488818107704, 21127.114728345245, 6387.234495548546, 0.05, 0.97, 0.166, 192.0, 0.0, 0.0, 0.0, 0.0, 0.0, 0.0, 0.0, 0.0, 0.0, 1.6878046283340127E9, 0.0, 2023-06-26 13:37:08.334
39.0, 53249.72310658969, 49999.46653836567, 21198.237979202033, -28358.976943370933, -2106.830728868333, -16421.558430380635, 21019.982817170956, 6187.655769307109, 0.052000000000000005, 0.974, 0.166, 192.0, 1.0, 160.0, 30.0, 112.0, 5.0, 48.0, 0.0, 0.0, 0.0, 1.687804628338024E9, 0.0, 2023-06-26 13:37:08.338
40.0, 53206.00309443511, 49932.14308406629, 21064.820416548304, -28477.48589247297, -2306.5882690654125, -16567.85059784062, 20871.0754956097, 6061.4801718569015, 0.052000000000000005, 0.974, 0.166, 192.0, 0.0, 0.0, 0.0, 0.0, 0.0, 0.0, 0.0, 0.0, 0.0, 1.6878046283420382E9, 0.0, 2023-06-26 13:37:08.342
41.0, 53185.774765703056, 49941.150837081776, 21129.863992913248, -28298.627233341605, -2372.235342530649, -16446.614735915035, 20965.109284533177, 6243.401019978645, 0.052000000000000005, 0.974, 0.166, 192.0, 0.0, 0.0, 0.0, 0.0, 0.0, 0.0, 0.0, 0.0, 0.0, 1.6878046283450456E9, 0.0, 2023-06-26 13:37:08.345
42.0, 53229.472426113185, 50014.84453855092, 21276.44673305115, -28147.95412396838, -2184.3242268948825, -16288.811420060567, 21127.36059753425, 6390.095518838825, 0.052000000000000005, 0.974, 0.166, 192.0, 0.0, 0.0, 0.0, 0.0, 0.0, 0.0, 0.0, 0.0, 0.0, 1.6878046283491504E9, 0.0, 2023-06-26 13:37:08.349
43.0, 53238.48017912867, 50000.51707035507, 21204.8540955608, -28316.151000994567, -2112.061037070875, -16363.890929685944, 21032.432738832562, 6210.275734695881, 0.052000000000000005, 0.974, 0.166, 192.0, 0.0, 0.0, 0.0, 0.0, 0.0, 0.0, 0.0, 0.0, 0.0, 1.6878046283541207E9, 0.0, 2023-06-26 13:37:08.354
44.0, 53207.54536480253, 49938.11099983585, 21060.79710254635, -28475.87656687219, -2260.297806298471, -16520.710768784378, 20859.966678615416, 6046.5715583052115, 0.052000000000000005, 0.974, 0.166, 192.0, 0.0, 0.0, 0.0, 0.0, 0.0, 0.0, 0.0, 0.0, 0.0, 1.6878046283581135E9, 0.0, 2023-06-26 13:37:08.358
45.0, 53189.842783193926, 49931.137255565794, 21092.581283161795, -28337.295751249287, -2385.4899269926464, -16471.40282051597, 20914.974321719925, 6188.303969896313, 0.052000000000000005, 0.974, 0.166, 192.0, 0.0, 0.0, 0.0, 0.0, 0.0, 0.0, 0.0, 0.0, 0.0, 1.6878046283621228E9, 0.0, 2023-06-26 13:37:08.362
46.0, 53233.09340871494, 50004.048645979005, 21251.77040717249, -28150.546926325194, -2235.174445530706, -16297.305082953584, 21094.74940237396, 6380.931303612149, 0.052000000000000005, 0.974, 0.166, 192.0, 0.0, 0.0, 0.0, 0.0, 0.0, 0.0, 0.0, 0.0, 0.0, 1.6878046283661695E9, 0.0, 2023-06-26 13:37:08.366
47.0, 53266.77748760909, 50024.29932645552, 21233.173755785676, -28258.997590422347, -2106.0707695568526, -16345.227223065762, 21071.50358814044, 6266.915055145629, 0.052000000000000005, 0.974, 0.166, 192.0, 0.0, 0.0, 0.0, 0.0, 0.0, 0.0, 0.0, 0.0, 0.0, 1.6878046283691716E9, 0.0, 2023-06-26 13:37:08.369
48.0, 53229.13714994636, 49954.69599422169, 21064.59689910375, -28460.744435875946, -2246.1044485693515, -16542.056684739196, 20889.292167340776, 6057.322747388214, 0.052000000000000005, 0.974, 0.166, 192.0, 0.0, 0.0, 0.0, 0.0, 0.0, 0.0, 0.0, 0.0, 0.0, 1.6878046283732018E9, 0.0, 2023-06-26 13:37:08.373
49.0, 53201.018655421576, 49939.16153182525, 21063.88164328118, -28369.884594665124, -2393.0224648740846, -16509.691358767912, 20900.08805991269, 6151.26712933387, 0.05, 0.97, 0.168, 192.0, 1.0, 144.0, 30.0, 80.0, 5.0, 64.0, 0.0, 0.0, 0.0, 1.6878046283771987E9, 0.0, 2023-06-26 13:37:08.377
50.0, 53235.93208026077, 50009.41306464828, 21221.372034713273, -28160.426397374442, -2289.6903502572004, -16312.012530805176, 21079.527864399894, 6366.268559249468, 0.05, 0.97, 0.168, 192.0, 0.0, 0.0, 0.0, 0.0, 0.0, 0.0, 0.0, 0.0, 0.0, 1.6878046283812394E9, 0.0, 2023-06-26 13:37:08.381
51.0, 53270.80080161105, 50040.43728595225, 21240.661590178202, -28224.575903961173, -2103.9473538335983, -16319.857993108988, 21089.675556382605, 6296.776985737919, 0.05, 0.97, 0.168, 192.0, 0.0, 0.0, 0.0, 0.0, 0.0, 0.0, 0.0, 0.0, 0.0, 1.6878046283873131E9, 0.0, 2023-06-26 13:37:08.387
52.0, 53266.33045271999, 49995.06324470798, 21096.895169841668, -28435.33050243026, -2173.5059825785142, -16539.620344593568, 20916.85186825417, 6085.150669235071, 0.05, 0.97, 0.168, 192.0, 0.0, 0.0, 0.0, 0.0, 0.0, 0.0, 0.0, 0.0, 0.0, 1.6878046283902953E9, 0.0, 2023-06-26 13:37:08.390
53.0, 53214.83203349496, 49939.89913939228, 21029.16938414209, -28420.24307492293, -2387.2557148046153, -16550.79621682122, 20855.116350068613, 6096.68416937401, 0.05, 0.97, 0.168, 192.0, 0.0, 0.0, 0.0, 0.0, 0.0, 0.0, 0.0, 0.0, 0.0, 1.6878046283933008E9, 0.0, 2023-06-26 13:37:08.393
54.0, 53230.63471682486, 49994.7503202856, 21176.95911848058, -28198.469066437374, -2325.631955341334, -16350.055199868108, 21030.59989578723, 6321.676829061131, 0.05, 0.97, 0.168, 192.0, 0.0, 0.0, 0.0, 0.0, 0.0, 0.0, 0.0, 0.0, 0.0, 1.68780462839731E9, 0.0, 2023-06-26 13:37:08.397
55.0, 53274.1759150238, 50039.8114371075, 21250.25048854953, -28189.461313421885, -2124.6450691992127, -16302.13305975593, 21110.12740255921, 6332.7856460554185, 0.05, 0.97, 0.168, 192.0, 0.0, 0.0, 0.0, 0.0, 0.0, 0.0, 0.0, 0.0, 0.0, 1.6878046284013438E9, 0.0, 2023-06-26 13:37:08.401
56.0, 53258.909673560825, 49992.2022214177, 21109.07687056981, -28410.162438173586, -2181.820831515888, -16482.06460262115, 20946.177356979533, 6103.344989221691, 0.05, 0.97, 0.168, 192.0, 0.0, 0.0, 0.0, 0.0, 0.0, 0.0, 0.0, 0.0, 0.0, 1.6878046284053943E9, 0.0, 2023-06-26 13:37:08.405
57.0, 53224.55504233301, 49950.225645330625, 21027.425948074575, -28439.9126100436, -2354.443353944225, -16542.347257417114, 20856.36804775811, 6082.803736067264, 0.05, 0.97, 0.168, 192.0, 0.0, 0.0, 0.0, 0.0, 0.0, 0.0, 0.0, 0.0, 0.0, 1.687804628409357E9, 0.0, 2023-06-26 13:37:08.409
58.0, 53229.53948134655, 49990.16821267226, 21155.1438158922, -28217.66921492448, -2335.2879089460266, -16370.350583833526, 21018.39584331463, 6306.567049809343, 0.05, 0.97, 0.168, 192.0, 0.0, 0.0, 0.0, 0.0, 0.0, 0.0, 0.0, 0.0, 0.0, 1.6878046284133987E9, 0.0, 2023-06-26 13:37:08.413
59.0, 53272.052499300546, 50039.297346985026, 21247.657686192713, -28167.51190036677, -2141.095953118319, -16306.849277836, 21125.036016110902, 6353.9750997990495, 0.052000000000000005, 0.976, 0.166, 192.0, 1.0, 160.0, 30.0, 128.0, 5.0, 48.0, 0.0, 0.0, 0.0, 1.687804628418432E9, 0.0, 2023-06-26 13:37:08.418
60.0, 53276.165220280316, 50008.94367801472, 21131.607428980762, -28382.15570237109, -2140.6042147403023, -16473.481532750313, 20974.362906737675, 6131.016448857361, 0.052000000000000005, 0.976, 0.166, 192.0, 0.0, 0.0, 0.0, 0.0, 0.0, 0.0, 0.0, 0.0, 0.0, 1.687804628421439E9, 0.0, 2023-06-26 13:37:08.421
61.0, 53222.02929520956, 49938.69214519169, 21006.52706700886, -28474.602517438238, -2349.436563186236, -16585.48612421586, 20844.633381919073, 6042.458837325435, 0.052000000000000005, 0.976, 0.166, 192.0, 0.0, 0.0, 0.0, 0.0, 0.0, 0.0, 0.0, 0.0, 0.0, 1.6878046284254372E9, 0.0, 2023-06-26 13:37:08.425
62.0, 53228.19837667923, 49981.763956757066, 21119.51513523044, -28252.515584530305, -2368.1896767842386, -16391.987072466265, 20983.72828766445, 6268.703194702053, 0.052000000000000005, 0.976, 0.166, 192.0, 0.0, 0.0, 0.0, 0.0, 0.0, 0.0, 0.0, 0.0, 0.0, 1.6878046284294791E9, 0.0, 2023-06-26 13:37:08.429
63.0, 53260.988385795165, 50034.22350099367, 21234.023122074977, -28156.961876983867, -2183.5195640944917, -16275.735649554212, 21108.428669980607, 6366.089745293826, 0.052000000000000005, 0.976, 0.166, 192.0, 0.0, 0.0, 0.0, 0.0, 0.0, 0.0, 0.0, 0.0, 0.0, 1.6878046284334755E9, 0.0, 2023-06-26 13:37:08.433
64.0, 53268.766792865616, 50010.66476233778, 21145.487862287508, -28343.777757141324, -2120.0853133303303, -16439.193956755873, 20996.401726770608, 6165.5051905519, 0.052000000000000005, 0.976, 0.166, 192.0, 0.0, 0.0, 0.0, 0.0, 0.0, 0.0, 0.0, 0.0, 0.0, 1.687804628437508E9, 0.0, 2023-06-26 13:37:08.437
65.0, 53227.68428655676, 49947.90106390728, 21007.01880538688, -28467.092331301254, -2298.273420128038, -16578.04299331224, 20855.429274490987, 6045.610433293633, 0.052000000000000005, 0.976, 0.166, 192.0, 0.0, 0.0, 0.0, 0.0, 0.0, 0.0, 0.0, 0.0, 0.0, 1.6878046284415092E9, 0.0, 2023-06-26 13:37:08.441
66.0, 53200.48221355465, 49950.62797673082, 21051.677590808584, -28310.85363755866, -2389.982627628163, -16458.863491876542, 20934.42033939604, 6210.700417840531, 0.052000000000000005, 0.976, 0.166, 192.0, 0.0, 0.0, 0.0, 0.0, 0.0, 0.0, 0.0, 0.0, 0.0, 1.687804628446561E9, 0.0, 2023-06-26 13:37:08.446
67.0, 53250.1701414788, 50029.55198640251, 21209.704424107604, -28142.209725643366, -2208.8440905623547, -16261.475236591727, 21099.59973092076, 6376.6397686767305, 0.052000000000000005, 0.976, 0.166, 192.0, 0.0, 0.0, 0.0, 0.0, 0.0, 0.0, 0.0, 0.0, 0.0, 1.6878046284495792E9, 0.0, 2023-06-26 13:37:08.449
68.0, 53264.005871296635, 50016.58797461844, 21157.535452548917, -28302.22586419891, -2123.3710197652604, -16384.09690667354, 21034.0644161778, 6214.075531253283, 0.052000000000000005, 0.976, 0.166, 192.0, 0.0, 0.0, 0.0, 0.0, 0.0, 0.0, 0.0, 0.0, 0.0, 1.6878046284525983E9, 0.0, 2023-06-26 13:37:08.452
69.0, 53234.6133273379, 49951.18677034221, 21004.470706518976, -28478.625831440193, -2274.535867516502, -16568.923481574475, 20868.59445197516, 6038.681392512488, 0.048, 0.974, 0.164, 192.0, 1.0, 128.0, 30.0, 112.0, 5.0, 32.0, 0.0, 0.0, 0.0, 1.6878046284576173E9, 0.0, 2023-06-26 13:37:08.457
70.0, 53214.54146081704, 49950.91854940874, 21034.48909932245, -28341.83315537371, -2398.1633660988055, -16490.424155047436, 20905.765403004338, 6169.439097576034, 0.048, 0.974, 0.164, 192.0, 0.0, 0.0, 0.0, 0.0, 0.0, 0.0, 0.0, 0.0, 0.0, 1.6878046284616463E9, 0.0, 2023-06-26 13:37:08.461
71.0, 53253.366440935904, 50024.14286424433, 21195.131086722744, -28145.31661812265, -2250.0383555934854, -16286.397431659394, 21100.762021632436, 6375.477477965054, 0.048, 0.974, 0.164, 192.0, 0.0, 0.0, 0.0, 0.0, 0.0, 0.0, 0.0, 0.0, 0.0, 1.6878046284666677E9, 0.0, 2023-06-26 13:37:08.466
72.0, 53292.21377279923, 50051.389640735346, 21195.06403148938, -28232.331959287163, -2105.5343276899252, -16324.909487355888, 21090.502570927452, 6278.895590173673, 0.048, 0.974, 0.164, 192.0, 0.0, 0.0, 0.0, 0.0, 0.0, 0.0, 0.0, 0.0, 0.0, 1.687804628470676E9, 0.0, 2023-06-26 13:37:08.470
73.0, 53252.472371157695, 49977.94180845521, 21020.3627968267, -28448.1157002587, -2240.8741403668096, -16540.380303905047, 20900.400984335065, 6061.614282323633, 0.048, 0.974, 0.164, 192.0, 0.0, 0.0, 0.0, 0.0, 0.0, 0.0, 0.0, 0.0, 0.0, 1.6878046284757102E9, 0.0, 2023-06-26 13:37:08.475
74.0, 53219.615306808395, 49955.41125004426, 21015.40070955762, -28375.293716823307, -2356.5444179230235, -16506.964445944363, 20897.070574411224, 6146.975594398451, 0.048, 0.974, 0.164, 192.0, 0.0, 0.0, 0.0, 0.0, 0.0, 0.0, 0.0, 0.0, 0.0, 1.6878046284787056E9, 0.0, 2023-06-26 13:37:08.478
75.0, 53243.62108035339, 50016.632678107344, 21171.035906199922, -28158.928830495934, -2273.932370416209, -16304.859972579477, 21068.486102638974, 6352.410477687178, 0.048, 0.974, 0.164, 192.0, 0.0, 0.0, 0.0, 0.0, 0.0, 0.0, 0.0, 0.0, 0.0, 1.6878046284817283E9, 0.0, 2023-06-26 13:37:08.481
76.0, 53292.90667687735, 50064.398356008336, 21215.359415454797, -28188.746057599314, -2104.997885822998, -16299.160277743375, 21115.17889680611, 6320.514538349455, 0.048, 0.974, 0.164, 192.0, 0.0, 0.0, 0.0, 0.0, 0.0, 0.0, 0.0, 0.0, 0.0, 1.6878046284857519E9, 0.0, 2023-06-26 13:37:08.485
77.0, 53265.905769575336, 49997.74545404261, 21048.034256462368, -28422.8582290242, -2195.3659886558044, -16517.82739374964, 20934.710912073962, 6089.419852426035, 0.048, 0.974, 0.164, 192.0, 0.0, 0.0, 0.0, 0.0, 0.0, 0.0, 0.0, 0.0, 0.0, 1.6878046284897637E9, 0.0, 2023-06-26 13:37:08.489
78.0, 53223.929193488264, 49950.292700563994, 21001.721441950973, -28412.19644691902, -2361.0371185585404, -16527.93038224344, 20870.89668165406, 6096.840631585197, 0.048, 0.974, 0.164, 192.0, 0.0, 0.0, 0.0, 0.0, 0.0, 0.0, 0.0, 0.0, 0.0, 1.6878046284937823E9, 0.0, 2023-06-26 13:37:08.493
79.0, 53245.18570246526, 50008.63075359235, 21151.52283329044, -28186.265013964778, -2311.013914467563, -16337.538222973137, 21044.100349438235, 6334.573785611843, 0.048, 0.974, 0.164, 192.0, 0.0, 0.0, 0.0, 0.0, 0.0, 0.0, 0.0, 0.0, 0.0, 1.6878046284978023E9, 0.0, 2023-06-26 13:37:08.497
80.0, 53285.575304696, 50055.927044859774, 21217.460479433594, -28173.815092303168, -2123.4380749986262, -16287.403260159883, 21122.46556549854, 6343.894463049706, 0.048, 0.976, 0.166, 192.0, 1.0, 128.0, 30.0, 128.0, 5.0, 48.0, 0.0, 0.0, 0.0, 1.6878046285018265E9, 0.0, 2023-06-26 13:37:08.501
81.0, 53277.61808366991, 50012.8552332944, 21080.578396389294, -28388.771818729856, -2154.99873816952, -16470.01701235974, 20960.393066453107, 6115.727855649931, 0.048, 0.976, 0.166, 192.0, 0.0, 0.0, 0.0, 0.0, 0.0, 0.0, 0.0, 0.0, 0.0, 1.687804628504843E9, 0.0, 2023-06-26 13:37:08.504
82.0, 53222.69984754323, 49940.03324985901, 20975.011107326878, -28453.8153950948, -2364.769859882577, -16578.355917734614, 20844.54397494125, 6051.488942085379, 0.048, 0.976, 0.166, 192.0, 0.0, 0.0, 0.0, 0.0, 0.0, 0.0, 0.0, 0.0, 0.0, 1.6878046285088649E9, 0.0, 2023-06-26 13:37:08.508
83.0, 53238.904862273324, 49995.77850053054, 21106.46171646854, -28224.978235361366, -2353.1246010213617, -16383.426354339881, 21004.023671629868, 6287.746880977975, 0.048, 0.976, 0.166, 192.0, 0.0, 0.0, 0.0, 0.0, 0.0, 0.0, 0.0, 0.0, 0.0, 1.6878046285128536E9, 0.0, 2023-06-26 13:37:08.512
84.0, 53294.337188522484, 50067.43819325426, 21226.579991171362, -28141.203897142877, -2139.821903684366, -16264.202149415274, 21141.464548285552, 6374.4045942312, 0.048, 0.976, 0.166, 192.0, 0.0, 0.0, 0.0, 0.0, 0.0, 0.0, 0.0, 0.0, 0.0, 1.687804628516915E9, 0.0, 2023-06-26 13:37:08.516
85.0, 53289.82213614251, 50027.11564625688, 21111.624969437715, -28354.394835757597, -2142.325299063361, -16445.094817292073, 20999.709784949995, 6154.955167168995, 0.048, 0.976, 0.166, 192.0, 0.0, 0.0, 0.0, 0.0, 0.0, 0.0, 0.0, 0.0, 0.0, 1.6878046285219254E9, 0.0, 2023-06-26 13:37:08.521
86.0, 53244.89512978734, 49963.68139549272, 20991.618453457173, -28441.14195598864, -2318.9040802602867, -16538.882737026543, 20863.967640872914, 6054.059392697739, 0.048, 0.976, 0.166, 192.0, 0.0, 0.0, 0.0, 0.0, 0.0, 0.0, 0.0, 0.0, 0.0, 1.687804628525952E9, 0.0, 2023-06-26 13:37:08.525
87.0, 53222.58808882095, 49969.98458742912, 21064.194567703555, -28258.572907277696, -2376.571580954979, -16411.00840699773, 20963.119979276657, 6243.266909511914, 0.048, 0.976, 0.166, 192.0, 0.0, 0.0, 0.0, 0.0, 0.0, 0.0, 0.0, 0.0, 0.0, 1.6878046285299642E9, 0.0, 2023-06-26 13:37:08.529
88.0, 53270.55493242204, 50038.7609051181, 21197.545075123915, -28135.95123719588, -2188.369892641293, -16285.302196181083, 21104.80768737885, 6362.871094092262, 0.048, 0.976, 0.166, 192.0, 0.0, 0.0, 0.0, 0.0, 0.0, 0.0, 0.0, 0.0, 0.0, 1.6878046285329833E9, 0.0, 2023-06-26 13:37:08.532
89.0, 53307.32355205102, 50044.70646914321, 21148.75121697798, -28296.816742040726, -2096.124243274241, -16412.86360178752, 21037.506584823917, 6205.358350915712, 0.048, 0.976, 0.166, 192.0, 0.0, 0.0, 0.0, 0.0, 0.0, 0.0, 0.0, 0.0, 0.0, 1.6878046285390098E9, 0.0, 2023-06-26 13:37:08.539
90.0, 53255.53456014807, 49969.6940147512, 20991.082011590246, -28451.58022064927, -2274.8040884499655, -16555.355972690104, 20872.684821210485, 6052.047735696761, 0.05, 0.974, 0.166, 192.0, 1.0, 144.0, 30.0, 112.0, 5.0, 48.0, 0.0, 0.0, 0.0, 1.6878046285430305E9, 0.0, 2023-06-26 13:37:08.543
91.0, 53227.34901038993, 49973.158535141774, 21032.1645178991, -28299.856579286647, -2384.305284536515, -16425.268819960216, 20934.42033939604, 6207.660580594609, 0.05, 0.974, 0.166, 192.0, 0.0, 0.0, 0.0, 0.0, 0.0, 0.0, 0.0, 0.0, 0.0, 1.6878046285460417E9, 0.0, 2023-06-26 13:37:08.546
92.0, 53267.80566785404, 50042.98538482015, 21182.390592383217, -28124.395385312488, -2231.7546286290444, -16255.328506866517, 21101.32081524382, 6379.701957667107, 0.05, 0.974, 0.166, 192.0, 0.0, 0.0, 0.0, 0.0, 0.0, 0.0, 0.0, 0.0, 0.0, 1.6878046285501916E9, 0.0, 2023-06-26 13:37:08.550
93.0, 53309.04463637408, 50053.066021569495, 21160.374124094742, -28248.715787972902, -2105.7578451344784, -16346.791845177633, 21076.353916687243, 6250.240653781969, 0.05, 0.974, 0.166, 192.0, 0.0, 0.0, 0.0, 0.0, 0.0, 0.0, 0.0, 0.0, 0.0, 1.687804628555124E9, 0.0, 2023-06-26 13:37:08.555
94.0, 53272.812458612025, 49980.48990732311, 21003.330767551754, -28433.497659384928, -2239.6224426773124, -16532.154861945495, 20913.722624030426, 6061.524875345812, 0.05, 0.974, 0.166, 192.0, 0.0, 0.0, 0.0, 0.0, 0.0, 0.0, 0.0, 0.0, 0.0, 1.687804628558113E9, 0.0, 2023-06-26 13:37:08.558
95.0, 53218.65418179682, 49944.81652317244, 20998.256921560398, -28346.839946131702, -2393.3577410409143, -16493.21812310435, 20915.04137695329, 6158.93377768204, 0.05, 0.974, 0.166, 192.0, 0.0, 0.0, 0.0, 0.0, 0.0, 0.0, 0.0, 0.0, 0.0, 1.6878046285611136E9, 0.0, 2023-06-26 13:37:08.561
96.0, 53259.82609508349, 50027.87560556836, 21164.75506600798, -28135.012463928757, -2250.217169549128, -16285.07867873653, 21097.923350086614, 6373.018786074971, 0.05, 0.974, 0.166, 192.0, 0.0, 0.0, 0.0, 0.0, 0.0, 0.0, 0.0, 0.0, 0.0, 1.6878046285651252E9, 0.0, 2023-06-26 13:37:08.565
97.0, 53298.58401996899, 50055.48000997067, 21176.28856614692, -28214.67408116747, -2100.1922607651068, -16319.030978564142, 21092.31306222833, 6286.897514688673, 0.05, 0.974, 0.166, 192.0, 0.0, 0.0, 0.0, 0.0, 0.0, 0.0, 0.0, 0.0, 0.0, 1.6878046285691195E9, 0.0, 2023-06-26 13:37:08.569
98.0, 53263.670595129806, 49982.7474335131, 21001.25205531741, -28437.364511175696, -2231.352297228849, -16530.16555668897, 20900.356280846154, 6059.088535200183, 0.05, 0.974, 0.166, 192.0, 0.0, 0.0, 0.0, 0.0, 0.0, 0.0, 0.0, 0.0, 0.0, 1.6878046285731657E9, 0.0, 2023-06-26 13:37:08.573
99.0, 53241.49766463014, 49961.46857279165, 20985.78464815434, -28371.158644099076, -2379.0973280784283, -16509.512544812267, 20898.210513378446, 6128.5801087117325, 0.05, 0.974, 0.166, 192.0, 0.0, 0.0, 0.0, 0.0, 0.0, 0.0, 0.0, 0.0, 0.0, 1.6878046285781603E9, 0.0, 2023-06-26 13:37:08.578
100.0, 53247.8679117999, 50001.74641630011, 21119.693949186083, -28177.033743504733, -2306.632972554323, -16330.56447870308, 21058.874852523193, 6333.4338466446225, 0.054, 0.976, 0.168, 192.0, 1.0, 176.0, 30.0, 128.0, 5.0, 64.0, 0.0, 0.0, 0.0, 1.687804628582219E9, 0.0, 2023-06-26 13:37:08.582
101.0, 53295.79005191208, 50055.77058264859, 21176.266214402465, -28193.81990359067, -2130.344764035316, -16290.063117750064, 21109.166277547632, 6312.758483023463, 0.054, 0.976, 0.168, 192.0, 0.0, 0.0, 0.0, 0.0, 0.0, 0.0, 0.0, 0.0, 0.0, 1.687804628585236E9, 0.0, 2023-06-26 13:37:08.585
102.0, 53290.64915068736, 50014.46455889518, 21040.50171858093, -28400.260615379884, -2183.2736949054834, -16497.08497489512, 20949.194842481, 6086.692939602487, 0.054, 0.976, 0.168, 192.0, 0.0, 0.0, 0.0, 0.0, 0.0, 0.0, 0.0, 0.0, 0.0, 1.687804628589248E9, 0.0, 2023-06-26 13:37:08.589
103.0, 53228.64541156834, 49948.79513368549, 20959.76721760836, -28421.651234823614, -2381.332502523959, -16564.363725705593, 20870.427295020498, 6070.264407427837, 0.054, 0.976, 0.168, 192.0, 0.0, 0.0, 0.0, 0.0, 0.0, 0.0, 0.0, 0.0, 0.0, 1.6878046285932484E9, 0.0, 2023-06-26 13:37:08.593
104.0, 53251.17596997929, 50012.27408793856, 21104.94179784558, -28183.560452885682, -2325.1849204522277, -16358.012420894198, 21049.956506485523, 6318.905212748673, 0.054, 0.976, 0.168, 192.0, 0.0, 0.0, 0.0, 0.0, 0.0, 0.0, 0.0, 0.0, 0.0, 1.6878046285972686E9, 0.0, 2023-06-26 13:37:08.597
105.0, 53295.92416237881, 50064.398356008336, 21195.645176845217, -28155.129033938534, -2123.3486680208052, -16285.324547925538, 21133.932010404114, 6348.342460196312, 0.054, 0.976, 0.168, 192.0, 0.0, 0.0, 0.0, 0.0, 0.0, 0.0, 0.0, 0.0, 0.0, 1.6878046286013095E9, 0.0, 2023-06-26 13:37:08.601
106.0, 53287.18463029678, 50012.877585038856, 21068.55315787234, -28379.138216869622, -2143.733458964045, -16487.40666954597, 20964.95282232199, 6115.124358549638, 0.054, 0.976, 0.168, 192.0, 0.0, 0.0, 0.0, 0.0, 0.0, 0.0, 0.0, 0.0, 0.0, 1.6878046286053343E9, 0.0, 2023-06-26 13:37:08.605
107.0, 53241.92234777479, 49960.97683441363, 20971.18895902502, -28422.76882204638, -2317.9653069931637, -16529.6514665665, 20875.83641717868, 6066.86694227063, 0.054, 0.976, 0.168, 192.0, 0.0, 0.0, 0.0, 0.0, 0.0, 0.0, 0.0, 0.0, 0.0, 1.6878046286103494E9, 0.0, 2023-06-26 13:37:08.610
108.0, 53225.31500164449, 49978.45589857768, 21064.909823526123, -28226.54285747324, -2351.2694062315713, -16384.320424118094, 21001.87790416216, 6273.57587499331, 0.054, 0.976, 0.168, 192.0, 0.0, 0.0, 0.0, 0.0, 0.0, 0.0, 0.0, 0.0, 0.0, 1.6878046286143684E9, 0.0, 2023-06-26 13:37:08.614
109.0, 53262.15067650684, 50023.069980510474, 21168.174882909643, -28157.05128396169, -2186.4923461070475, -16303.295350467606, 21112.78726014939, 6343.4474281606, 0.054, 0.976, 0.168, 192.0, 0.0, 0.0, 0.0, 0.0, 0.0, 0.0, 0.0, 0.0, 0.0, 1.6878046286173933E9, 0.0, 2023-06-26 13:37:08.617
110.0, 53289.55391520905, 50016.14093972933, 21082.098315012256, -28341.85550711817, -2138.458447272593, -16445.340686481082, 21003.91191290759, 6155.379850313646, 0.056, 0.978, 0.17, 192.0, 1.0, 192.0, 30.0, 144.0, 5.0, 80.0, 0.0, 0.0, 0.0, 1.6878046286214097E9, 0.0, 2023-06-26 13:37:08.621
111.0, 53240.84946404093, 49951.03030813102, 20942.62342961114, -28457.905764330124, -2324.6261268408452, -16572.27624324277, 20874.94234740047, 6044.045811181762, 0.056, 0.978, 0.17, 192.0, 0.0, 0.0, 0.0, 0.0, 0.0, 0.0, 0.0, 0.0, 0.0, 1.6878046286254306E9, 0.0, 2023-06-26 13:37:08.625
112.0, 53228.86892901289, 49977.628884032834, 21030.532840553864, -28261.25511661233, -2374.045833831529, -16399.452555114338, 20982.163665552576, 6242.752819389441, 0.056, 0.978, 0.17, 192.0, 0.0, 0.0, 0.0, 0.0, 0.0, 0.0, 0.0, 0.0, 0.0, 1.687804628630442E9, 0.0, 2023-06-26 13:37:08.630
113.0, 53278.98154008169, 50056.687004171254, 21176.266214402465, -28114.158286351954, -2205.0889974938627, -16249.07001841903, 21139.229373840022, 6390.319036283378, 0.056, 0.978, 0.17, 192.0, 0.0, 0.0, 0.0, 0.0, 0.0, 0.0, 0.0, 0.0, 0.0, 1.6878046286344993E9, 0.0, 2023-06-26 13:37:08.634
114.0, 53298.44990950226, 50041.35370747492, 21108.31691125833, -28280.343506377165, -2110.3176010033612, -16391.24946489924, 21056.662029822117, 6212.846185308241, 0.056, 0.978, 0.17, 192.0, 0.0, 0.0, 0.0, 0.0, 0.0, 0.0, 0.0, 0.0, 0.0, 1.6878046286394937E9, 0.0, 2023-06-26 13:37:08.639
115.0, 53238.74840006213, 49950.38210754182, 20937.638990597607, -28463.024313810387, -2275.8099169504544, -16561.03331578175, 20868.952079886447, 6033.115808143117, 0.056, 0.978, 0.17, 192.0, 0.0, 0.0, 0.0, 0.0, 0.0, 0.0, 0.0, 0.0, 0.0, 1.687804628642493E9, 0.0, 2023-06-26 13:37:08.642
116.0, 53205.354893845906, 49942.35783128236, 20967.992659567914, -28329.74086162339, -2410.076845893484, -16484.41153578896, 20915.399004864576, 6173.5071150669, 0.056, 0.978, 0.17, 192.0, 0.0, 0.0, 0.0, 0.0, 0.0, 0.0, 0.0, 0.0, 0.0, 1.6878046286455276E9, 0.0, 2023-06-26 13:37:08.645
117.0, 53256.11570550391, 50026.84742532342, 21138.022379639435, -28133.403138327976, -2249.4572102376474, -16286.308024681572, 21107.109917057744, 6370.671852907164, 0.056, 0.978, 0.17, 192.0, 0.0, 0.0, 0.0, 0.0, 0.0, 0.0, 0.0, 0.0, 0.0, 1.6878046286495504E9, 0.0, 2023-06-26 13:37:08.649
118.0, 53286.4246709853, 50040.30317548552, 21116.341187517784, -28252.604991508128, -2122.767522664967, -16348.825853923066, 21061.221785691, 6240.070610054804, 0.056, 0.978, 0.17, 192.0, 0.0, 0.0, 0.0, 0.0, 0.0, 0.0, 0.0, 0.0, 0.0, 1.6878046286535408E9, 0.0, 2023-06-26 13:37:08.653
119.0, 53261.703641617736, 49977.40536658828, 20961.130674020133, -28447.48985141395, -2265.1928383341838, -16553.768998833777, 20881.42435329251, 6034.6580785105325, 0.056, 0.978, 0.17, 192.0, 0.0, 0.0, 0.0, 0.0, 0.0, 0.0, 0.0, 0.0, 0.0, 1.6878046286575916E9, 0.0, 2023-06-26 13:37:08.657
120.0, 53231.32762090297, 49959.50161927958, 20968.86437760167, -28346.728187409426, -2404.3100958240148, -16511.233629135328, 20910.012234450845, 6139.018373372362, 0.056, 0.978, 0.17, 192.0, 0.0, 0.0, 0.0, 0.0, 0.0, 0.0, 0.0, 0.0, 0.0, 1.6878046286615903E9, 0.0, 2023-06-26 13:37:08.661
121.0, 53264.09527827446, 50028.43439917975, 21129.528716746416, -28136.442975573897, -2284.638856010301, -16305.910504568876, 21096.64930065266, 6351.1587799976805, 0.046, 0.98, 0.166, 192.0, 1.0, 112.0, 30.0, 160.0, 5.0, 48.0, 0.0, 0.0, 0.0, 1.6878046286656044E9, 0.0, 2023-06-26 13:37:08.665
122.0, 53302.02618861511, 50060.03976583955, 21145.778434965425, -28196.658575136495, -2108.3953509802045, -16299.27203646565, 21107.71341415804, 6290.853773457262, 0.046, 0.98, 0.166, 192.0, 0.0, 0.0, 0.0, 0.0, 0.0, 0.0, 0.0, 0.0, 0.0, 1.687804628669626E9, 0.0, 2023-06-26 13:37:08.669
123.0, 53273.5277144346, 49998.46070986518, 20982.789514397326, -28416.465630109982, -2215.370799943304, -16516.7992135047, 20915.51076358685, 6057.836837510686, 0.046, 0.98, 0.166, 192.0, 0.0, 0.0, 0.0, 0.0, 0.0, 0.0, 0.0, 0.0, 0.0, 1.6878046286726592E9, 0.0, 2023-06-26 13:37:08.672
124.0, 53235.619155838394, 49958.56284601246, 20949.01602852536, -28384.279118094342, -2405.3382760689587, -16540.89439402752, 20878.2280538354, 6096.795928096286, 0.046, 0.98, 0.166, 192.0, 0.0, 0.0, 0.0, 0.0, 0.0, 0.0, 0.0, 0.0, 0.0, 1.6878046286766891E9, 0.0, 2023-06-26 13:37:08.676
125.0, 53245.900958287835, 50003.82512853445, 21094.056498295846, -28173.90449928099, -2338.953595036697, -16354.793769692633, 21054.40450363213, 6318.033494714916, 0.046, 0.98, 0.166, 192.0, 0.0, 0.0, 0.0, 0.0, 0.0, 0.0, 0.0, 0.0, 0.0, 1.687804628680702E9, 0.0, 2023-06-26 13:37:08.680
126.0, 53304.082549105, 50064.398356008336, 21165.202100897088, -28165.0979119656, -2128.5789762233467, -16295.293425952606, 21127.405301023162, 6322.906175006173, 0.046, 0.98, 0.166, 192.0, 0.0, 0.0, 0.0, 0.0, 0.0, 0.0, 0.0, 0.0, 0.0, 1.6878046286856947E9, 0.0, 2023-06-26 13:37:08.685
127.0, 53281.66374941632, 49999.08655870993, 21012.24911358942, -28407.547284072316, -2193.1084624658183, -16497.50965803977, 20949.95480179248, 6080.7920790662865, 0.046, 0.98, 0.166, 192.0, 0.0, 0.0, 0.0, 0.0, 0.0, 0.0, 0.0, 0.0, 0.0, 1.687804628689737E9, 0.0, 2023-06-26 13:37:08.689
128.0, 53218.90005098582, 49931.24901428807, 20916.94127523199, -28449.501508414927, -2369.7766506405655, -16582.692156158944, 20844.9686580859, 6040.871863469108, 0.046, 0.98, 0.166, 192.0, 0.0, 0.0, 0.0, 0.0, 0.0, 0.0, 0.0, 0.0, 0.0, 1.6878046286937742E9, 0.0, 2023-06-26 13:37:08.693
129.0, 53232.19933893673, 49987.150727170796, 21058.36076240072, -28213.645900922525, -2338.0371735140293, -16378.643081026446, 21017.658235747604, 6284.237657098492, 0.046, 0.98, 0.166, 192.0, 0.0, 0.0, 0.0, 0.0, 0.0, 0.0, 0.0, 0.0, 0.0, 1.6878046286967635E9, 0.0, 2023-06-26 13:37:08.696
130.0, 53284.748290151154, 50053.89303611434, 21159.56946129435, -28148.46821409085, -2148.0920491328297, -16275.333318154017, 21128.27701905692, 6345.682602606131, 0.046, 0.98, 0.166, 192.0, 0.0, 0.0, 0.0, 0.0, 0.0, 0.0, 0.0, 0.0, 0.0, 1.6878046287007945E9, 0.0, 2023-06-26 13:37:08.700
131.0, 53295.92416237881, 50028.34499220193, 21047.58722157326, -28353.344303768197, -2146.952110165609, -16448.11230279354, 20993.116020335678, 6129.027143600839, 0.05, 0.978, 0.166, 192.0, 1.0, 144.0, 30.0, 144.0, 5.0, 48.0, 0.0, 0.0, 0.0, 1.6878046287068367E9, 0.0, 2023-06-26 13:37:08.706
132.0, 53230.59001333595, 49946.85053191788, 20913.968493219436, -28453.793043350346, -2361.7523743811103, -16568.498798429824, 20855.362219257622, 6034.792188977264, 0.05, 0.978, 0.166, 192.0, 0.0, 0.0, 0.0, 0.0, 0.0, 0.0, 0.0, 0.0, 0.0, 1.6878046287098496E9, 0.0, 2023-06-26 13:37:08.709
133.0, 53235.552100605026, 49980.19933464519, 21024.92255269558, -28241.49617451384, -2393.0224648740846, -16404.43699412787, 20983.750639408903, 6254.129857317193, 0.05, 0.978, 0.166, 192.0, 0.0, 0.0, 0.0, 0.0, 0.0, 0.0, 0.0, 0.0, 0.0, 1.6878046287138786E9, 0.0, 2023-06-26 13:37:08.713
134.0, 53298.78518566909, 50059.27980652807, 21166.073818930843, -28119.03096664321, -2179.3844913702596, -16266.50437909417, 21143.386798308708, 6374.382242486745, 0.05, 0.978, 0.166, 192.0, 0.0, 0.0, 0.0, 0.0, 0.0, 0.0, 0.0, 0.0, 0.0, 1.6878046287178843E9, 0.0, 2023-06-26 13:37:08.717
135.0, 53296.48295599019, 50025.75218984511, 21060.79710254635, -28328.69032963399, -2141.2300635850506, -16425.090006004575, 21024.25200036192, 6160.632510260643, 0.05, 0.978, 0.166, 192.0, 0.0, 0.0, 0.0, 0.0, 0.0, 0.0, 0.0, 0.0, 0.0, 1.6878046287228997E9, 0.0, 2023-06-26 13:37:08.722
136.0, 53245.610385609914, 49953.22077908764, 20917.74593803238, -28462.73374113247, -2329.409400154281, -16574.466714199392, 20868.281527552786, 6025.8514911951415, 0.05, 0.978, 0.166, 192.0, 0.0, 0.0, 0.0, 0.0, 0.0, 0.0, 0.0, 0.0, 0.0, 1.687804628726922E9, 0.0, 2023-06-26 13:37:08.726
137.0, 53235.2168244382, 49975.41606133176, 20997.765183182382, -28272.632154540082, -2390.13908983935, -16444.69248589188, 20972.597118925707, 6220.132854000671, 0.05, 0.978, 0.166, 192.0, 0.0, 0.0, 0.0, 0.0, 0.0, 0.0, 0.0, 0.0, 0.0, 1.6878046287299345E9, 0.0, 2023-06-26 13:37:08.729
138.0, 53278.66861565931, 50047.50043720013, 21150.271135600942, -28112.817181684637, -2216.4883871660695, -16274.841579775999, 21140.391664551695, 6382.875905379761, 0.05, 0.978, 0.166, 192.0, 0.0, 0.0, 0.0, 0.0, 0.0, 0.0, 0.0, 0.0, 0.0, 1.687804628732962E9, 0.0, 2023-06-26 13:37:08.732
139.0, 53295.96886586772, 50040.14671327433, 21092.715393628525, -28265.658410270025, -2125.0474005994083, -16376.51966530319, 21065.580375859783, 6219.149377244637, 0.05, 0.978, 0.166, 192.0, 0.0, 0.0, 0.0, 0.0, 0.0, 0.0, 0.0, 0.0, 0.0, 1.6878046287369847E9, 0.0, 2023-06-26 13:37:08.736
140.0, 53258.08265901598, 49965.93892168271, 20933.258048684365, -28444.02533102338, -2277.2851320845048, -16552.785522077742, 20886.766420217326, 6033.898119199052, 0.05, 0.978, 0.166, 192.0, 0.0, 0.0, 0.0, 0.0, 0.0, 0.0, 0.0, 0.0, 0.0, 1.687804628740985E9, 0.0, 2023-06-26 13:37:08.740
141.0, 53226.65610631181, 49955.3888982998, 20957.57674665174, -28322.11891676413, -2397.2916480650483, -16479.918835153443, 20923.400929379575, 6163.404126573101, 0.058, 0.982, 0.17, 192.0, 1.0, 208.0, 30.0, 176.0, 5.0, 80.0, 0.0, 0.0, 0.0, 1.6878046287460077E9, 0.0, 2023-06-26 13:37:08.746
142.0, 53259.49081891666, 50025.57337588947, 21117.27996078491, -28122.651949244973, -2260.9683586321307, -16292.007719517676, 21105.724108901515, 6365.329785982345, 0.058, 0.982, 0.17, 192.0, 0.0, 0.0, 0.0, 0.0, 0.0, 0.0, 0.0, 0.0, 0.0, 1.6878046287500374E9, 0.0, 2023-06-26 13:37:08.750
143.0, 53303.59081072698, 50057.98340534967, 21123.404338765664, -28207.029784563758, -2119.32535401885, -16325.37887398945, 21107.04286182438, 6273.888799415684, 0.058, 0.982, 0.17, 192.0, 0.0, 0.0, 0.0, 0.0, 0.0, 0.0, 0.0, 0.0, 0.0, 1.6878046287530568E9, 0.0, 2023-06-26 13:37:08.753
144.0, 53259.69198461676, 49974.87961946483, 20951.318258204254, -28431.68716808405, -2227.6866111381783, -16538.301591670705, 20913.253237396864, 6048.851436239653, 0.058, 0.982, 0.17, 192.0, 0.0, 0.0, 0.0, 0.0, 0.0, 0.0, 0.0, 0.0, 0.0, 1.687804628757136E9, 0.0, 2023-06-26 13:37:08.757
145.0, 53204.72904500116, 49929.393819498284, 20919.690539799994, -28369.75048419839, -2388.7979851720315, -16536.446396880914, 20888.50985628484, 6109.357608480169, 0.058, 0.982, 0.17, 192.0, 0.0, 0.0, 0.0, 0.0, 0.0, 0.0, 0.0, 0.0, 0.0, 1.6878046287611368E9, 0.0, 2023-06-26 13:37:08.761
146.0, 53220.08469344195, 49975.01372993156, 21068.1731782166, -28166.461368377375, -2319.3287634049375, -16341.673295697368, 21057.757265300424, 6319.598116826787, 0.058, 0.982, 0.17, 192.0, 0.0, 0.0, 0.0, 0.0, 0.0, 0.0, 0.0, 0.0, 0.0, 1.6878046287651489E9, 0.0, 2023-06-26 13:37:08.765
147.0, 53283.94362735077, 50038.13505627335, 21123.203173065565, -28182.62167961856, -2135.195092582118, -16317.198135518807, 21100.784373376893, 6287.188087366591, 0.058, 0.982, 0.17, 192.0, 0.0, 0.0, 0.0, 0.0, 0.0, 0.0, 0.0, 0.0, 0.0, 1.6878046287691245E9, 0.0, 2023-06-26 13:37:08.769
148.0, 53278.93683659278, 50005.099177968405, 20977.2015782835, -28389.37531583015, -2203.4573201486255, -16496.727346983833, 20936.700217330483, 6073.997148751873, 0.058, 0.982, 0.17, 192.0, 0.0, 0.0, 0.0, 0.0, 0.0, 0.0, 0.0, 0.0, 0.0, 1.6878046287731576E9, 0.0, 2023-06-26 13:37:08.773
149.0, 53240.29067042955, 49965.78245947152, 20929.122975960134, -28373.10324586669, -2376.9292088662637, -16527.349236887603, 20895.729469743907, 6100.640428142599, 0.058, 0.982, 0.17, 192.0, 0.0, 0.0, 0.0, 0.0, 0.0, 0.0, 0.0, 0.0, 0.0, 1.6878046287781892E9, 0.0, 2023-06-26 13:37:08.778
150.0, 53242.481141386175, 49997.18666043123, 21060.327715912787, -28166.52842361074, -2333.6785833452445, -16363.913281430398, 21042.379265115174, 6307.125843420726, 0.058, 0.982, 0.17, 192.0, 0.0, 0.0, 0.0, 0.0, 0.0, 0.0, 0.0, 0.0, 0.0, 1.6878046287812023E9, 0.0, 2023-06-26 13:37:08.781
151.0, 53287.51990646362, 50042.00190806412, 21135.161356349156, -28158.86177526257, -2143.733458964045, -16294.466411407759, 21116.117670073232, 6315.507747591466, 0.056, 0.982, 0.17, 192.0, 1.0, 192.0, 30.0, 176.0, 5.0, 80.0, 0.0, 0.0, 0.0, 1.6878046287851765E9, 0.0, 2023-06-26 13:37:08.785
152.0, 53286.871705874415, 50006.97672450265, 20998.189866327033, -28373.03619063332, -2165.19113364114, -16467.223044302827, 20971.21131076948, 6098.069977530239, 0.056, 0.982, 0.17, 192.0, 0.0, 0.0, 0.0, 0.0, 0.0, 0.0, 0.0, 0.0, 0.0, 1.6878046287892282E9, 0.0, 2023-06-26 13:37:08.789
153.0, 53234.90390001582, 49947.81165692946, 20898.56814128973, -28421.114792956687, -2373.241171031138, -16561.726219859866, 20865.711076940428, 6052.606529308144, 0.056, 0.982, 0.17, 192.0, 0.0, 0.0, 0.0, 0.0, 0.0, 0.0, 0.0, 0.0, 0.0, 1.6878046287932155E9, 0.0, 2023-06-26 13:37:08.793
154.0, 53236.7143913167, 49981.65219803479, 21024.319055595286, -28213.9588253449, -2373.218819286683, -16391.137706176964, 21016.02655840237, 6268.85965691324, 0.056, 0.982, 0.17, 192.0, 0.0, 0.0, 0.0, 0.0, 0.0, 0.0, 0.0, 0.0, 0.0, 1.68780462879725E9, 0.0, 2023-06-26 13:37:08.797
155.0, 53305.91539215033, 50057.066983827, 21153.33332459132, -28137.784080241214, -2154.641110258235, -16295.896923052898, 21138.983504651012, 6340.87697754824, 0.056, 0.982, 0.17, 192.0, 0.0, 0.0, 0.0, 0.0, 0.0, 0.0, 0.0, 0.0, 0.0, 1.6878046288032792E9, 0.0, 2023-06-26 13:37:08.803
156.0, 53315.75015971067, 50037.57626266197, 21043.519204082397, -28333.831230858712, -2142.1688368521736, -16458.237643031793, 21010.595084499728, 6136.693791949009, 0.056, 0.982, 0.17, 192.0, 0.0, 0.0, 0.0, 0.0, 0.0, 0.0, 0.0, 0.0, 0.0, 1.6878046288063114E9, 0.0, 2023-06-26 13:37:08.806
157.0, 53255.132228747876, 49960.46274429116, 20904.536057059297, -28442.0136740224, -2328.627089098345, -16576.65718515601, 20870.360239787133, 6033.629898265588, 0.056, 0.982, 0.17, 192.0, 0.0, 0.0, 0.0, 0.0, 0.0, 0.0, 0.0, 0.0, 0.0, 1.6878046288093133E9, 0.0, 2023-06-26 13:37:08.809
158.0, 53242.1682169638, 49980.355796856384, 20997.139334337633, -28246.838241438658, -2374.559923954001, -16439.90921257844, 20981.29194751882, 6237.656621653631, 0.056, 0.982, 0.17, 192.0, 0.0, 0.0, 0.0, 0.0, 0.0, 0.0, 0.0, 0.0, 0.0, 1.687804628813346E9, 0.0, 2023-06-26 13:37:08.813
159.0, 53285.530601207094, 50047.47808545567, 21133.350865048276, -28115.834667186104, -2189.2639624195053, -16274.215730931252, 21136.8377371833, 6362.714631881075, 0.056, 0.982, 0.17, 192.0, 0.0, 0.0, 0.0, 0.0, 0.0, 0.0, 0.0, 0.0, 0.0, 1.687804628817364E9, 0.0, 2023-06-26 13:37:08.817
160.0, 53301.53445023709, 50035.20697774971, 21051.387018130663, -28295.877968773602, -2128.5566244788915, -16393.28347364467, 21042.289858137352, 6175.183495901048, 0.056, 0.982, 0.17, 192.0, 0.0, 0.0, 0.0, 0.0, 0.0, 0.0, 0.0, 0.0, 0.0, 1.6878046288213713E9, 0.0, 2023-06-26 13:37:08.821
161.0, 53264.78818235257, 49968.57642752844, 20915.84603975368, -28436.20222046402, -2298.698103272689, -16553.27726045576, 20887.615786506627, 6033.473436054402, 0.056, 0.982, 0.17, 192.0, 0.0, 0.0, 0.0, 0.0, 0.0, 0.0, 0.0, 0.0, 0.0, 1.6878046288253796E9, 0.0, 2023-06-26 13:37:08.825
162.0, 53240.938871018756, 49961.58033151393, 20972.038325314323, -28282.668087800514, -2396.5093370091126, -16460.651631432967, 20959.364886208165, 6193.869554265685, 0.056, 0.972, 0.168, 192.0, 1.0, 192.0, 30.0, 96.0, 5.0, 64.0, 0.0, 0.0, 0.0, 1.6878046288294206E9, 0.0, 2023-06-26 13:37:08.829
163.0, 53270.48787718867, 50024.545195644525, 21108.31691125833, -28125.736489979805, -2242.081134567396, -16292.208885217773, 21117.50347822946, 6354.444486432611, 0.056, 0.972, 0.168, 192.0, 0.0, 0.0, 0.0, 0.0, 0.0, 0.0, 0.0, 0.0, 0.0, 1.6878046288324313E9, 0.0, 2023-06-26 13:37:08.832
164.0, 53313.850261431966, 50055.12238205939, 21081.003079533944, -28240.557401246715, -2117.648973184702, -16353.944403403331, 21074.006983519434, 6226.6595633816205, 0.056, 0.972, 0.168, 192.0, 0.0, 0.0, 0.0, 0.0, 0.0, 0.0, 0.0, 0.0, 0.0, 1.687804628836464E9, 0.0, 2023-06-26 13:37:08.836
165.0, 53281.10495580494, 49984.93790446972, 20925.881973014115, -28420.33248190075, -2258.979053375608, -16553.8584058116, 20903.262007625344, 6037.407343078536, 0.056, 0.972, 0.168, 192.0, 0.0, 0.0, 0.0, 0.0, 0.0, 0.0, 0.0, 0.0, 0.0, 1.6878046288404748E9, 0.0, 2023-06-26 13:37:08.840
166.0, 53239.70952507371, 49956.70765122267, 20932.363978906153, -28328.377405211617, -2403.818357445998, -16501.80119297519, 20922.640970068096, 6139.197187328004, 0.056, 0.972, 0.168, 192.0, 0.0, 0.0, 0.0, 0.0, 0.0, 0.0, 0.0, 0.0, 0.0, 1.687804628844493E9, 0.0, 2023-06-26 13:37:08.844
167.0, 53266.28574923107, 50019.6054601199, 21087.909768570637, -28130.76563248225, -2278.559181518457, -16307.430423191838, 21098.124515786712, 6344.520311894455, 0.056, 0.972, 0.168, 192.0, 0.0, 0.0, 0.0, 0.0, 0.0, 0.0, 0.0, 0.0, 0.0, 1.687804628849515E9, 0.0, 2023-06-26 13:37:08.849
168.0, 53309.53637475209, 50057.15639080482, 21100.69496639907, -28197.440886192428, -2123.058095342886, -16332.553783959602, 21104.56181818984, 6264.925749889106, 0.056, 0.972, 0.168, 192.0, 0.0, 0.0, 0.0, 0.0, 0.0, 0.0, 0.0, 0.0, 0.0, 1.687804628853535E9, 0.0, 2023-06-26 13:37:08.853
169.0, 53263.245911985156, 49968.062337405965, 20916.85186825417, -28435.44226115254, -2256.0956783408737, -16558.529920402758, 20898.746955245373, 6022.699895226943, 0.056, 0.972, 0.168, 192.0, 0.0, 0.0, 0.0, 0.0, 0.0, 0.0, 0.0, 0.0, 0.0, 1.6878046288575451E9, 0.0, 2023-06-26 13:37:08.857
170.0, 53230.657068569315, 49939.42975275872, 20901.362109346643, -28370.71160920997, -2412.7367034836657, -16539.262716682282, 20882.072553881713, 6091.610323382655, 0.056, 0.972, 0.168, 192.0, 0.0, 0.0, 0.0, 0.0, 0.0, 0.0, 0.0, 0.0, 0.0, 1.6878046288605628E9, 0.0, 2023-06-26 13:37:08.860
171.0, 53262.12832476239, 50015.29157344003, 21061.288840924364, -28140.220420386842, -2307.482338843625, -16305.7987458466, 21074.722239342005, 6328.360000653267, 0.056, 0.972, 0.168, 192.0, 0.0, 0.0, 0.0, 0.0, 0.0, 0.0, 0.0, 0.0, 0.0, 1.6878046288645833E9, 0.0, 2023-06-26 13:37:08.864
172.0, 53310.96688639723, 50062.52080947409, 21111.200286293064, -28166.930755010937, -2132.021144869464, -16302.714205111768, 21114.240123538988, 6292.172526380125, 0.058, 0.97, 0.17200000000000001, 192.0, 1.0, 208.0, 30.0, 80.0, 5.0, 96.0, 0.0, 0.0, 0.0, 1.6878046288686163E9, 0.0, 2023-06-26 13:37:08.868
173.0, 53285.1282698069, 49999.33242789894, 20948.032551769324, -28400.05944967979, -2199.724578824589, -16514.966370459362, 20940.544717376797, 6058.194465421971, 0.058, 0.97, 0.17200000000000001, 192.0, 0.0, 0.0, 0.0, 0.0, 0.0, 0.0, 0.0, 0.0, 0.0, 1.687804628874651E9, 0.0, 2023-06-26 13:37:08.874
174.0, 53234.38980989335, 49946.02351737303, 20870.51670199832, -28406.8543799942, -2400.4208922887915, -16550.907975543498, 20877.155170101545, 6054.014689208829, 0.058, 0.97, 0.17200000000000001, 192.0, 0.0, 0.0, 0.0, 0.0, 0.0, 0.0, 0.0, 0.0, 0.0, 1.6878046288786633E9, 0.0, 2023-06-26 13:37:08.878
175.0, 53244.82807455398, 49996.20318367519, 21016.048910146823, -28186.06384826468, -2363.540513937535, -16365.544958775636, 21036.433701090064, 6284.617636754231, 0.058, 0.97, 0.17200000000000001, 192.0, 0.0, 0.0, 0.0, 0.0, 0.0, 0.0, 0.0, 0.0, 0.0, 1.6878046288816884E9, 0.0, 2023-06-26 13:37:08.881
176.0, 53313.02324688712, 50075.57422823599, 21132.70266445907, -28128.306940592163, -2127.930775634143, -16259.754152268668, 21133.976713893022, 6336.697201335097, 0.058, 0.97, 0.17200000000000001, 192.0, 0.0, 0.0, 0.0, 0.0, 0.0, 0.0, 0.0, 0.0, 0.0, 1.687804628886693E9, 0.0, 2023-06-26 13:37:08.886
177.0, 53313.17970909831, 50036.95041381722, 20997.452258760008, -28346.70583566497, -2148.181456110651, -16452.806169129155, 20977.2015782835, 6113.11270154866, 0.058, 0.97, 0.17200000000000001, 192.0, 0.0, 0.0, 0.0, 0.0, 0.0, 0.0, 0.0, 0.0, 0.0, 1.6878046288907228E9, 0.0, 2023-06-26 13:37:08.890
178.0, 53246.88443504387, 49950.04683137499, 20872.70717295494, -28428.58027560476, -2369.977816340663, -16574.869045599586, 20861.12896932709, 6030.366543575114, 0.058, 0.97, 0.17200000000000001, 192.0, 0.0, 0.0, 0.0, 0.0, 0.0, 0.0, 0.0, 0.0, 0.0, 1.6878046288937395E9, 0.0, 2023-06-26 13:37:08.893
179.0, 53243.039934997556, 49982.07688117944, 20990.2549970454, -28215.63520617905, -2385.691092692744, -16407.9238662629, 21001.743793695427, 6245.435028724079, 0.058, 0.97, 0.17200000000000001, 192.0, 0.0, 0.0, 0.0, 0.0, 0.0, 0.0, 0.0, 0.0, 0.0, 1.6878046288967257E9, 0.0, 2023-06-26 13:37:08.896
180.0, 53288.324569264005, 50045.82405636598, 21101.589036177284, -28134.453670317373, -2194.762491555511, -16293.393527673905, 21123.31493178784, 6327.8012070418845, 0.058, 0.97, 0.17200000000000001, 192.0, 0.0, 0.0, 0.0, 0.0, 0.0, 0.0, 0.0, 0.0, 0.0, 1.6878046289007642E9, 0.0, 2023-06-26 13:37:08.900
181.0, 53306.76475843963, 50032.56947190398, 21018.64171250364, -28325.65049238807, -2163.0006626845197, -16435.841195087578, 21008.02463388737, 6128.647163945099, 0.058, 0.97, 0.17200000000000001, 192.0, 0.0, 0.0, 0.0, 0.0, 0.0, 0.0, 0.0, 0.0, 0.0, 1.6878046289047816E9, 0.0, 2023-06-26 13:37:08.904
182.0, 53264.22938874119, 49974.65610202028, 20892.689632497983, -28434.52583962987, -2345.860284073387, -16561.547405904224, 20877.66926022402, 6032.020572664806, 0.056, 0.974, 0.17200000000000001, 192.0, 1.0, 192.0, 30.0, 112.0, 5.0, 96.0, 0.0, 0.0, 0.0, 1.6878046289088085E9, 0.0, 2023-06-26 13:37:08.908
183.0, 53239.06132448451, 49980.60166604539, 20962.874110087647, -28262.26094511282, -2412.624944761389, -16435.26004973174, 20973.06650555927, 6211.527432385377, 0.056, 0.974, 0.17200000000000001, 192.0, 0.0, 0.0, 0.0, 0.0, 0.0, 0.0, 0.0, 0.0, 0.0, 1.6878046289138403E9, 0.0, 2023-06-26 13:37:08.913
184.0, 53285.28473201809, 50055.56941694849, 21103.1313065447, -28119.165077109945, -2236.1355705422843, -16265.163274426852, 21127.94174289009, 6352.20931198708, 0.056, 0.974, 0.17200000000000001, 192.0, 0.0, 0.0, 0.0, 0.0, 0.0, 0.0, 0.0, 0.0, 0.0, 1.6878046289168348E9, 0.0, 2023-06-26 13:37:08.916
185.0, 53318.00768590065, 50052.73074540267, 21052.146977442146, -28280.79054126627, -2150.506037534003, -16398.80435452513, 21066.273279937897, 6188.885115252151, 0.056, 0.974, 0.17200000000000001, 192.0, 0.0, 0.0, 0.0, 0.0, 0.0, 0.0, 0.0, 0.0, 0.0, 1.6878046289208753E9, 0.0, 2023-06-26 13:37:08.920
186.0, 53274.44413595726, 49980.19933464519, 20904.9830919484, -28445.746415346435, -2293.400739836781, -16584.122667804084, 20896.645891266573, 6028.891328441064, 0.056, 0.974, 0.17200000000000001, 192.0, 0.0, 0.0, 0.0, 0.0, 0.0, 0.0, 0.0, 0.0, 0.0, 1.687804628924898E9, 0.0, 2023-06-26 13:37:08.924
187.0, 53233.87571977088, 49964.46370654866, 20936.990790008404, -28315.726317849916, -2392.240153818149, -16489.530085269223, 20937.817804553248, 6163.381774828646, 0.056, 0.974, 0.17200000000000001, 192.0, 0.0, 0.0, 0.0, 0.0, 0.0, 0.0, 0.0, 0.0, 0.0, 1.6878046289289124E9, 0.0, 2023-06-26 13:37:08.928
188.0, 53264.78818235257, 50030.33429745845, 21087.75330635945, -28135.727719751325, -2257.9732248751193, -16267.97959422822, 21099.107992542744, 6328.404704142178, 0.056, 0.974, 0.17200000000000001, 192.0, 0.0, 0.0, 0.0, 0.0, 0.0, 0.0, 0.0, 0.0, 0.0, 1.6878046289329104E9, 0.0, 2023-06-26 13:37:08.932
189.0, 53317.337133566994, 50069.561608977514, 21080.913672556126, -28231.907276142512, -2136.7597146939893, -16324.350693744505, 21088.200341248554, 6239.511816443422, 0.056, 0.974, 0.17200000000000001, 192.0, 0.0, 0.0, 0.0, 0.0, 0.0, 0.0, 0.0, 0.0, 0.0, 1.6878046289369488E9, 0.0, 2023-06-26 13:37:08.936
190.0, 53283.11661280592, 50004.0039424901, 20920.47285085593, -28434.123508229677, -2254.1734283177175, -16499.588370274112, 20911.822725751725, 6043.107037914639, 0.056, 0.974, 0.17200000000000001, 192.0, 0.0, 0.0, 0.0, 0.0, 0.0, 0.0, 0.0, 0.0, 0.0, 1.6878046289419625E9, 0.0, 2023-06-26 13:37:08.941
191.0, 53231.0146964806, 49958.40638380127, 20912.314464129744, -28357.188803814508, -2423.1973198887495, -16502.337634842115, 20903.99961519237, 6115.5490416942885, 0.056, 0.974, 0.17200000000000001, 192.0, 0.0, 0.0, 0.0, 0.0, 0.0, 0.0, 0.0, 0.0, 0.0, 1.6878046289459963E9, 0.0, 2023-06-26 13:37:08.945
192.0, 53254.998118281146, 50022.377076432356, 21067.480274138485, -28157.878298506537, -2306.3871033653145, -16316.952266329798, 21080.13136150019, 6323.710837806563, 0.052000000000000005, 0.97, 0.17, 192.0, 1.0, 160.0, 30.0, 80.0, 5.0, 80.0, 0.0, 0.0, 0.0, 1.687804628949016E9, 0.0, 2023-06-26 13:37:08.949
193.0, 53314.677275976814, 50076.37889103638, 21097.498666941963, -28204.638147907037, -2137.765543194478, -16325.915315856377, 21100.13617278769, 6266.512723745433, 0.052000000000000005, 0.97, 0.17, 192.0, 0.0, 0.0, 0.0, 0.0, 0.0, 0.0, 0.0, 0.0, 0.0, 1.6878046289530249E9, 0.0, 2023-06-26 13:37:08.953
194.0, 53298.69577869127, 50017.7055618412, 20944.545679634295, -28422.791173790836, -2233.0063263185416, -16546.303516185704, 20925.971379991937, 6052.33830837468, 0.052000000000000005, 0.97, 0.17, 192.0, 0.0, 0.0, 0.0, 0.0, 0.0, 0.0, 0.0, 0.0, 0.0, 1.6878046289570441E9, 0.0, 2023-06-26 13:37:08.957
195.0, 53232.04287672554, 49954.58423549942, 20882.631347493094, -28408.933092228544, -2431.7356862706765, -16536.446396880914, 20883.056030637745, 6074.153610963061, 0.052000000000000005, 0.97, 0.17, 192.0, 0.0, 0.0, 0.0, 0.0, 0.0, 0.0, 0.0, 0.0, 0.0, 1.687804628961137E9, 0.0, 2023-06-26 13:37:08.961
196.0, 53241.54236811905, 50004.87566052385, 21027.29183760784, -28192.568205901174, -2347.268443974071, -16323.322513499561, 21044.21210816051, 6294.385349081201, 0.052000000000000005, 0.97, 0.17, 192.0, 0.0, 0.0, 0.0, 0.0, 0.0, 0.0, 0.0, 0.0, 0.0, 1.687804628967162E9, 0.0, 2023-06-26 13:37:08.967
197.0, 53295.320665278516, 50060.822076895485, 21096.828114608303, -28192.478798923352, -2147.4662002880814, -16289.03493750512, 21110.306216514855, 6294.944142692583, 0.052000000000000005, 0.97, 0.17, 192.0, 0.0, 0.0, 0.0, 0.0, 0.0, 0.0, 0.0, 0.0, 0.0, 1.6878046289711416E9, 0.0, 2023-06-26 13:37:08.971
198.0, 53292.392586754875, 50022.22061422117, 20957.95672630748, -28411.503542840906, -2202.29502943695, -16477.013108374253, 20950.781816337327, 6077.72989007591, 0.052000000000000005, 0.97, 0.17, 192.0, 0.0, 0.0, 0.0, 0.0, 0.0, 0.0, 0.0, 0.0, 0.0, 1.6878046289741375E9, 0.0, 2023-06-26 13:37:08.974
199.0, 53230.14297844684, 49961.80384895848, 20872.260138065834, -28444.271200212384, -2404.913592924308, -16537.631039337044, 20872.260138065834, 6057.523913088312, 0.052000000000000005, 0.97, 0.17, 192.0, 0.0, 0.0, 0.0, 0.0, 0.0, 0.0, 0.0, 0.0, 0.0, 1.6878046289771435E9, 0.0, 2023-06-26 13:37:08.977
200.0, 53227.97485923468, 49994.213878418675, 21001.408517528598, -28234.54478198824, -2378.9408658672414, -16364.04739189713, 21024.92255269558, 6276.280436072402, 0.052000000000000005, 0.97, 0.17, 192.0, 0.0, 0.0, 0.0, 0.0, 0.0, 0.0, 0.0, 0.0, 0.0, 1.6878046289811692E9, 0.0, 2023-06-26 13:37:08.981
201.0, 53295.41007225634, 50068.868704899396, 21109.635664181194, -28166.751941055292, -2165.0123196854975, -16286.397431659394, 21134.647266226682, 6327.6223930862425, 0.052000000000000005, 0.97, 0.17, 192.0, 0.0, 0.0, 0.0, 0.0, 0.0, 0.0, 0.0, 0.0, 0.0, 1.6878046289851792E9, 0.0, 2023-06-26 13:37:08.985
202.0, 53295.79005191208, 50031.116608514385, 20988.042174344322, -28382.423923304552, -2155.311662591894, -16450.794512128177, 20981.269595774367, 6102.562678165756, 0.052000000000000005, 0.97, 0.17, 192.0, 0.0, 0.0, 0.0, 0.0, 0.0, 0.0, 0.0, 0.0, 0.0, 1.687804628989196E9, 0.0, 2023-06-26 13:37:08.989
203.0, 53230.76882729159, 49954.87480817733, 20858.714980925917, -28472.523805203895, -2380.3490257679255, -16573.170313020983, 20851.003629088835, 6018.721284713899, 0.054, 0.966, 0.17, 192.0, 1.0, 176.0, 30.0, 48.0, 5.0, 80.0, 0.0, 0.0, 0.0, 1.6878046289932168E9, 0.0, 2023-06-26 13:37:08.993
204.0, 53212.77567300507, 49970.141049640304, 20955.252165228387, -28282.153997678044, -2407.439340047758, -16420.373787924505, 20963.254089743386, 6218.948211544539, 0.054, 0.966, 0.17, 192.0, 0.0, 0.0, 0.0, 0.0, 0.0, 0.0, 0.0, 0.0, 0.0, 1.6878046289972599E9, 0.0, 2023-06-26 13:37:08.997
205.0, 53275.181743524285, 50048.305100000514, 21093.65416689565, -28164.025028231747, -2204.6866660936676, -16293.147658484897, 21106.774640890915, 6330.416361143156, 0.054, 0.966, 0.17, 192.0, 0.0, 0.0, 0.0, 0.0, 0.0, 0.0, 0.0, 0.0, 0.0, 1.6878046290002477E9, 0.0, 2023-06-26 13:37:09.000
206.0, 53298.29344729107, 50046.09227729944, 21016.093613635734, -28348.47162347694, -2164.0064911850086, -16431.236735729784, 21009.365738554687, 6137.7890274273195, 0.054, 0.966, 0.17, 192.0, 0.0, 0.0, 0.0, 0.0, 0.0, 0.0, 0.0, 0.0, 0.0, 1.6878046290042455E9, 0.0, 2023-06-26 13:37:09.004
207.0, 53253.165275235806, 49982.814488746466, 20883.927748671504, -28476.033029083377, -2344.7203451061664, -16580.456981713414, 20860.681934437984, 6011.032284621273, 0.054, 0.966, 0.17, 192.0, 0.0, 0.0, 0.0, 0.0, 0.0, 0.0, 0.0, 0.0, 0.0, 1.6878046290083053E9, 0.0, 2023-06-26 13:37:09.008
208.0, 53237.362591905905, 49990.65995105028, 20955.609793139673, -28298.89545427507, -2421.118607654406, -16467.223044302827, 20953.441673927508, 6194.629513577165, 0.054, 0.966, 0.17, 192.0, 0.0, 0.0, 0.0, 0.0, 0.0, 0.0, 0.0, 0.0, 0.0, 1.6878046290132992E9, 0.0, 2023-06-26 13:37:09.013
209.0, 53290.559743709535, 50068.645187454844, 21115.827097395315, -28133.872524961535, -2227.954832071642, -16257.675440034323, 21128.455833012562, 6360.92649232465, 0.054, 0.966, 0.17, 192.0, 0.0, 0.0, 0.0, 0.0, 0.0, 0.0, 0.0, 0.0, 0.0, 1.6878046290173187E9, 0.0, 2023-06-26 13:37:09.017
210.0, 53294.78422341159, 50042.27012899758, 21036.523108067886, -28312.0829835037, -2137.542025749925, -16369.568272777591, 21036.076073178778, 6174.803516245308, 0.054, 0.966, 0.17, 192.0, 0.0, 0.0, 0.0, 0.0, 0.0, 0.0, 0.0, 0.0, 0.0, 1.6878046290213566E9, 0.0, 2023-06-26 13:37:09.021
211.0, 53251.19832172374, 49960.574503013435, 20871.32136479871, -28490.226386812497, -2319.6863913162224, -16573.12560953207, 20858.31264952572, 5987.272380265282, 0.054, 0.966, 0.17, 192.0, 0.0, 0.0, 0.0, 0.0, 0.0, 0.0, 0.0, 0.0, 0.0, 1.687804629025389E9, 0.0, 2023-06-26 13:37:09.025
212.0, 53227.997210979134, 49963.94961642619, 20913.253237396864, -28348.65043743258, -2448.812419034531, -16493.374585315538, 20908.827591994715, 6137.83373091623, 0.054, 0.966, 0.17, 192.0, 0.0, 0.0, 0.0, 0.0, 0.0, 0.0, 0.0, 0.0, 0.0, 1.6878046290299916E9, 0.0, 2023-06-26 13:37:09.029
213.0, 53267.64920564285, 50041.35370747492, 21078.209111477034, -28146.300094878687, -2296.753501505077, -16286.755059570678, 21100.22557976551, 6349.214178230069, 0.06, 0.97, 0.164, 192.0, 1.0, 224.0, 30.0, 80.0, 5.0, 32.0, 0.0, 0.0, 0.0, 1.6878046290343912E9, 0.0, 2023-06-26 13:37:09.034
214.0, 53310.36338929694, 50069.13692583286, 21082.098315012256, -28238.232819823366, -2117.291345273417, -16330.60918219199, 21080.80191383385, 6243.71394440102, 0.06, 0.97, 0.164, 192.0, 0.0, 0.0, 0.0, 0.0, 0.0, 0.0, 0.0, 0.0, 0.0, 1.6878046290384262E9, 0.0, 2023-06-26 13:37:09.038
215.0, 53274.80176386855, 49992.69395979571, 20915.063728697747, -28449.121528759188, -2256.766230674533, -16534.010056735286, 20889.1804086185, 6020.643534737055, 0.06, 0.97, 0.164, 192.0, 0.0, 0.0, 0.0, 0.0, 0.0, 0.0, 0.0, 0.0, 0.0, 1.6878046290424283E9, 0.0, 2023-06-26 13:37:09.042
216.0, 53222.83395800996, 49949.08570636341, 20892.242597608878, -28386.134312884133, -2435.1555031723387, -16529.13737644403, 20874.718829955917, 6092.102061760672, 0.06, 0.97, 0.164, 192.0, 0.0, 0.0, 0.0, 0.0, 0.0, 0.0, 0.0, 0.0, 0.0, 1.6878046290464587E9, 0.0, 2023-06-26 13:37:09.046
217.0, 53248.761981578115, 50013.19050946123, 21049.30830589632, -28172.116359724565, -2328.895310031809, -16324.529507700146, 21060.126550212688, 6314.166642924148, 0.06, 0.97, 0.164, 192.0, 0.0, 0.0, 0.0, 0.0, 0.0, 0.0, 0.0, 0.0, 0.0, 1.687804629050488E9, 0.0, 2023-06-26 13:37:09.050
218.0, 53287.20698204124, 50048.90859710081, 21078.45498066604, -28222.743060915836, -2160.385508583249, -16314.113594783974, 21085.004041791446, 6262.064726598826, 0.06, 0.97, 0.164, 192.0, 0.0, 0.0, 0.0, 0.0, 0.0, 0.0, 0.0, 0.0, 0.0, 1.6878046290545044E9, 0.0, 2023-06-26 13:37:09.054
219.0, 53273.01362431212, 49997.968971487164, 20926.396063136588, -28435.486964641448, -2240.114181055329, -16513.06647218066, 20910.213400150944, 6037.675564011999, 0.06, 0.97, 0.164, 192.0, 0.0, 0.0, 0.0, 0.0, 0.0, 0.0, 0.0, 0.0, 0.0, 1.6878046290585086E9, 0.0, 2023-06-26 13:37:09.058
220.0, 53228.556004590515, 49953.75722095457, 20874.718829955917, -28414.81160102029, -2420.0010204316404, -16542.36960916157, 20866.80631241874, 6065.168209692027, 0.06, 0.97, 0.164, 192.0, 0.0, 0.0, 0.0, 0.0, 0.0, 0.0, 0.0, 0.0, 0.0, 1.6878046290615354E9, 0.0, 2023-06-26 13:37:09.061
221.0, 53224.19741442173, 49986.81545100397, 21003.710747207493, -28208.61675842008, -2375.94573211023, -16353.85499642551, 21022.061529405302, 6280.974302408016, 0.06, 0.97, 0.164, 192.0, 0.0, 0.0, 0.0, 0.0, 0.0, 0.0, 0.0, 0.0, 0.0, 1.6878046290645633E9, 0.0, 2023-06-26 13:37:09.064
222.0, 53259.043784027555, 50026.73566660115, 21063.21109094752, -28211.58954043264, -2184.7489100395337, -16311.051405793598, 21083.282957468386, 6275.252255827458, 0.06, 0.97, 0.164, 192.0, 0.0, 0.0, 0.0, 0.0, 0.0, 0.0, 0.0, 0.0, 0.0, 1.687804629068571E9, 0.0, 2023-06-26 13:37:09.068
223.0, 53272.85716210093, 50004.42862563475, 20951.564127393263, -28409.67069979557, -2202.8091195594216, -16481.08112586512, 20938.57776386473, 6064.452953869457, 0.062, 0.974, 0.164, 192.0, 1.0, 240.0, 30.0, 112.0, 5.0, 32.0, 0.0, 0.0, 0.0, 1.6878046290735996E9, 0.0, 2023-06-26 13:37:09.073
224.0, 53234.501568615626, 49958.45108729018, 20869.22030081991, -28432.849458795725, -2403.1254533678834, -16540.983801005343, 20859.720809426406, 6044.2246251374045, 0.062, 0.974, 0.164, 192.0, 0.0, 0.0, 0.0, 0.0, 0.0, 0.0, 0.0, 0.0, 0.0, 1.6878046290776148E9, 0.0, 2023-06-26 13:37:09.077
225.0, 53237.74257156165, 49996.80668077549, 20996.938168637535, -28214.070584067176, -2384.394691514336, -16351.418656279882, 21006.460011775496, 6275.140497105182, 0.062, 0.974, 0.164, 192.0, 0.0, 0.0, 0.0, 0.0, 0.0, 0.0, 0.0, 0.0, 0.0, 1.6878046290806365E9, 0.0, 2023-06-26 13:37:09.080
226.0, 53296.9299908793, 50070.05334735553, 21113.86014388325, -28136.51003080726, -2176.7469855245336, -16254.389733599393, 21127.405301023162, 6344.497960149999, 0.062, 0.974, 0.164, 192.0, 0.0, 0.0, 0.0, 0.0, 0.0, 0.0, 0.0, 0.0, 0.0, 1.6878046290846713E9, 0.0, 2023-06-26 13:37:09.084
227.0, 53285.30708376254, 50018.08554149694, 20980.755505651894, -28366.732998696923, -2182.2902181494496, -16461.568052955634, 20989.003299355903, 6111.25750675887, 0.062, 0.974, 0.164, 192.0, 0.0, 0.0, 0.0, 0.0, 0.0, 0.0, 0.0, 0.0, 0.0, 1.687804629088686E9, 0.0, 2023-06-26 13:37:09.088
228.0, 53216.7095800292, 49929.036191586994, 20836.720864381896, -28484.48198848748, -2402.6784184787775, -16592.973958608385, 20838.88898359406, 6003.924429884485, 0.062, 0.974, 0.164, 192.0, 0.0, 0.0, 0.0, 0.0, 0.0, 0.0, 0.0, 0.0, 0.0, 1.6878046290927055E9, 0.0, 2023-06-26 13:37:09.092
229.0, 53211.97101020468, 49964.32959608193, 20942.19874646649, -28270.419331839006, -2431.3780583593916, -16396.278607401684, 20956.928546062536, 6218.232955721969, 0.062, 0.974, 0.164, 192.0, 0.0, 0.0, 0.0, 0.0, 0.0, 0.0, 0.0, 0.0, 0.0, 1.687804629096702E9, 0.0, 2023-06-26 13:37:09.096
230.0, 53271.44900220025, 50045.39937322133, 21090.860198838735, -28137.694673263395, -2219.1258930117956, -16257.898957478877, 21112.697853171572, 6343.313317693868, 0.062, 0.974, 0.164, 192.0, 0.0, 0.0, 0.0, 0.0, 0.0, 0.0, 0.0, 0.0, 0.0, 1.687804629100741E9, 0.0, 2023-06-26 13:37:09.100
231.0, 53279.36151973743, 50019.091369997426, 21004.023671629868, -28337.586323927204, -2168.9685784540866, -16407.87916277399, 21000.20152332801, 6139.219539072459, 0.062, 0.974, 0.164, 192.0, 0.0, 0.0, 0.0, 0.0, 0.0, 0.0, 0.0, 0.0, 0.0, 1.6878046291057656E9, 0.0, 2023-06-26 13:37:09.105
232.0, 53241.698830330235, 49959.3451570684, 20866.024001362803, -28468.835767368768, -2349.1906939972278, -16558.664030869488, 20845.97448658639, 5994.022607090785, 0.062, 0.974, 0.164, 192.0, 0.0, 0.0, 0.0, 0.0, 0.0, 0.0, 0.0, 0.0, 0.0, 1.6878046291097748E9, 0.0, 2023-06-26 13:37:09.109
233.0, 53229.02539122408, 49975.63957877631, 20935.269705685343, -28297.956681007945, -2429.1875874027714, -16440.311543978638, 20933.61567659565, 6182.045481448828, 0.068, 0.974, 0.162, 192.0, 2.0, 32.0, 30.0, 112.0, 5.0, 16.0, 0.0, 0.0, 0.0, 1.6878046291138084E9, 0.0, 2023-06-26 13:37:09.113
234.0, 53275.27115050211, 50048.14863778933, 21087.775658103903, -28134.90070520648, -2257.5038382415582, -16279.200169944785, 21112.966074105036, 6354.556245154888, 0.068, 0.974, 0.162, 192.0, 0.0, 0.0, 0.0, 0.0, 0.0, 0.0, 0.0, 0.0, 0.0, 1.6878046291178207E9, 0.0, 2023-06-26 13:37:09.117
235.0, 53285.329435506996, 50029.95431780271, 21025.570753284785, -28295.274471673307, -2165.19113364114, -16378.508970559715, 21040.054683691822, 6183.185420416048, 0.068, 0.974, 0.162, 192.0, 0.0, 0.0, 0.0, 0.0, 0.0, 0.0, 0.0, 0.0, 0.0, 1.68780462912184E9, 0.0, 2023-06-26 13:37:09.121
236.0, 53250.795990323546, 49966.05068040499, 20870.784922931784, -28474.714276160514, -2306.275344643038, -16558.775789591764, 20865.97929787389, 5997.934162370463, 0.068, 0.974, 0.162, 192.0, 0.0, 0.0, 0.0, 0.0, 0.0, 0.0, 0.0, 0.0, 0.0, 1.687804629124848E9, 0.0, 2023-06-26 13:37:09.124
237.0, 53224.33152488846, 49964.24018910411, 20897.60701627815, -28353.165489812553, -2437.658898551333, -16487.65253873498, 20908.51466757234, 6132.156387824582, 0.068, 0.974, 0.162, 192.0, 0.0, 0.0, 0.0, 0.0, 0.0, 0.0, 0.0, 0.0, 0.0, 1.6878046291308856E9, 0.0, 2023-06-26 13:37:09.130
238.0, 53265.615196897415, 50035.43049519426, 21056.997305988945, -28156.894821750502, -2300.016856195552, -16299.875533565944, 21083.864102824224, 6327.331820408323, 0.068, 0.974, 0.162, 192.0, 0.0, 0.0, 0.0, 0.0, 0.0, 0.0, 0.0, 0.0, 0.0, 1.6878046291339064E9, 0.0, 2023-06-26 13:37:09.133
239.0, 53305.02132237212, 50061.9173123738, 21061.69117232456, -28243.239610581353, -2159.5584940384024, -16342.746179431222, 21069.0225445059, 6229.319420971802, 0.068, 0.974, 0.162, 192.0, 0.0, 0.0, 0.0, 0.0, 0.0, 0.0, 0.0, 0.0, 0.0, 1.6878046291369092E9, 0.0, 2023-06-26 13:37:09.136
240.0, 53272.00779581163, 49995.28676215253, 20895.975338932913, -28451.602572393727, -2279.408547807759, -16539.977972504854, 20878.965661402424, 6008.953572386929, 0.068, 0.974, 0.162, 192.0, 0.0, 0.0, 0.0, 0.0, 0.0, 0.0, 0.0, 0.0, 0.0, 1.6878046291399243E9, 0.0, 2023-06-26 13:37:09.139
241.0, 53228.064266212496, 49958.339328567905, 20870.2261293204, -28391.81165597578, -2438.6200235629112, -16527.483347354337, 20863.118274583612, 6071.493753372879, 0.068, 0.974, 0.162, 192.0, 0.0, 0.0, 0.0, 0.0, 0.0, 0.0, 0.0, 0.0, 0.0, 1.6878046291449437E9, 0.0, 2023-06-26 13:37:09.144
242.0, 53257.90384506033, 50022.28766945454, 21036.29959062333, -28166.818996288657, -2336.696068846711, -16326.965847845775, 21052.1693291866, 6303.840136985796, 0.068, 0.974, 0.162, 192.0, 0.0, 0.0, 0.0, 0.0, 0.0, 0.0, 0.0, 0.0, 0.0, 1.6878046291489537E9, 0.0, 2023-06-26 13:37:09.148
243.0, 53313.04559863158, 50076.356539291926, 21085.987518547478, -28183.67221160796, -2155.669290503179, -16292.097126495497, 21103.712451900537, 6282.918904175628, 0.068, 0.974, 0.162, 192.0, 0.0, 0.0, 0.0, 0.0, 0.0, 0.0, 0.0, 0.0, 0.0, 1.6878046291530044E9, 0.0, 2023-06-26 13:37:09.153
244.0, 53286.80465064105, 50012.2070327052, 20922.61861832364, -28421.114792956687, -2237.431971720692, -16495.810925461166, 20914.61669380864, 6037.9437849454625, 0.066, 0.974, 0.158, 192.0, 2.0, 16.0, 30.0, 112.0, 4.0, 240.0, 0.0, 0.0, 0.0, 1.6878046291570091E9, 0.0, 2023-06-26 13:37:09.157
245.0, 53237.38494365036, 49963.39082281481, 20860.570175715708, -28419.058432466798, -2420.783331487576, -16541.207318449895, 20847.539108698264, 6041.631822780589, 0.066, 0.974, 0.158, 192.0, 0.0, 0.0, 0.0, 0.0, 0.0, 0.0, 0.0, 0.0, 0.0, 1.68780462916105E9, 0.0, 2023-06-26 13:37:09.161
246.0, 53242.07880998598, 50007.02142799157, 21001.050889617312, -28200.324261227164, -2380.885467634853, -16346.814196922089, 21015.043081646334, 6274.201723838059, 0.066, 0.974, 0.158, 192.0, 0.0, 0.0, 0.0, 0.0, 0.0, 0.0, 0.0, 0.0, 0.0, 1.6878046291651244E9, 0.0, 2023-06-26 13:37:09.165
247.0, 53295.58888621198, 50066.72293743169, 21087.663899381627, -28167.601307344594, -2189.0404449749526, -16289.951359027787, 21104.42770772311, 6299.302732861368, 0.066, 0.974, 0.158, 192.0, 0.0, 0.0, 0.0, 0.0, 0.0, 0.0, 0.0, 0.0, 0.0, 1.6878046291681468E9, 0.0, 2023-06-26 13:37:09.168
248.0, 53295.20890655624, 50029.507282913604, 20958.113188518666, -28381.686315737526, -2197.2211834455948, -16456.427151730913, 20958.85079608569, 6085.731814590909, 0.066, 0.974, 0.158, 192.0, 0.0, 0.0, 0.0, 0.0, 0.0, 0.0, 0.0, 0.0, 0.0, 1.6878046291721504E9, 0.0, 2023-06-26 13:37:09.172
249.0, 53242.816417553004, 49968.688186250714, 20860.503120482343, -28438.973836776477, -2396.9116684093083, -16554.528958145256, 20849.997800588346, 6030.187729619472, 0.066, 0.974, 0.158, 192.0, 0.0, 0.0, 0.0, 0.0, 0.0, 0.0, 0.0, 0.0, 0.0, 1.6878046291771555E9, 0.0, 2023-06-26 13:37:09.177
250.0, 53236.58028084997, 49995.242058663614, 20974.698182904503, -28231.571999975684, -2402.879584178875, -16371.37876407847, 20992.043136601824, 6248.921900859106, 0.066, 0.974, 0.158, 192.0, 0.0, 0.0, 0.0, 0.0, 0.0, 0.0, 0.0, 0.0, 0.0, 1.687804629181126E9, 0.0, 2023-06-26 13:37:09.181
251.0, 53287.765775652624, 50056.44113498225, 21089.56379766033, -28155.24079266081, -2205.3348666828715, -16260.424704602327, 21113.055481082854, 6324.9178320071505, 0.066, 0.974, 0.158, 192.0, 0.0, 0.0, 0.0, 0.0, 0.0, 0.0, 0.0, 0.0, 0.0, 1.6878046291851373E9, 0.0, 2023-06-26 13:37:09.185
252.0, 53283.11661280592, 50019.42664616426, 20973.111209048177, -28366.308315552273, -2193.24257293255, -16437.67403813291, 20973.893520104113, 6100.059282786761, 0.066, 0.974, 0.158, 192.0, 0.0, 0.0, 0.0, 0.0, 0.0, 0.0, 0.0, 0.0, 0.0, 1.687804629189191E9, 0.0, 2023-06-26 13:37:09.189
253.0, 53228.31013540151, 49948.39280228529, 20841.12415803959, -28477.575299450793, -2393.2236305741826, -16576.90305434502, 20827.869573577595, 5984.120784297083, 0.066, 0.974, 0.158, 192.0, 0.0, 0.0, 0.0, 0.0, 0.0, 0.0, 0.0, 0.0, 0.0, 1.6878046291921992E9, 0.0, 2023-06-26 13:37:09.192
254.0, 53230.12062670239, 49977.293607866006, 20940.120034232146, -28281.684611044482, -2440.296404397059, -16437.96461081083, 20947.473758157943, 6187.588714073743, 0.064, 0.984, 0.15, 192.0, 2.0, 0.0, 30.0, 192.0, 4.0, 176.0, 0.0, 0.0, 0.0, 1.6878046291962154E9, 0.0, 2023-06-26 13:37:09.196
255.0, 53288.2798657751, 50057.826943138476, 21090.390812205176, -28140.779213998227, -2238.7283728991, -16286.79976305959, 21114.575399705816, 6334.640840845209, 0.064, 0.984, 0.15, 192.0, 0.0, 0.0, 0.0, 0.0, 0.0, 0.0, 0.0, 0.0, 0.0, 1.687804629202244E9, 0.0, 2023-06-26 13:37:09.202
0.0, 53286.648188429856, 50031.29542247003, 20997.67577620456, -28329.472640689928, -2169.795592998933, -16430.25325897375, 21013.389052556642, 6143.399315285602, 0.064, 0.984, 0.15, 192.0, 0.0, 0.0, 0.0, 0.0, 0.0, 0.0, 0.0, 0.0, 0.0, 1.6878046292062418E9, 0.0, 2023-06-26 13:37:09.206
1.0, 53248.7172780892, 49960.90977918026, 20855.87630938009, -28480.883357630177, -2359.696013891222, -16552.6067081221, 20847.44970172044, 5985.148964542028, 0.064, 0.984, 0.15, 192.0, 0.0, 0.0, 0.0, 0.0, 0.0, 0.0, 0.0, 0.0, 0.0, 1.6878046292102752E9, 0.0, 2023-06-26 13:37:09.210
2.0, 53238.144902961845, 49979.90876196728, 20925.122013702636, -28317.894437062077, -2413.4743110506906, -16425.179412982394, 20925.211420680454, 6154.977518913451, 0.064, 0.984, 0.15, 192.0, 0.0, 0.0, 0.0, 0.0, 0.0, 0.0, 0.0, 0.0, 0.0, 1.687804629214296E9, 0.0, 2023-06-26 13:37:09.214
3.0, 53269.88438008838, 50049.154466289816, 21074.856349808735, -28144.109623922068, -2272.434803537703, -16276.22738793223, 21069.60368986174, 6317.407645870167, 0.064, 0.984, 0.15, 192.0, 0.0, 0.0, 0.0, 0.0, 0.0, 0.0, 0.0, 0.0, 0.0, 1.687804629217292E9, 0.0, 2023-06-26 13:37:09.217
4.0, 53312.26328757564, 50061.447925740234, 21057.332582155774, -28261.232764867877, -2141.3641740517824, -16346.23305156625, 21058.60663158973, 6200.150394457626, 0.064, 0.984, 0.15, 192.0, 0.0, 0.0, 0.0, 0.0, 0.0, 0.0, 0.0, 0.0, 0.0, 1.687804629223333E9, 0.0, 2023-06-26 13:37:09.223
5.0, 53263.35767070743, 49974.56669504246, 20877.60220499065, -28471.137997047663, -2302.1402719188063, -16555.691248856932, 20867.879196152593, 5991.027473333773, 0.064, 0.984, 0.15, 192.0, 0.0, 0.0, 0.0, 0.0, 0.0, 0.0, 0.0, 0.0, 0.0, 1.6878046292263646E9, 0.0, 2023-06-26 13:37:09.226
6.0, 53229.91946100229, 49955.70182272218, 20889.158056874046, -28366.844757419203, -2449.840599279475, -16493.531047526725, 20889.113353385135, 6104.931963078018, 0.064, 0.984, 0.15, 192.0, 0.0, 0.0, 0.0, 0.0, 0.0, 0.0, 0.0, 0.0, 0.0, 1.6878046292293668E9, 0.0, 2023-06-26 13:37:09.229
7.0, 53257.993252038155, 50023.04762876602, 21049.911802996612, -28166.126092210543, -2315.7748360365435, -16292.790030573611, 21072.59882361875, 6313.205517912569, 0.064, 0.984, 0.15, 192.0, 0.0, 0.0, 0.0, 0.0, 0.0, 0.0, 0.0, 0.0, 0.0, 1.6878046292323616E9, 0.0, 2023-06-26 13:37:09.232
8.0, 53304.39547352737, 50059.39156525035, 21070.162483473123, -28233.24838080983, -2147.287386332439, -16325.13300480044, 21082.858274323735, 6240.674107155098, 0.062, 0.978, 0.152, 192.0, 1.0, 240.0, 30.0, 144.0, 4.0, 192.0, 0.0, 0.0, 0.0, 1.6878046292363794E9, 0.0, 2023-06-26 13:37:09.236
9.0, 53290.22446754271, 50005.61326809088, 20916.85186825417, -28432.58123786226, -2254.8886841402873, -16512.440623335915, 20903.351414603167, 6023.6833719829765, 0.062, 0.978, 0.152, 192.0, 0.0, 0.0, 0.0, 0.0, 0.0, 0.0, 0.0, 0.0, 0.0, 1.687804629241423E9, 0.0, 2023-06-26 13:37:09.241
10.0, 53237.1167227169, 49957.33350006742, 20869.04148686427, -28395.678507766548, -2437.3236223845033, -16523.348274630105, 20865.75578042934, 6068.4092126380465, 0.062, 0.978, 0.152, 192.0, 0.0, 0.0, 0.0, 0.0, 0.0, 0.0, 0.0, 0.0, 0.0, 1.687804629244422E9, 0.0, 2023-06-26 13:37:09.244
11.0, 53261.52482766209, 50016.006829262595, 21027.82827947477, -28172.742208569314, -2361.2829877475488, -16323.858955366488, 21042.222802903987, 6300.8002997398735, 0.062, 0.978, 0.152, 192.0, 0.0, 0.0, 0.0, 0.0, 0.0, 0.0, 0.0, 0.0, 0.0, 1.6878046292484744E9, 0.0, 2023-06-26 13:37:09.248
12.0, 53304.79780492757, 50060.50915247311, 21072.330602685288, -28190.28832796673, -2189.286314163961, -16298.266207965162, 21103.019547822423, 6281.466040786033, 0.062, 0.978, 0.152, 192.0, 0.0, 0.0, 0.0, 0.0, 0.0, 0.0, 0.0, 0.0, 0.0, 1.6878046292524934E9, 0.0, 2023-06-26 13:37:09.252
13.0, 53277.707490647736, 49995.733797041634, 20921.702196800972, -28422.455897624004, -2244.5845299463904, -16505.288065110217, 20927.915981759546, 6046.996241449862, 0.062, 0.978, 0.152, 192.0, 0.0, 0.0, 0.0, 0.0, 0.0, 0.0, 0.0, 0.0, 0.0, 1.6878046292565067E9, 0.0, 2023-06-26 13:37:09.256
14.0, 53223.61626906589, 49937.66396494675, 20837.726692882385, -28450.797909593333, -2429.7016775252437, -16576.388964222548, 20836.40793995952, 6026.410284806524, 0.062, 0.978, 0.152, 192.0, 0.0, 0.0, 0.0, 0.0, 0.0, 0.0, 0.0, 0.0, 0.0, 1.6878046292605276E9, 0.0, 2023-06-26 13:37:09.260
15.0, 53243.82224605349, 50005.099177968405, 20986.58931095473, -28212.39420323303, -2391.435491017758, -16329.603353691502, 21003.39782278512, 6260.634214953687, 0.062, 0.978, 0.152, 192.0, 0.0, 0.0, 0.0, 0.0, 0.0, 0.0, 0.0, 0.0, 0.0, 1.6878046292645335E9, 0.0, 2023-06-26 13:37:09.264
16.0, 53303.12142409342, 50069.15927757732, 21084.065268524322, -28162.52746135324, -2182.401976871726, -16261.721105780734, 21110.037995581388, 6305.7847387534075, 0.062, 0.978, 0.152, 192.0, 0.0, 0.0, 0.0, 0.0, 0.0, 0.0, 0.0, 0.0, 0.0, 1.68780462926957E9, 0.0, 2023-06-26 13:37:09.269
17.0, 53309.89400266338, 50037.24098649514, 20978.72149690646, -28363.67080970655, -2189.889811264254, -16440.088026534086, 20972.48536020343, 6101.623904898633, 0.062, 0.978, 0.152, 192.0, 0.0, 0.0, 0.0, 0.0, 0.0, 0.0, 0.0, 0.0, 0.0, 1.6878046292736113E9, 0.0, 2023-06-26 13:37:09.273
18.0, 53254.12640024738, 49968.10704089487, 20859.11731232611, -28440.605514121715, -2404.511261524113, -16535.284106169238, 20846.332114497676, 6018.386008547069, 0.064, 0.978, 0.15, 192.0, 2.0, 0.0, 30.0, 144.0, 4.0, 176.0, 0.0, 0.0, 0.0, 1.687804629277607E9, 0.0, 2023-06-26 13:37:09.277
19.0, 53252.94175779125, 49989.43060510524, 20966.360982222675, -28247.73231121687, -2400.4432440332466, -16396.59153182406, 20973.96057533748, 6222.859766824218, 0.064, 0.978, 0.15, 192.0, 0.0, 0.0, 0.0, 0.0, 0.0, 0.0, 0.0, 0.0, 0.0, 1.6878046292816243E9, 0.0, 2023-06-26 13:37:09.281
20.0, 53297.68995019078, 50053.53540820306, 21084.93698655808, -28151.888030992515, -2200.506889880525, -16275.042745476097, 21124.678388199616, 6327.041247730404, 0.064, 0.978, 0.15, 192.0, 0.0, 0.0, 0.0, 0.0, 0.0, 0.0, 0.0, 0.0, 0.0, 1.6878046292856576E9, 0.0, 2023-06-26 13:37:09.285
21.0, 53309.64813347437, 50032.88239632636, 20996.982872126446, -28344.291847263798, -2159.0444039159306, -16409.24261918576, 20994.546531980817, 6127.171948811048, 0.064, 0.978, 0.15, 192.0, 0.0, 0.0, 0.0, 0.0, 0.0, 0.0, 0.0, 0.0, 0.0, 1.6878046292886672E9, 0.0, 2023-06-26 13:37:09.288
22.0, 53266.73278412018, 49971.9962444301, 20872.014268876825, -28454.798871850835, -2356.410307456292, -16535.686437569435, 20856.055123335736, 6005.578458974178, 0.064, 0.978, 0.15, 192.0, 0.0, 0.0, 0.0, 0.0, 0.0, 0.0, 0.0, 0.0, 0.0, 1.687804629294762E9, 0.0, 2023-06-26 13:37:09.294
23.0, 53243.174045464286, 49977.40536658828, 20940.3435516767, -28288.63600357008, -2430.014601947618, -16423.525383892702, 20944.456272656476, 6181.6431500486315, 0.064, 0.978, 0.15, 192.0, 0.0, 0.0, 0.0, 0.0, 0.0, 0.0, 0.0, 0.0, 0.0, 1.6878046292987025E9, 0.0, 2023-06-26 13:37:09.298
24.0, 53283.563647695024, 50045.19820752123, 21078.969070788513, -28146.38950185651, -2255.603939962857, -16281.167123456851, 21108.45102172506, 6326.951840752583, 0.064, 0.978, 0.15, 192.0, 0.0, 0.0, 0.0, 0.0, 0.0, 0.0, 0.0, 0.0, 0.0, 1.687804629301731E9, 0.0, 2023-06-26 13:37:09.301
25.0, 53311.07864511951, 50049.80266687902, 21027.49300330794, -28293.486332116885, -2151.6683282456793, -16365.299089586628, 21047.78838727336, 6177.016338946383, 0.064, 0.978, 0.15, 192.0, 0.0, 0.0, 0.0, 0.0, 0.0, 0.0, 0.0, 0.0, 0.0, 1.687804629304738E9, 0.0, 2023-06-26 13:37:09.304
26.0, 53257.94854854925, 49959.9933576576, 20860.011382104323, -28481.73272391948, -2330.303469932493, -16561.547405904224, 20862.112446083123, 5993.642627435044, 0.064, 0.978, 0.15, 192.0, 0.0, 0.0, 0.0, 0.0, 0.0, 0.0, 0.0, 0.0, 0.0, 1.6878046293087535E9, 0.0, 2023-06-26 13:37:09.308
27.0, 53233.22751918167, 49958.92047392375, 20907.84411523868, -28337.251047760376, -2437.7706572736097, -16482.377527043525, 20912.247408896375, 6138.683097205531, 0.064, 0.978, 0.15, 192.0, 0.0, 0.0, 0.0, 0.0, 0.0, 0.0, 0.0, 0.0, 0.0, 1.6878046293128119E9, 0.0, 2023-06-26 13:37:09.312
28.0, 53273.19243826776, 50037.35274521742, 21070.944794529056, -28146.1436326675, -2279.565010018946, -16288.252626449184, 21097.923350086614, 6329.589346598309, 0.064, 0.978, 0.15, 192.0, 0.0, 0.0, 0.0, 0.0, 0.0, 0.0, 0.0, 0.0, 0.0, 1.6878046293167996E9, 0.0, 2023-06-26 13:37:09.316
29.0, 53308.75406369616, 50053.75892564761, 21055.27622166589, -28256.896526443546, -2136.1115141047853, -16341.09215034153, 21071.280070695888, 6208.286429439358, 0.056, 0.982, 0.15, 192.0, 1.0, 192.0, 30.0, 176.0, 4.0, 176.0, 0.0, 0.0, 0.0, 1.6878046293208163E9, 0.0, 2023-06-26 13:37:09.320
30.0, 53279.04859531506, 49983.77561375804, 20894.65658601005, -28451.96020030501, -2282.7166059871442, -16540.983801005343, 20888.57691151821, 6006.785453174764, 0.056, 0.982, 0.15, 192.0, 0.0, 0.0, 0.0, 0.0, 0.0, 0.0, 0.0, 0.0, 0.0, 1.6878046293278792E9, 0.0, 2023-06-26 13:37:09.327
31.0, 53226.07496095598, 49944.45889526116, 20873.824760177704, -28379.47349303645, -2447.873645767408, -16513.379396603035, 20881.111428870136, 6087.5423058917895, 0.056, 0.982, 0.15, 192.0, 0.0, 0.0, 0.0, 0.0, 0.0, 0.0, 0.0, 0.0, 0.0, 1.6878046293308744E9, 0.0, 2023-06-26 13:37:09.330
32.0, 53256.74155434866, 50017.45969265219, 21039.78646275836, -28160.20287992989, -2333.633879856334, -16302.267170222662, 21066.9214805271, 6310.165680666648, 0.056, 0.982, 0.15, 192.0, 0.0, 0.0, 0.0, 0.0, 0.0, 0.0, 0.0, 0.0, 0.0, 1.6878046293348615E9, 0.0, 2023-06-26 13:37:09.334
33.0, 53308.57524974051, 50060.397393750834, 21071.727105584992, -28205.711031640894, -2156.5857120258465, -16303.161240000874, 21096.470486697017, 6254.33102301729, 0.056, 0.982, 0.15, 192.0, 0.0, 0.0, 0.0, 0.0, 0.0, 0.0, 0.0, 0.0, 0.0, 1.6878046293378952E9, 0.0, 2023-06-26 13:37:09.337
34.0, 53278.132173792386, 49985.16142191427, 20903.239655880887, -28438.39269142064, -2261.25893131005, -16515.189887903918, 20903.463173325443, 6019.011857391818, 0.056, 0.982, 0.15, 192.0, 0.0, 0.0, 0.0, 0.0, 0.0, 0.0, 0.0, 0.0, 0.0, 1.687804629340917E9, 0.0, 2023-06-26 13:37:09.340
35.0, 53233.67455407078, 49954.852456432876, 20861.397190260555, -28406.317938127275, -2435.6248898059, -16531.149033445006, 20865.420504262507, 6062.173075935016, 0.056, 0.982, 0.15, 192.0, 0.0, 0.0, 0.0, 0.0, 0.0, 0.0, 0.0, 0.0, 0.0, 1.6878046293449092E9, 0.0, 2023-06-26 13:37:09.344
36.0, 53244.96218502071, 50008.47429138116, 21005.565941997284, -28183.33693544113, -2376.459822232702, -16350.748103946222, 21040.12173892519, 6286.741052477486, 0.056, 0.982, 0.15, 192.0, 0.0, 0.0, 0.0, 0.0, 0.0, 0.0, 0.0, 0.0, 0.0, 1.6878046293489497E9, 0.0, 2023-06-26 13:37:09.348
37.0, 53285.463545973726, 50046.80753312201, 21064.462788637018, -28189.371906444063, -2187.8110990299106, -16277.903768766377, 21089.2285214935, 6272.637101726187, 0.056, 0.982, 0.15, 192.0, 0.0, 0.0, 0.0, 0.0, 0.0, 0.0, 0.0, 0.0, 0.0, 1.6878046293529751E9, 0.0, 2023-06-26 13:37:09.352
38.0, 53281.753156394145, 50004.94271575722, 20926.172545692032, -28405.245054393417, -2214.029695275986, -16471.089896093596, 20930.598191094185, 6049.432581595491, 0.056, 0.982, 0.15, 192.0, 0.0, 0.0, 0.0, 0.0, 0.0, 0.0, 0.0, 0.0, 0.0, 1.687804629356995E9, 0.0, 2023-06-26 13:37:09.356
39.0, 53238.34606866194, 49952.70668896517, 20849.617820932606, -28426.34510115923, -2402.3878458008585, -16535.574678847155, 20853.50702446783, 6031.707648242432, 0.06, 0.976, 0.152, 192.0, 1.0, 224.0, 30.0, 128.0, 4.0, 192.0, 0.0, 0.0, 0.0, 1.68780462936001E9, 0.0, 2023-06-26 13:37:09.360
40.0, 53237.13907446135, 49993.76684352956, 20976.1510462941, -28219.367947503084, -2402.946639412241, -16369.970604177786, 20997.04992735981, 6247.223168280503, 0.06, 0.976, 0.152, 192.0, 0.0, 0.0, 0.0, 0.0, 0.0, 0.0, 0.0, 0.0, 0.0, 1.6878046293640277E9, 0.0, 2023-06-26 13:37:09.364
41.0, 53296.438252501284, 50062.18553330726, 21088.043879037366, -28149.943429224903, -2204.731369582578, -16270.639451818402, 21116.22942879551, 6315.686561547108, 0.06, 0.976, 0.152, 192.0, 0.0, 0.0, 0.0, 0.0, 0.0, 0.0, 0.0, 0.0, 0.0, 1.687804629370067E9, 0.0, 2023-06-26 13:37:09.370
42.0, 53310.60925848595, 50037.03982079504, 20985.561130709786, -28349.70096942198, -2172.5448575669357, -16434.83536658709, 21000.44739251702, 6113.895012604597, 0.06, 0.976, 0.152, 192.0, 0.0, 0.0, 0.0, 0.0, 0.0, 0.0, 0.0, 0.0, 0.0, 1.6878046293741457E9, 0.0, 2023-06-26 13:37:09.374
43.0, 53234.05453372652, 49947.45402901817, 20841.03475106177, -28462.510223687917, -2389.0438543610403, -16563.335545460646, 20845.192175530457, 6004.036188606762, 0.06, 0.976, 0.152, 192.0, 0.0, 0.0, 0.0, 0.0, 0.0, 0.0, 0.0, 0.0, 0.0, 1.6878046293781245E9, 0.0, 2023-06-26 13:37:09.378
44.0, 53232.37815289237, 49979.34996835589, 20945.931487790524, -28258.01411366631, -2423.5772995444895, -16407.34272090706, 20970.29488924681, 6215.617801620699, 0.06, 0.976, 0.152, 192.0, 0.0, 0.0, 0.0, 0.0, 0.0, 0.0, 0.0, 0.0, 0.0, 1.6878046293811572E9, 0.0, 2023-06-26 13:37:09.381
45.0, 53287.74342390817, 50056.284672771064, 21080.55604464484, -28134.453670317373, -2226.434913448681, -16270.17006518484, 21122.599675965273, 6329.455236131577, 0.06, 0.976, 0.152, 192.0, 0.0, 0.0, 0.0, 0.0, 0.0, 0.0, 0.0, 0.0, 0.0, 1.6878046293851547E9, 0.0, 2023-06-26 13:37:09.385
46.0, 53313.22441258722, 50041.48781794165, 21006.907046664604, -28315.435745171995, -2174.4224041011817, -16404.59345633906, 21024.430814317562, 6139.577166983744, 0.06, 0.976, 0.152, 192.0, 0.0, 0.0, 0.0, 0.0, 0.0, 0.0, 0.0, 0.0, 0.0, 1.6878046293881445E9, 0.0, 2023-06-26 13:37:09.388
47.0, 53266.375156208895, 49966.095383893895, 20864.45937925093, -28458.15163351913, -2352.074069031962, -16557.434684924447, 20864.481730995387, 5998.157679815016, 0.06, 0.976, 0.152, 192.0, 0.0, 0.0, 0.0, 0.0, 0.0, 0.0, 0.0, 0.0, 0.0, 1.6878046293921816E9, 0.0, 2023-06-26 13:37:09.392
48.0, 53252.69588860225, 49979.68524452273, 20936.566106863753, -28286.154959935542, -2429.2546426361373, -16451.129788295006, 20949.3960081811, 6176.837524990741, 0.06, 0.976, 0.152, 192.0, 0.0, 0.0, 0.0, 0.0, 0.0, 0.0, 0.0, 0.0, 0.0, 1.6878046293961952E9, 0.0, 2023-06-26 13:37:09.396
49.0, 53287.4752029747, 50046.69577439973, 21077.784428332383, -28133.961931939357, -2259.4707917536252, -16279.826018789534, 21102.9301408446, 6327.041247730404, 0.058, 0.976, 0.158, 192.0, 1.0, 208.0, 30.0, 128.0, 4.0, 240.0, 0.0, 0.0, 0.0, 1.6878046294002144E9, 0.0, 2023-06-26 13:37:09.400
50.0, 53325.9872586712, 50068.645187454844, 21033.43856733305, -28269.70407601644, -2150.8189619563773, -16341.762702675189, 21049.040084962857, 6182.961902971495, 0.058, 0.976, 0.158, 192.0, 0.0, 0.0, 0.0, 0.0, 0.0, 0.0, 0.0, 0.0, 0.0, 1.6878046294052424E9, 0.0, 2023-06-26 13:37:09.405
51.0, 53286.6258366854, 49990.145860927805, 20872.57306248821, -28447.400444436127, -2340.8534933153983, -16566.263623984294, 20871.343716543164, 5993.575572201678, 0.058, 0.976, 0.158, 192.0, 0.0, 0.0, 0.0, 0.0, 0.0, 0.0, 0.0, 0.0, 0.0, 1.6878046294082701E9, 0.0, 2023-06-26 13:37:09.408
52.0, 53258.64145262736, 49975.21489563166, 20909.408737350554, -28324.488201676395, -2427.8911862243635, -16499.029576662728, 20917.008330465356, 6125.562623210267, 0.058, 0.976, 0.158, 192.0, 0.0, 0.0, 0.0, 0.0, 0.0, 0.0, 0.0, 0.0, 0.0, 1.6878046294122632E9, 0.0, 2023-06-26 13:37:09.412
53.0, 53295.72299667871, 50051.23317852416, 21075.482198653484, -28123.881295190014, -2269.64083548079, -16293.661748607368, 21087.708602870538, 6318.860509259762, 0.058, 0.976, 0.158, 192.0, 0.0, 0.0, 0.0, 0.0, 0.0, 0.0, 0.0, 0.0, 0.0, 1.6878046294163013E9, 0.0, 2023-06-26 13:37:09.416
54.0, 53324.534395281604, 50070.679196200275, 21061.78057930238, -28223.63713069405, -2148.919063677676, -16322.741368143723, 21071.347125929253, 6226.6595633816205, 0.058, 0.976, 0.158, 192.0, 0.0, 0.0, 0.0, 0.0, 0.0, 0.0, 0.0, 0.0, 0.0, 1.6878046294203231E9, 0.0, 2023-06-26 13:37:09.420
55.0, 53280.993197082666, 49993.83389876293, 20885.984109161393, -28436.358682675207, -2285.4658705551474, -16525.136414186527, 20886.788771961783, 6008.931220642474, 0.058, 0.976, 0.158, 192.0, 0.0, 0.0, 0.0, 0.0, 0.0, 0.0, 0.0, 0.0, 0.0, 1.6878046294243298E9, 0.0, 2023-06-26 13:37:09.424
56.0, 53228.37719063487, 49946.671717962236, 20856.27864078029, -28376.18778660152, -2449.3265091570033, -16509.490193067813, 20871.65664096554, 6069.258578927348, 0.058, 0.976, 0.158, 192.0, 0.0, 0.0, 0.0, 0.0, 0.0, 0.0, 0.0, 0.0, 0.0, 1.6878046294283397E9, 0.0, 2023-06-26 13:37:09.428
57.0, 53264.564664908015, 50025.059285767, 21038.087730179755, -28149.272876891242, -2342.686336360733, -16297.148620742397, 21061.46765488001, 6310.903288233672, 0.058, 0.976, 0.158, 192.0, 0.0, 0.0, 0.0, 0.0, 0.0, 0.0, 0.0, 0.0, 0.0, 1.6878046294333916E9, 0.0, 2023-06-26 13:37:09.433
58.0, 53325.56257552655, 50079.44108002676, 21088.043879037366, -28175.938508026426, -2160.832543472355, -16270.12536169593, 21105.142963545677, 6277.8450581842735, 0.058, 0.976, 0.158, 192.0, 0.0, 0.0, 0.0, 0.0, 0.0, 0.0, 0.0, 0.0, 0.0, 1.6878046294373715E9, 0.0, 2023-06-26 13:37:09.437
59.0, 53305.803633428055, 50021.86298630989, 20932.408682395064, -28393.264519365373, -2232.246367007061, -16475.87316940703, 20930.53113586082, 6045.252805382348, 0.06, 0.978, 0.158, 192.0, 1.0, 224.0, 30.0, 144.0, 4.0, 240.0, 0.0, 0.0, 0.0, 1.687804629441416E9, 0.0, 2023-06-26 13:37:09.441
60.0, 53246.68326934377, 49964.217837359654, 20859.94432687096, -28394.0021269324, -2429.209939147227, -16538.18983294843, 20872.975393888402, 6049.119657173116, 0.06, 0.978, 0.158, 192.0, 0.0, 0.0, 0.0, 0.0, 0.0, 0.0, 0.0, 0.0, 0.0, 1.6878046294454336E9, 0.0, 2023-06-26 13:37:09.445
61.0, 53254.39462118085, 50011.55883211599, 20998.54749423832, -28178.352496427597, -2380.952522868219, -16347.66356321139, 21038.15478541312, 6274.157020349147, 0.06, 0.978, 0.158, 192.0, 0.0, 0.0, 0.0, 0.0, 0.0, 0.0, 0.0, 0.0, 0.0, 1.687804629449464E9, 0.0, 2023-06-26 13:37:09.449
62.0, 53307.16708983983, 50070.00864386662, 21076.01864052041, -28155.62077231655, -2183.474860605581, -16277.702603066278, 21123.985484121502, 6300.286209617402, 0.06, 0.978, 0.158, 192.0, 0.0, 0.0, 0.0, 0.0, 0.0, 0.0, 0.0, 0.0, 0.0, 1.6878046294534607E9, 0.0, 2023-06-26 13:37:09.453
63.0, 53297.35467402395, 50021.14773048732, 20939.58359236522, -28373.08089412223, -2212.107445252829, -16463.758523912256, 20963.34349672121, 6071.158477206049, 0.06, 0.978, 0.158, 192.0, 0.0, 0.0, 0.0, 0.0, 0.0, 0.0, 0.0, 0.0, 0.0, 1.6878046294575102E9, 0.0, 2023-06-26 13:37:09.457
64.0, 53248.270243200095, 49963.92726468173, 20850.623649433095, -28422.947636002024, -2420.179834387283, -16548.762208075786, 20859.94432687096, 6022.47637778239, 0.06, 0.978, 0.158, 192.0, 0.0, 0.0, 0.0, 0.0, 0.0, 0.0, 0.0, 0.0, 0.0, 1.687804629462528E9, 0.0, 2023-06-26 13:37:09.462
65.0, 53257.702679360234, 50008.966029759176, 20975.39108698262, -28208.88497935355, -2411.7755784720875, -16379.514799060202, 21005.476535019465, 6249.592453192766, 0.06, 0.978, 0.158, 192.0, 0.0, 0.0, 0.0, 0.0, 0.0, 0.0, 0.0, 0.0, 0.0, 1.6878046294655466E9, 0.0, 2023-06-26 13:37:09.465
66.0, 53307.45766251775, 50073.406109023825, 21088.490913926475, -28132.397309827487, -2190.8509362758323, -16270.348879140483, 21124.27605679942, 6330.595175098798, 0.06, 0.978, 0.158, 192.0, 0.0, 0.0, 0.0, 0.0, 0.0, 0.0, 0.0, 0.0, 0.0, 1.6878046294685466E9, 0.0, 2023-06-26 13:37:09.468
67.0, 53315.034903888096, 50046.204036021714, 20983.571825453262, -28331.864277346645, -2172.053119188919, -16416.43988090037, 20999.843895416725, 6118.5441754513, 0.06, 0.978, 0.158, 192.0, 0.0, 0.0, 0.0, 0.0, 0.0, 0.0, 0.0, 0.0, 0.0, 1.6878046294725711E9, 0.0, 2023-06-26 13:37:09.472
68.0, 53260.94368230626, 49971.81743047445, 20849.55076569924, -28439.62203736568, -2373.330578008959, -16546.147053974517, 20870.13672234258, 6011.076988110183, 0.06, 0.978, 0.158, 192.0, 0.0, 0.0, 0.0, 0.0, 0.0, 0.0, 0.0, 0.0, 0.0, 1.687804629476596E9, 0.0, 2023-06-26 13:37:09.476
69.0, 53250.863045556915, 49996.53845984203, 20940.052978998778, -28245.295971071242, -2419.0398954200623, -16409.466136630315, 20984.845874887214, 6212.488557396956, 0.06, 0.974, 0.156, 192.0, 1.0, 224.0, 30.0, 112.0, 4.0, 224.0, 0.0, 0.0, 0.0, 1.687804629480602E9, 0.0, 2023-06-26 13:37:09.480
70.0, 53288.816307642024, 50056.977576849175, 21068.955489272535, -28133.939580194903, -2247.1996840476613, -16276.450905376782, 21114.307178772353, 6322.995581983993, 0.06, 0.974, 0.156, 192.0, 0.0, 0.0, 0.0, 0.0, 0.0, 0.0, 0.0, 0.0, 0.0, 1.6878046294846199E9, 0.0, 2023-06-26 13:37:09.484
71.0, 53307.85999391795, 50047.56749243349, 20990.322052278763, -28304.21516945543, -2174.511811079003, -16423.86066005953, 21019.133450881654, 6146.796780442808, 0.06, 0.974, 0.156, 192.0, 0.0, 0.0, 0.0, 0.0, 0.0, 0.0, 0.0, 0.0, 0.0, 1.6878046294886396E9, 0.0, 2023-06-26 13:37:09.488
72.0, 53268.81149635452, 49978.85822997788, 20848.634344176575, -28447.020464780388, -2353.728098121655, -16572.678574642967, 20867.56627173022, 5998.939990870952, 0.06, 0.974, 0.156, 192.0, 0.0, 0.0, 0.0, 0.0, 0.0, 0.0, 0.0, 0.0, 0.0, 1.6878046294916513E9, 0.0, 2023-06-26 13:37:09.491
73.0, 53237.653164583826, 49969.22462811764, 20896.489429055386, -28298.470771130418, -2466.8726285544194, -16438.165776510927, 20926.440766625496, 6145.992117642417, 0.06, 0.974, 0.156, 192.0, 0.0, 0.0, 0.0, 0.0, 0.0, 0.0, 0.0, 0.0, 0.0, 1.687804629495691E9, 0.0, 2023-06-26 13:37:09.495
74.0, 53287.20698204124, 50054.34007100345, 21062.83111129178, -28123.076632389624, -2268.366786046837, -16267.800780272579, 21094.682347140595, 6321.162738938659, 0.06, 0.974, 0.156, 192.0, 0.0, 0.0, 0.0, 0.0, 0.0, 0.0, 0.0, 0.0, 0.0, 1.6878046294996817E9, 0.0, 2023-06-26 13:37:09.499
75.0, 53316.152491110865, 50064.130135074876, 21033.25975337741, -28255.26484909831, -2149.3884503112376, -16355.933708659853, 21048.59305007375, 6182.336054126747, 0.06, 0.974, 0.156, 192.0, 0.0, 0.0, 0.0, 0.0, 0.0, 0.0, 0.0, 0.0, 0.0, 1.6878046295047083E9, 0.0, 2023-06-26 13:37:09.504
76.0, 53282.46841221672, 49997.074901708955, 20878.71979221342, -28430.994264005934, -2297.334646860915, -16535.284106169238, 20877.177521846, 6004.1926508179495, 0.06, 0.974, 0.156, 192.0, 0.0, 0.0, 0.0, 0.0, 0.0, 0.0, 0.0, 0.0, 0.0, 1.6878046295087264E9, 0.0, 2023-06-26 13:37:09.508
77.0, 53234.45686512672, 49969.58225602892, 20873.444780521964, -28335.149983781575, -2457.954282516752, -16480.701146209376, 20897.3834988336, 6111.369265481147, 0.06, 0.974, 0.156, 192.0, 0.0, 0.0, 0.0, 0.0, 0.0, 0.0, 0.0, 0.0, 0.0, 1.687804629512749E9, 0.0, 2023-06-26 13:37:09.512
78.0, 53267.58215040948, 50032.48006492616, 21034.220878388987, -28137.51585930775, -2313.8302342689317, -16299.98729228822, 21083.350012701754, 6324.828425029329, 0.06, 0.974, 0.156, 192.0, 0.0, 0.0, 0.0, 0.0, 0.0, 0.0, 0.0, 0.0, 0.0, 1.687804629516767E9, 0.0, 2023-06-26 13:37:09.516
79.0, 53302.49557524867, 50051.43434422426, 21045.083826194266, -28217.91508411349, -2159.1114591492965, -16323.657789666391, 21078.432628921586, 6232.4710169400005, 0.06, 0.974, 0.156, 192.0, 0.0, 0.0, 0.0, 0.0, 0.0, 0.0, 0.0, 0.0, 0.0, 1.687804629520789E9, 0.0, 2023-06-26 13:37:09.520
80.0, 53277.93100809229, 49994.03506446303, 20896.578836033208, -28421.00303423441, -2279.0732716409293, -16519.101443183594, 20904.312539614744, 6020.263555081315, 0.058, 0.974, 0.158, 192.0, 1.0, 208.0, 30.0, 112.0, 4.0, 240.0, 0.0, 0.0, 0.0, 1.687804629523794E9, 0.0, 2023-06-26 13:37:09.523
81.0, 53240.2683186851, 49968.196447872695, 20873.265966566323, -28359.71455093796, -2425.5442530565565, -16507.634998278023, 20890.40975456354, 6087.4305471695125, 0.058, 0.974, 0.158, 192.0, 0.0, 0.0, 0.0, 0.0, 0.0, 0.0, 0.0, 0.0, 0.0, 1.687804629529849E9, 0.0, 2023-06-26 13:37:09.529
82.0, 53253.34408919145, 50013.97282051716, 21014.864267690693, -28159.10764445158, -2355.9632725671854, -16323.903658855399, 21051.945811742047, 6295.569991537332, 0.058, 0.974, 0.158, 192.0, 0.0, 0.0, 0.0, 0.0, 0.0, 0.0, 0.0, 0.0, 0.0, 1.687804629533856E9, 0.0, 2023-06-26 13:37:09.533
83.0, 53298.24874380216, 50054.94356810374, 21057.91372751161, -28183.985136030333, -2177.9763314695756, -16297.148620742397, 21098.303329742354, 6266.602130723254, 0.058, 0.974, 0.158, 192.0, 0.0, 0.0, 0.0, 0.0, 0.0, 0.0, 0.0, 0.0, 0.0, 1.687804629536866E9, 0.0, 2023-06-26 13:37:09.536
84.0, 53294.85127864496, 50020.499529898116, 20921.702196800972, -28393.599795532205, -2229.5641576724242, -16484.210370088862, 20956.325048962244, 6058.932072988996, 0.058, 0.974, 0.158, 192.0, 0.0, 0.0, 0.0, 0.0, 0.0, 0.0, 0.0, 0.0, 0.0, 1.6878046295418997E9, 0.0, 2023-06-26 13:37:09.541
85.0, 53235.59680409394, 49960.17217161324, 20842.353503984632, -28411.86117075219, -2423.5102443111236, -16564.31902221668, 20874.428257278, 6038.010840178828, 0.058, 0.974, 0.158, 192.0, 0.0, 0.0, 0.0, 0.0, 0.0, 0.0, 0.0, 0.0, 0.0, 1.6878046295449252E9, 0.0, 2023-06-26 13:37:09.544
86.0, 53238.63664133986, 49995.28676215253, 20965.735133377926, -28197.038554792234, -2393.2459823186377, -16361.991031407242, 21026.241305618445, 6256.6556044406425, 0.058, 0.974, 0.158, 192.0, 0.0, 0.0, 0.0, 0.0, 0.0, 0.0, 0.0, 0.0, 0.0, 1.6878046295479455E9, 0.0, 2023-06-26 13:37:09.547
87.0, 53290.24681928716, 50057.49166697165, 21062.49583512495, -28150.926905980934, -2203.6808375931787, -16280.384812400916, 21122.823193409826, 6299.81682298384, 0.058, 0.974, 0.158, 192.0, 0.0, 0.0, 0.0, 0.0, 0.0, 0.0, 0.0, 0.0, 0.0, 1.6878046295519388E9, 0.0, 2023-06-26 13:37:09.551
88.0, 53291.4314617433, 50020.61128862039, 20947.473758157943, -28357.144100325597, -2181.3067413934164, -16451.62152667302, 20974.072334059758, 6082.356701178158, 0.058, 0.974, 0.158, 192.0, 0.0, 0.0, 0.0, 0.0, 0.0, 0.0, 0.0, 0.0, 0.0, 1.687804629555967E9, 0.0, 2023-06-26 13:37:09.555
89.0, 53232.04287672554, 49947.63284297381, 20827.958980555413, -28436.7610140754, -2386.1828310707606, -16553.478426155856, 20869.332059542186, 6017.849566680142, 0.058, 0.974, 0.158, 192.0, 0.0, 0.0, 0.0, 0.0, 0.0, 0.0, 0.0, 0.0, 0.0, 1.6878046295599864E9, 0.0, 2023-06-26 13:37:09.559
90.0, 53217.40248410732, 49969.96223568467, 20925.233772424912, -28238.25517156782, -2422.5491192995455, -16408.125031962994, 20982.454238230497, 6211.303914940824, 0.064, 0.978, 0.158, 192.0, 2.0, 0.0, 30.0, 144.0, 4.0, 240.0, 0.0, 0.0, 0.0, 1.68780462956401E9, 0.0, 2023-06-26 13:37:09.564
91.0, 53271.53840917807, 50040.705506885715, 21051.431721619574, -28133.134917394513, -2234.4144862192256, -16287.738536326711, 21119.537486974896, 6313.8313667573175, 0.064, 0.978, 0.158, 192.0, 0.0, 0.0, 0.0, 0.0, 0.0, 0.0, 0.0, 0.0, 0.0, 1.6878046295680113E9, 0.0, 2023-06-26 13:37:09.568
92.0, 53288.078700075, 50023.427608421756, 20962.739999620917, -28329.584399412204, -2192.259096176517, -16462.149198311472, 21003.666043718582, 6111.659838159066, 0.064, 0.978, 0.158, 192.0, 0.0, 0.0, 0.0, 0.0, 0.0, 0.0, 0.0, 0.0, 0.0, 1.687804629573048E9, 0.0, 2023-06-26 13:37:09.573
93.0, 53236.62498433888, 49949.64449997479, 20824.40505318702, -28447.355740947216, -2387.590990971445, -16605.42388026999, 20858.26794603681, 5997.330665270169, 0.064, 0.978, 0.158, 192.0, 0.0, 0.0, 0.0, 0.0, 0.0, 0.0, 0.0, 0.0, 0.0, 1.6878046295761375E9, 0.0, 2023-06-26 13:37:09.576
94.0, 53224.979725477664, 49967.68235775022, 20906.771231504827, -28260.897488701044, -2450.779372546598, -16420.463194902324, 20957.085008273723, 6184.593580316732, 0.064, 0.978, 0.158, 192.0, 0.0, 0.0, 0.0, 0.0, 0.0, 0.0, 0.0, 0.0, 0.0, 1.6878046295801313E9, 0.0, 2023-06-26 13:37:09.580
95.0, 53279.85325811544, 50048.662727911804, 21056.863195522215, -28108.547998493672, -2262.7564981885553, -16255.127341166419, 21127.60646672326, 6332.629183844231, 0.064, 0.978, 0.158, 192.0, 0.0, 0.0, 0.0, 0.0, 0.0, 0.0, 0.0, 0.0, 0.0, 1.6878046295841196E9, 0.0, 2023-06-26 13:37:09.584
96.0, 53308.061159618046, 50048.52861744507, 21000.78266868385, -28263.713808502416, -2162.8442004733324, -16367.422505309882, 21063.524015369894, 6172.009548188395, 0.064, 0.978, 0.158, 192.0, 0.0, 0.0, 0.0, 0.0, 0.0, 0.0, 0.0, 0.0, 0.0, 1.687804629588142E9, 0.0, 2023-06-26 13:37:09.588
97.0, 53259.40141193884, 49971.81743047445, 20849.193137787955, -28427.797964548823, -2314.4784348581356, -16539.03919923773, 20885.47001903892, 6004.438520006957, 0.064, 0.978, 0.158, 192.0, 0.0, 0.0, 0.0, 0.0, 0.0, 0.0, 0.0, 0.0, 0.0, 1.6878046295921464E9, 0.0, 2023-06-26 13:37:09.592
98.0, 53228.64541156834, 49964.03902340401, 20885.71588822793, -28293.776904794802, -2444.9679189882186, -16469.54762572618, 20927.223077681432, 6146.841483931718, 0.064, 0.978, 0.158, 192.0, 0.0, 0.0, 0.0, 0.0, 0.0, 0.0, 0.0, 0.0, 0.0, 1.6878046295961533E9, 0.0, 2023-06-26 13:37:09.596
99.0, 53267.06806028701, 50029.08259976895, 21039.02650344688, -28124.104812634567, -2295.3006381154823, -16298.802649832089, 21107.71341415804, 6326.01306748546, 0.064, 0.978, 0.158, 192.0, 0.0, 0.0, 0.0, 0.0, 0.0, 0.0, 0.0, 0.0, 0.0, 1.687804629601192E9, 0.0, 2023-06-26 13:37:09.601
100.0, 53304.082549105, 50054.47418147018, 21021.16745962709, -28234.745947688338, -2158.8208864713774, -16357.610089494001, 21088.781486604392, 6212.130929485671, 0.066, 0.976, 0.158, 192.0, 2.0, 16.0, 30.0, 128.0, 4.0, 240.0, 0.0, 0.0, 0.0, 1.687804629604184E9, 0.0, 2023-06-26 13:37:09.604
101.0, 53263.96116780772, 49980.55696255648, 20858.446759992454, -28427.038005237344, -2308.018780710552, -16545.767074318777, 20899.61867327913, 6000.638723449555, 0.066, 0.976, 0.158, 192.0, 0.0, 0.0, 0.0, 0.0, 0.0, 0.0, 0.0, 0.0, 0.0, 1.6878046296072056E9, 0.0, 2023-06-26 13:37:09.607
102.0, 53224.510338844106, 49958.495790779096, 20863.788826917273, -28339.59798092818, -2453.2157126922266, -16492.97225391534, 20905.340719859687, 6097.242962985392, 0.066, 0.976, 0.158, 192.0, 0.0, 0.0, 0.0, 0.0, 0.0, 0.0, 0.0, 0.0, 0.0, 1.6878046296132376E9, 0.0, 2023-06-26 13:37:09.613
103.0, 53269.88438008838, 50039.76673361859, 21034.73496851146, -28118.56158000965, -2320.915737261264, -16304.412937690371, 21094.212960507033, 6318.100549948282, 0.066, 0.976, 0.158, 192.0, 0.0, 0.0, 0.0, 0.0, 0.0, 0.0, 0.0, 0.0, 0.0, 1.6878046296172535E9, 0.0, 2023-06-26 13:37:09.617
104.0, 53314.07377887652, 50072.82496366799, 21054.985648987968, -28183.71691509687, -2156.250435859017, -16317.913391341377, 21108.965111847534, 6245.837360124274, 0.066, 0.976, 0.158, 192.0, 0.0, 0.0, 0.0, 0.0, 0.0, 0.0, 0.0, 0.0, 0.0, 1.6878046296212592E9, 0.0, 2023-06-26 13:37:09.621
105.0, 53273.862990601425, 49996.47140460866, 20877.66926022402, -28415.795077776325, -2273.083004126907, -16527.416292120968, 20910.258103639855, 6004.907906640519, 0.066, 0.976, 0.158, 192.0, 0.0, 0.0, 0.0, 0.0, 0.0, 0.0, 0.0, 0.0, 0.0, 1.6878046296242995E9, 0.0, 2023-06-26 13:37:09.624
106.0, 53233.04870522603, 49957.80288670098, 20839.82775686118, -28377.260670335374, -2442.2857096535813, -16539.64269633802, 20880.664393981027, 6055.489904342879, 0.066, 0.976, 0.158, 192.0, 0.0, 0.0, 0.0, 0.0, 0.0, 0.0, 0.0, 0.0, 0.0, 1.6878046296273043E9, 0.0, 2023-06-26 13:37:09.627
107.0, 53253.38879268036, 50018.68903859724, 20990.076183089757, -28150.882202492026, -2375.588104198945, -16345.562499232592, 21065.245099692955, 6288.640950756187, 0.066, 0.976, 0.158, 192.0, 0.0, 0.0, 0.0, 0.0, 0.0, 0.0, 0.0, 0.0, 0.0, 1.687804629631349E9, 0.0, 2023-06-26 13:37:09.631
108.0, 53303.2331828157, 50065.515943231105, 21056.036180977368, -28153.43030135993, -2190.0909769643517, -16292.99119627371, 21127.718225445537, 6284.550581520865, 0.066, 0.976, 0.158, 192.0, 0.0, 0.0, 0.0, 0.0, 0.0, 0.0, 0.0, 0.0, 0.0, 1.6878046296353433E9, 0.0, 2023-06-26 13:37:09.635
109.0, 53293.59958095546, 50019.717218842175, 20923.311522401753, -28371.337458054717, -2227.5525006714465, -16466.44073324689, 20969.601985168694, 6067.850419026664, 0.066, 0.976, 0.158, 192.0, 0.0, 0.0, 0.0, 0.0, 0.0, 0.0, 0.0, 0.0, 0.0, 1.6878046296403751E9, 0.0, 2023-06-26 13:37:09.640
110.0, 53232.22169068119, 49952.2373023316, 20831.535259668264, -28405.37916486015, -2438.441209607269, -16553.701943600412, 20874.65177472255, 6030.947688930952, 0.06, 0.978, 0.156, 192.0, 1.0, 224.0, 30.0, 144.0, 4.0, 224.0, 0.0, 0.0, 0.0, 1.6878046296444006E9, 0.0, 2023-06-26 13:37:09.644
111.0, 53231.75230404762, 49988.73770102712, 20956.794435595802, -28205.643976407526, -2409.629811004378, -16400.190162681363, 21018.82052645928, 6255.560368962332, 0.06, 0.978, 0.156, 192.0, 0.0, 0.0, 0.0, 0.0, 0.0, 0.0, 0.0, 0.0, 0.0, 1.6878046296483905E9, 0.0, 2023-06-26 13:37:09.648
112.0, 53286.15645005184, 50060.15152456183, 21055.790311788358, -28145.56248731166, -2220.9363843126757, -16284.542236869604, 21117.50347822946, 6308.623410299231, 0.06, 0.978, 0.156, 192.0, 0.0, 0.0, 0.0, 0.0, 0.0, 0.0, 0.0, 0.0, 0.0, 1.687804629652424E9, 0.0, 2023-06-26 13:37:09.652
113.0, 53310.05046487456, 50050.204998279216, 20959.364886208165, -28317.22388472842, -2197.0423694899523, -16425.268819960216, 20993.76422092488, 6102.652085143577, 0.06, 0.978, 0.156, 192.0, 0.0, 0.0, 0.0, 0.0, 0.0, 0.0, 0.0, 0.0, 0.0, 1.6878046296554554E9, 0.0, 2023-06-26 13:37:09.655
114.0, 53258.14971424934, 49981.16045965677, 20841.727655139883, -28405.75914451589, -2392.173098584783, -16540.84969053861, 20875.43408577849, 6020.665886481511, 0.06, 0.978, 0.156, 192.0, 0.0, 0.0, 0.0, 0.0, 0.0, 0.0, 0.0, 0.0, 0.0, 1.6878046296594815E9, 0.0, 2023-06-26 13:37:09.659
115.0, 53241.81058905251, 49998.70657905419, 20932.94512426199, -28218.652691680516, -2441.8163230200203, -16424.620619371013, 20991.260825545887, 6218.098845255237, 0.06, 0.978, 0.156, 192.0, 0.0, 0.0, 0.0, 0.0, 0.0, 0.0, 0.0, 0.0, 0.0, 1.6878046296634917E9, 0.0, 2023-06-26 13:37:09.663
116.0, 53290.33622626498, 50069.04751885504, 21058.49487286745, -28107.162190337443, -2242.796390389966, -16263.151617425874, 21128.679350457114, 6326.258936674469, 0.06, 0.978, 0.156, 192.0, 0.0, 0.0, 0.0, 0.0, 0.0, 0.0, 0.0, 0.0, 0.0, 1.687804629667521E9, 0.0, 2023-06-26 13:37:09.667
117.0, 53303.41199677134, 50050.070887812486, 20978.520331206364, -28291.429971626996, -2166.5545900529137, -16396.837401013065, 21027.604762030216, 6139.800684428297, 0.06, 0.978, 0.156, 192.0, 0.0, 0.0, 0.0, 0.0, 0.0, 0.0, 0.0, 0.0, 0.0, 1.6878046296725185E9, 0.0, 2023-06-26 13:37:09.672
118.0, 53264.22938874119, 49989.00592196059, 20848.3214197542, -28417.829086521757, -2358.46666794618, -16545.6553155965, 20881.31259457023, 6008.350075286637, 0.06, 0.978, 0.156, 192.0, 0.0, 0.0, 0.0, 0.0, 0.0, 0.0, 0.0, 0.0, 0.0, 1.687804629676587E9, 0.0, 2023-06-26 13:37:09.676
119.0, 53245.275109443086, 50000.71823605517, 20912.359167618655, -28252.40382580803, -2444.207959676738, -16430.6779421184, 20967.34445897871, 6185.912333239596, 0.06, 0.978, 0.156, 192.0, 0.0, 0.0, 0.0, 0.0, 0.0, 0.0, 0.0, 0.0, 0.0, 1.6878046296805823E9, 0.0, 2023-06-26 13:37:09.680
120.0, 53286.514077963126, 50067.63935895436, 21059.45599787903, -28097.506236732752, -2264.0752511114183, -16265.856178504966, 21130.914524902648, 6337.300698435391, 0.06, 0.978, 0.156, 192.0, 0.0, 0.0, 0.0, 0.0, 0.0, 0.0, 0.0, 0.0, 0.0, 1.6878046296835768E9, 0.0, 2023-06-26 13:37:09.683
121.0, 53313.783206198605, 50061.0679460845, 21016.853572947213, -28245.20656409342, -2159.647901016224, -16385.05803168512, 21056.773788544393, 6177.5080773244, 0.058, 0.984, 0.156, 192.0, 1.0, 208.0, 30.0, 192.0, 4.0, 224.0, 0.0, 0.0, 0.0, 1.6878046296876078E9, 0.0, 2023-06-26 13:37:09.687
122.0, 53280.25558951564, 50000.96410524417, 20868.326231041698, -28410.14008642913, -2318.2558796710828, -16539.977972504854, 20891.125010386113, 6014.340342800659, 0.058, 0.984, 0.156, 192.0, 0.0, 0.0, 0.0, 0.0, 0.0, 0.0, 0.0, 0.0, 0.0, 1.687804629691621E9, 0.0, 2023-06-26 13:37:09.691
123.0, 53228.08661795696, 49964.06137514846, 20874.629422978094, -28312.820591070726, -2453.953320259252, -16486.73611721231, 20922.86448751265, 6129.138902323116, 0.058, 0.984, 0.156, 192.0, 0.0, 0.0, 0.0, 0.0, 0.0, 0.0, 0.0, 0.0, 0.0, 1.68780462969564E9, 0.0, 2023-06-26 13:37:09.695
124.0, 53260.94368230626, 50023.82993982195, 21025.906029451613, -28132.352606338576, -2322.07802797294, -16326.049426323108, 21084.914634813624, 6307.170546909636, 0.058, 0.984, 0.156, 192.0, 0.0, 0.0, 0.0, 0.0, 0.0, 0.0, 0.0, 0.0, 0.0, 1.6878046296996748E9, 0.0, 2023-06-26 13:37:09.699
125.0, 53303.21083107124, 50058.922178616784, 21022.21799161649, -28219.658520181005, -2174.7129767791007, -16355.821949937577, 21078.678498110592, 6214.634324864665, 0.058, 0.984, 0.156, 192.0, 0.0, 0.0, 0.0, 0.0, 0.0, 0.0, 0.0, 0.0, 0.0, 1.6878046297056909E9, 0.0, 2023-06-26 13:37:09.705
126.0, 53272.23131325618, 49988.335369626926, 20859.474940237396, -28420.19837143402, -2297.960495705664, -16555.355972690104, 20904.200780892468, 6006.226659563382, 0.058, 0.984, 0.156, 192.0, 0.0, 0.0, 0.0, 0.0, 0.0, 0.0, 0.0, 0.0, 0.0, 1.6878046297087033E9, 0.0, 2023-06-26 13:37:09.708
127.0, 53222.476330098674, 49943.11779059384, 20840.27479175029, -28365.503652751882, -2474.91925655833, -16542.28020218375, 20887.347565573164, 6074.958273763451, 0.058, 0.984, 0.156, 192.0, 0.0, 0.0, 0.0, 0.0, 0.0, 0.0, 0.0, 0.0, 0.0, 1.6878046297127123E9, 0.0, 2023-06-26 13:37:09.712
