%OpenBCI Raw EEG Data
%Number of channels = 8
%Sample Rate = 250 Hz
%Board = OpenBCI_GUI$BoardCytonSerial
Sample Index, EXG Channel 0, EXG Channel 1, EXG Channel 2, EXG Channel 3, EXG Channel 4, EXG Channel 5, EXG Channel 6, EXG Channel 7, Accel Channel 0, Accel Channel 1, Accel Channel 2, Other, Other, Other, Other, Other, Other, Other, Analog Channel 0, Analog Channel 1, Analog Channel 2, Timestamp, Other, Timestamp (Formatted)
7.0, 53099.60879082785, 49967.52589553904, 21139.654056984673, -27977.34325854102, -2813.7269990118743, -16113.596095275414, 21121.482088742505, 6143.086390863227, 0.0, 0.0, 0.0, 192.0, 0.0, 0.0, 0.0, 0.0, 0.0, 0.0, 0.0, 0.0, 0.0, 1.6878046608926957E9, 0.0, 2023-06-26 13:37:40.892
8.0, 53145.60868091687, 50028.07677126846, 21244.282572779965, -27902.911949504847, -2622.4631217078118, -16003.536105577483, 21238.694636666136, 6218.0317900218715, 0.0, 0.0, 0.0, 192.0, 0.0, 0.0, 0.0, 0.0, 0.0, 0.0, 0.0, 0.0, 0.0, 1.6878046608927245E9, 0.0, 2023-06-26 13:37:40.892
9.0, 53144.6922593942, 49997.343122642415, 21136.345998805285, -28107.966853137834, -2584.286342178147, -16151.459950382705, 21115.782393906404, 6010.786415432265, 0.0, 0.0, 0.0, 192.0, 0.0, 0.0, 0.0, 0.0, 0.0, 0.0, 0.0, 0.0, 0.0, 1.6878046608927407E9, 0.0, 2023-06-26 13:37:40.892
0.0, 0.0, 0.0, 0.0, 0.0, 0.0, 0.0, 0.0, 0.0, 0.062, 0.972, 0.148, 192.0, 1.0, 240.0, 30.0, 96.0, 4.0, 160.0, 0.0, 0.0, 0.0, 1.6878046609827645E9, 0.0, 2023-06-26 13:37:40.982
1.0, 52880.204067254555, 50101.63636227088, 20942.221098210943, -27696.180665037715, -3089.435766868087, -15205.15414537837, 21500.768840404613, 6434.575490304886, 0.062, 0.972, 0.148, 192.0, 0.0, 0.0, 0.0, 0.0, 0.0, 0.0, 0.0, 0.0, 0.0, 1.6878046609998612E9, 0.0, 2023-06-26 13:37:40.999
2.0, 52884.048567300866, 50080.58101899398, 20878.675088724507, -27800.898587810825, -3106.8254240543156, -15292.862390620994, 21428.975037214164, 6330.930451265628, 0.062, 0.972, 0.148, 192.0, 0.0, 0.0, 0.0, 0.0, 0.0, 0.0, 0.0, 0.0, 0.0, 1.6878046610038676E9, 0.0, 2023-06-26 13:37:41.003
3.0, 52855.37127916471, 50049.847370367934, 20835.17859401448, -27807.671166380784, -3211.2527741495105, -15330.189803861358, 21377.32015577795, 6316.513576091955, 0.062, 0.972, 0.148, 192.0, 0.0, 0.0, 0.0, 0.0, 0.0, 0.0, 0.0, 0.0, 0.0, 1.6878046610068812E9, 0.0, 2023-06-26 13:37:41.006
4.0, 52846.81056103833, 50065.918274631294, 20896.668243011027, -27695.174836537226, -3210.49281483803, -15243.263869674669, 21448.599868845926, 6426.774731489984, 0.062, 0.972, 0.148, 192.0, 0.0, 0.0, 0.0, 0.0, 0.0, 0.0, 0.0, 0.0, 0.0, 1.6878046610098815E9, 0.0, 2023-06-26 13:37:41.009
5.0, 52871.44218342807, 50097.63540001338, 20956.39210419561, -27660.306115186944, -3094.107281459246, -15183.919988145828, 21517.443241768273, 6462.1575429627355, 0.062, 0.972, 0.148, 192.0, 0.0, 0.0, 0.0, 0.0, 0.0, 0.0, 0.0, 0.0, 0.0, 1.687804661013922E9, 0.0, 2023-06-26 13:37:41.013
6.0, 52880.3828812102, 50082.61502773941, 20899.641025023586, -27771.751913041106, -3086.9100197446373, -15281.127724781958, 21446.923488011776, 6347.001355528993, 0.062, 0.972, 0.148, 192.0, 0.0, 0.0, 0.0, 0.0, 0.0, 0.0, 0.0, 0.0, 0.0, 1.6878046610169191E9, 0.0, 2023-06-26 13:37:41.016
7.0, 52859.282834444384, 50052.23900702465, 20839.201908016435, -27815.673090895783, -3199.5851635438403, -15342.773835989696, 21373.252138287084, 6300.822651484329, 0.062, 0.972, 0.148, 192.0, 0.0, 0.0, 0.0, 0.0, 0.0, 0.0, 0.0, 0.0, 0.0, 1.6878046610209577E9, 0.0, 2023-06-26 13:37:41.020
8.0, 52853.18080820809, 50069.53925723306, 20897.696423255973, -27699.041688327994, -3225.803759789915, -15264.967413540771, 21431.701950037714, 6408.960391159105, 0.068, 0.97, 0.14, 192.0, 2.0, 32.0, 30.0, 80.0, 4.0, 96.0, 0.0, 0.0, 0.0, 1.6878046610249832E9, 0.0, 2023-06-26 13:37:41.024
9.0, 52857.762915821426, 50087.733577219675, 20954.045171027803, -27652.03596973848, -3127.2996219753772, -15201.287293587602, 21500.21004679323, 6452.613348080319, 0.068, 0.97, 0.14, 192.0, 0.0, 0.0, 0.0, 0.0, 0.0, 0.0, 0.0, 0.0, 0.0, 1.6878046610300016E9, 0.0, 2023-06-26 13:37:41.030
10.0, 52888.89889584767, 50096.38370232388, 20925.3902346361, -27732.904581177783, -3074.6389120386734, -15261.033506516636, 21460.87097655189, 6366.581483671843, 0.068, 0.97, 0.14, 192.0, 0.0, 0.0, 0.0, 0.0, 0.0, 0.0, 0.0, 0.0, 0.0, 1.687804661033013E9, 0.0, 2023-06-26 13:37:41.033
11.0, 52884.49560218997, 50076.33418754747, 20866.873367652104, -27788.515721382588, -3160.6037212137844, -15332.827309707083, 21383.71275469217, 6310.903288233672, 0.068, 0.97, 0.14, 192.0, 0.0, 0.0, 0.0, 0.0, 0.0, 0.0, 0.0, 0.0, 0.0, 1.687804661040088E9, 0.0, 2023-06-26 13:37:41.040
12.0, 52866.54715139236, 50079.66459747131, 20899.998652934868, -27700.427496484223, -3222.0486667214236, -15281.127724781958, 21422.113051666387, 6399.0585683654035, 0.068, 0.97, 0.14, 192.0, 0.0, 0.0, 0.0, 0.0, 0.0, 0.0, 0.0, 0.0, 0.0, 1.6878046610431128E9, 0.0, 2023-06-26 13:37:41.043
13.0, 52868.93878804908, 50102.01634192662, 20966.115113033666, -27630.46653633911, -3138.877825603226, -15196.414613296345, 21511.743546932168, 6471.969958778615, 0.068, 0.97, 0.14, 192.0, 0.0, 0.0, 0.0, 0.0, 0.0, 0.0, 0.0, 0.0, 0.0, 1.6878046610461297E9, 0.0, 2023-06-26 13:37:41.046
14.0, 52884.27208474542, 50098.73063549169, 20934.4426911405, -27717.77245018154, -3077.7011010290507, -15245.499044120199, 21479.937014572268, 6383.233533291046, 0.068, 0.97, 0.14, 192.0, 0.0, 0.0, 0.0, 0.0, 0.0, 0.0, 0.0, 0.0, 0.0, 1.6878046610501196E9, 0.0, 2023-06-26 13:37:41.050
15.0, 52896.23026802901, 50088.73940572017, 20876.506969512342, -27788.225148704667, -3144.2198925280445, -15321.69614096834, 21403.71756597967, 6311.640895800698, 0.068, 0.97, 0.14, 192.0, 0.0, 0.0, 0.0, 0.0, 0.0, 0.0, 0.0, 0.0, 0.0, 1.6878046610531282E9, 0.0, 2023-06-26 13:37:41.053
16.0, 52869.13995374918, 50073.964902635205, 20887.034641150793, -27728.657749731276, -3225.5355388564517, -15298.942065112838, 21414.1558306403, 6376.438602976633, 0.068, 0.97, 0.14, 192.0, 0.0, 0.0, 0.0, 0.0, 0.0, 0.0, 0.0, 0.0, 0.0, 1.6878046610561163E9, 0.0, 2023-06-26 13:37:41.056
17.0, 52866.03306126989, 50094.7743767231, 20958.962554807968, -27637.127356186793, -3157.1615525676675, -15212.977255937727, 21501.662910182826, 6466.158505220235, 0.068, 0.97, 0.14, 192.0, 0.0, 0.0, 0.0, 0.0, 0.0, 0.0, 0.0, 0.0, 0.0, 1.687804661060455E9, 0.0, 2023-06-26 13:37:41.060
18.0, 52881.254599243955, 50102.53043204909, 20951.38531343762, -27695.01837432604, -3065.4076415786317, -15227.148261922392, 21502.936959616778, 6412.357856316311, 0.068, 0.984, 0.134, 192.0, 2.0, 32.0, 30.0, 192.0, 4.0, 48.0, 0.0, 0.0, 0.0, 1.6878046610641763E9, 0.0, 2023-06-26 13:37:41.064
19.0, 52885.18850626809, 50080.71512946071, 20879.837379436183, -27793.991898774137, -3122.136369006201, -15321.047940379136, 21418.067385919978, 6317.5864598258095, 0.068, 0.984, 0.134, 192.0, 0.0, 0.0, 0.0, 0.0, 0.0, 0.0, 0.0, 0.0, 0.0, 1.6878046610691984E9, 0.0, 2023-06-26 13:37:41.069
20.0, 52860.15455247815, 50061.40322225133, 20862.715943183415, -27760.59839255791, -3232.8669110377923, -15325.518289270198, 21393.212246085674, 6349.080067763337, 0.068, 0.984, 0.134, 192.0, 0.0, 0.0, 0.0, 0.0, 0.0, 0.0, 0.0, 0.0, 0.0, 1.6878046610732193E9, 0.0, 2023-06-26 13:37:41.073
21.0, 52846.22941568249, 50071.95324563423, 20926.396063136588, -27659.344990175367, -3197.685265265139, -15235.753683537685, 21472.225662735185, 6450.579339334887, 0.068, 0.984, 0.134, 192.0, 0.0, 0.0, 0.0, 0.0, 0.0, 0.0, 0.0, 0.0, 0.0, 1.6878046610782406E9, 0.0, 2023-06-26 13:37:41.078
22.0, 52870.65987237214, 50093.83560345598, 20950.603002381686, -27681.517920675033, -3083.2890371428775, -15224.041369443104, 21508.25667479714, 6430.887452469761, 0.068, 0.984, 0.134, 192.0, 0.0, 0.0, 0.0, 0.0, 0.0, 0.0, 0.0, 0.0, 0.0, 1.6878046610822663E9, 0.0, 2023-06-26 13:37:41.082
23.0, 52882.68511088909, 50081.452737027736, 20883.301899826754, -27788.49336963813, -3107.495976387975, -15318.119861855492, 21431.545487826526, 6322.772064539441, 0.068, 0.984, 0.134, 192.0, 0.0, 0.0, 0.0, 0.0, 0.0, 0.0, 0.0, 0.0, 0.0, 1.687804661085268E9, 0.0, 2023-06-26 13:37:41.085
24.0, 52859.61811061122, 50060.59855945093, 20855.09399832416, -27774.992915987124, -3218.4053323752087, -15334.32487658559, 21391.89349316281, 6340.385239170223, 0.068, 0.984, 0.134, 192.0, 0.0, 0.0, 0.0, 0.0, 0.0, 0.0, 0.0, 0.0, 0.0, 1.6878046610882845E9, 0.0, 2023-06-26 13:37:41.088
25.0, 52845.737677304474, 50074.79191718005, 20919.24350491089, -27663.882394299795, -3206.134224669245, -15240.514605106666, 21466.213043476706, 6453.9991562365485, 0.068, 0.984, 0.134, 192.0, 0.0, 0.0, 0.0, 0.0, 0.0, 0.0, 0.0, 0.0, 0.0, 1.6878046610923069E9, 0.0, 2023-06-26 13:37:41.092
26.0, 52863.216741468525, 50092.80742321103, 20955.475682672943, -27665.067036755925, -3101.438653640587, -15212.01613092615, 21506.64734919636, 6447.517150344509, 0.068, 0.984, 0.134, 192.0, 0.0, 0.0, 0.0, 0.0, 0.0, 0.0, 0.0, 0.0, 0.0, 1.6878046610963523E9, 0.0, 2023-06-26 13:37:41.096
27.0, 52887.37897722471, 50090.21462085422, 20901.69738551347, -27768.265040906077, -3093.1238047032125, -15294.136440054946, 21446.968191500688, 6343.961518283072, 0.068, 0.984, 0.134, 192.0, 0.0, 0.0, 0.0, 0.0, 0.0, 0.0, 0.0, 0.0, 0.0, 1.6878046611013567E9, 0.0, 2023-06-26 13:37:41.101
28.0, 52868.64821537116, 50062.61021645191, 20854.132873312577, -27784.917090525283, -3207.9894194590356, -15345.344286602056, 21391.80408618499, 6323.777893039929, 0.068, 0.994, 0.13, 192.0, 2.0, 32.0, 31.0, 16.0, 4.0, 16.0, 0.0, 0.0, 0.0, 1.6878046611053636E9, 0.0, 2023-06-26 13:37:41.105
29.0, 52847.54816860535, 50065.06890834199, 20907.91117047205, -27672.040781025982, -3229.9164807696916, -15266.420276930367, 21451.52794736957, 6432.854405981828, 0.068, 0.994, 0.13, 192.0, 0.0, 0.0, 0.0, 0.0, 0.0, 0.0, 0.0, 0.0, 0.0, 1.687804661108399E9, 0.0, 2023-06-26 13:37:41.108
30.0, 52865.20604672504, 50093.56738252251, 20960.43776994202, -27635.696844541653, -3121.823444583827, -15203.880095944418, 21511.11769808742, 6468.460734899132, 0.068, 0.994, 0.13, 192.0, 0.0, 0.0, 0.0, 0.0, 0.0, 0.0, 0.0, 0.0, 0.0, 1.6878046611124086E9, 0.0, 2023-06-26 13:37:41.112
31.0, 52880.964026566035, 50083.97848415119, 20904.536057059297, -27745.48861330612, -3091.961513991537, -15285.843942862028, 21454.21015670421, 6355.405611444189, 0.068, 0.994, 0.13, 192.0, 0.0, 0.0, 0.0, 0.0, 0.0, 0.0, 0.0, 0.0, 0.0, 1.6878046611164503E9, 0.0, 2023-06-26 13:37:41.116
32.0, 52857.98643326598, 50043.52182668708, 20828.964809055902, -27804.31840471249, -3210.425759604664, -15364.94676648936, 21372.17925455323, 6298.587477038798, 0.068, 0.994, 0.13, 192.0, 0.0, 0.0, 0.0, 0.0, 0.0, 0.0, 0.0, 0.0, 0.0, 1.6878046611204567E9, 0.0, 2023-06-26 13:37:41.120
33.0, 52839.725058045995, 50046.82988486646, 20881.647870737062, -27698.86287437235, -3256.783277604971, -15290.224884775269, 21422.493031322127, 6406.613457991298, 0.068, 0.994, 0.13, 192.0, 0.0, 0.0, 0.0, 0.0, 0.0, 0.0, 0.0, 0.0, 0.0, 1.6878046611244683E9, 0.0, 2023-06-26 13:37:41.124
34.0, 52859.59575886676, 50084.51492601811, 20961.890633331615, -27626.219704892603, -3141.6270901712287, -15198.225104597224, 21515.766860934124, 6485.157488007247, 0.068, 0.994, 0.13, 192.0, 0.0, 0.0, 0.0, 0.0, 0.0, 0.0, 0.0, 0.0, 0.0, 1.6878046611284935E9, 0.0, 2023-06-26 13:37:41.128
35.0, 52880.964026566035, 50084.246705084646, 20920.204629922468, -27721.68400546122, -3087.6029238227516, -15260.564119883076, 21474.080857524976, 6388.039158348937, 0.068, 0.994, 0.13, 192.0, 0.0, 0.0, 0.0, 0.0, 0.0, 0.0, 0.0, 0.0, 0.0, 1.6878046611335185E9, 0.0, 2023-06-26 13:37:41.133
36.0, 52861.49565714546, 50046.67342265528, 20841.07945455068, -27799.26691046559, -3189.2139541165775, -15350.172263404402, 21386.774943682547, 6305.740035264496, 0.068, 0.994, 0.13, 192.0, 0.0, 0.0, 0.0, 0.0, 0.0, 0.0, 0.0, 0.0, 0.0, 1.687804661136531E9, 0.0, 2023-06-26 13:37:41.136
37.0, 52835.72409578849, 50036.81630335049, 20860.950155371447, -27722.086336861415, -3264.4499259531412, -15310.184992573857, 21408.478487548648, 6382.831201890851, 0.068, 0.994, 0.13, 192.0, 0.0, 0.0, 0.0, 0.0, 0.0, 0.0, 0.0, 0.0, 0.0, 1.687804661140545E9, 0.0, 2023-06-26 13:37:41.140
38.0, 52844.97771799299, 50067.37113802089, 20939.985923765413, -27631.71823402861, -3170.2596748184774, -15215.033616427616, 21498.243093281162, 6472.551104134453, 0.068, 0.994, 0.13, 192.0, 0.0, 0.0, 0.0, 0.0, 0.0, 0.0, 0.0, 0.0, 0.0, 1.6878046611445613E9, 0.0, 2023-06-26 13:37:41.144
39.0, 52858.03113675489, 50067.84052465446, 20916.69540604298, -27706.641281442797, -3091.112147702235, -15248.82945404404, 21484.228549507687, 6399.237382321046, 0.084, 0.994, 0.132, 192.0, 2.0, 160.0, 31.0, 16.0, 4.0, 32.0, 0.0, 0.0, 0.0, 1.687804661149598E9, 0.0, 2023-06-26 13:37:41.149
40.0, 52866.569503136816, 50050.24970176813, 20851.249498277844, -27791.3096894395, -3157.787401412416, -15333.944896929848, 21404.43282180224, 6316.133596436214, 0.084, 0.994, 0.132, 192.0, 0.0, 0.0, 0.0, 0.0, 0.0, 0.0, 0.0, 0.0, 0.0, 1.6878046611536212E9, 0.0, 2023-06-26 13:37:41.153
41.0, 52843.41309588112, 50040.03495455205, 20856.25628903583, -27734.69272073421, -3249.1836844901663, -15315.191783331846, 21409.037281160032, 6373.778745386451, 0.084, 0.994, 0.132, 192.0, 0.0, 0.0, 0.0, 0.0, 0.0, 0.0, 0.0, 0.0, 0.0, 1.687804661156628E9, 0.0, 2023-06-26 13:37:41.156
42.0, 52848.956328506036, 50070.65684445582, 20941.192917966, -27628.36547236031, -3176.965198155069, -15214.430119327322, 21501.528799716092, 6478.809592581939, 0.084, 0.994, 0.132, 192.0, 0.0, 0.0, 0.0, 0.0, 0.0, 0.0, 0.0, 0.0, 0.0, 1.6878046611616442E9, 0.0, 2023-06-26 13:37:41.161
43.0, 52866.81537232583, 50082.30210331704, 20936.834327797216, -27676.5334816615, -3087.46881335602, -15223.370817109444, 21498.06427932552, 6425.321868100389, 0.084, 0.994, 0.132, 192.0, 0.0, 0.0, 0.0, 0.0, 0.0, 0.0, 0.0, 0.0, 0.0, 1.6878046611646647E9, 0.0, 2023-06-26 13:37:41.164
44.0, 52871.956273550546, 50063.86191414141, 20858.35735301463, -27783.419523646775, -3147.4832472185194, -15328.312257327112, 21396.632062987337, 6306.835270742807, 0.084, 0.994, 0.132, 192.0, 0.0, 0.0, 0.0, 0.0, 0.0, 0.0, 0.0, 0.0, 0.0, 1.6878046611677008E9, 0.0, 2023-06-26 13:37:41.167
45.0, 52844.10599995923, 50040.14671327433, 20838.821928360692, -27758.385569856833, -3250.6365478797616, -15336.805920220128, 21385.165618081763, 6340.608756614775, 0.084, 0.994, 0.132, 192.0, 0.0, 0.0, 0.0, 0.0, 0.0, 0.0, 0.0, 0.0, 0.0, 1.687804661172691E9, 0.0, 2023-06-26 13:37:41.172
46.0, 52832.48309284247, 50051.70256515772, 20909.922827473027, -27653.555888361443, -3219.388809131242, -15241.967468496261, 21465.7660085876, 6448.724144545096, 0.084, 0.994, 0.132, 192.0, 0.0, 0.0, 0.0, 0.0, 0.0, 0.0, 0.0, 0.0, 0.0, 1.687804661176702E9, 0.0, 2023-06-26 13:37:41.176
47.0, 52857.85232279925, 50075.75304219163, 20937.817804553248, -27668.03981876848, -3107.1607002211454, -15214.743043749697, 21497.17020954731, 6431.55800480342, 0.084, 0.994, 0.132, 192.0, 0.0, 0.0, 0.0, 0.0, 0.0, 0.0, 0.0, 0.0, 0.0, 1.68780466118075E9, 0.0, 2023-06-26 13:37:41.180
48.0, 52878.259465486946, 50074.121364846396, 20868.527396741796, -27776.065799720982, -3124.528005662919, -15307.189858816846, 21421.7554237551, 6323.174395939636, 0.084, 0.994, 0.132, 192.0, 0.0, 0.0, 0.0, 0.0, 0.0, 0.0, 0.0, 0.0, 0.0, 1.6878046611847696E9, 0.0, 2023-06-26 13:37:41.184
49.0, 52873.207971240045, 50069.561608977514, 20829.83652708966, -27779.910299767293, -3242.433457664664, -15346.998315691748, 21372.67099293125, 6318.189956926103, 0.088, 0.98, 0.132, 192.0, 2.0, 192.0, 30.0, 160.0, 4.0, 32.0, 0.0, 0.0, 0.0, 1.687804661189793E9, 0.0, 2023-06-26 13:37:41.189
50.0, 52858.098191988254, 50072.93672239027, 20883.547769015764, -27684.222481754125, -3249.3177949568985, -15269.102486265003, 21431.947819226723, 6412.670780738686, 0.088, 0.98, 0.132, 192.0, 0.0, 0.0, 0.0, 0.0, 0.0, 0.0, 0.0, 0.0, 0.0, 1.6878046611928093E9, 0.0, 2023-06-26 13:37:41.192
51.0, 52870.682224116594, 50087.37594930839, 20951.027685526336, -27648.19146969217, -3113.2850782018995, -15199.186229608802, 21508.21197130823, 6452.300423657945, 0.088, 0.98, 0.132, 192.0, 0.0, 0.0, 0.0, 0.0, 0.0, 0.0, 0.0, 0.0, 0.0, 1.6878046611978445E9, 0.0, 2023-06-26 13:37:41.197
52.0, 52881.455764944054, 50071.68502470077, 20898.79165873428, -27752.73057850964, -3098.778796050405, -15275.182160756847, 21451.595002602935, 6352.321070709357, 0.088, 0.98, 0.132, 192.0, 0.0, 0.0, 0.0, 0.0, 0.0, 0.0, 0.0, 0.0, 0.0, 1.6878046612018452E9, 0.0, 2023-06-26 13:37:41.201
53.0, 52868.78232583789, 50050.36146049041, 20844.454567963432, -27785.11825622538, -3214.203204417611, -15336.403588819932, 21386.841998915912, 6319.106378448771, 0.088, 0.98, 0.132, 192.0, 0.0, 0.0, 0.0, 0.0, 0.0, 0.0, 0.0, 0.0, 0.0, 1.6878046612048645E9, 0.0, 2023-06-26 13:37:41.204
54.0, 52866.45774441454, 50067.23702755416, 20909.855772239658, -27670.610269380843, -3230.5199778699853, -15251.77988431214, 21450.633877591357, 6428.831091979872, 0.088, 0.98, 0.132, 192.0, 0.0, 0.0, 0.0, 0.0, 0.0, 0.0, 0.0, 0.0, 0.0, 1.6878046612098885E9, 0.0, 2023-06-26 13:37:41.209
55.0, 52876.87365733072, 50086.81715569701, 20960.817749597758, -27642.692940556164, -3127.165511508645, -15197.711014474753, 21507.049680596552, 6455.474371370598, 0.088, 0.98, 0.132, 192.0, 0.0, 0.0, 0.0, 0.0, 0.0, 0.0, 0.0, 0.0, 0.0, 1.6878046612138991E9, 0.0, 2023-06-26 13:37:41.213
56.0, 52902.354646009764, 50081.452737027736, 20921.41162412305, -27742.62759001584, -3083.3337406317883, -15260.854692560995, 21465.006049276122, 6371.811791874385, 0.088, 0.98, 0.132, 192.0, 0.0, 0.0, 0.0, 0.0, 0.0, 0.0, 0.0, 0.0, 0.0, 1.6878046612189376E9, 0.0, 2023-06-26 13:37:41.218
57.0, 52894.30801800585, 50052.797800636035, 20864.36997227311, -27793.097828995924, -3178.038081888924, -15326.166489859403, 21397.414374043274, 6322.526195350432, 0.088, 0.98, 0.132, 192.0, 0.0, 0.0, 0.0, 0.0, 0.0, 0.0, 0.0, 0.0, 0.0, 1.687804661221943E9, 0.0, 2023-06-26 13:37:41.221
58.0, 52871.79981133936, 50046.44990521073, 20895.461248810443, -27711.782182667517, -3231.324640670376, -15272.812875844584, 21432.43955760474, 6408.043969636437, 0.088, 0.98, 0.132, 192.0, 0.0, 0.0, 0.0, 0.0, 0.0, 0.0, 0.0, 0.0, 0.0, 1.6878046612249453E9, 0.0, 2023-06-26 13:37:41.224
59.0, 52875.241979985476, 50066.365309520406, 20961.801226353793, -27649.75609180404, -3135.3462499792877, -15193.933569661805, 21512.77172717711, 6471.120592489314, 0.092, 0.976, 0.136, 192.0, 2.0, 224.0, 30.0, 128.0, 4.0, 64.0, 0.0, 0.0, 0.0, 1.6878046612309935E9, 0.0, 2023-06-26 13:37:41.230
60.0, 52907.71906467904, 50076.71416720321, 20935.00148475188, -27734.759775967574, -3076.0917754282686, -15233.4961573477, 21479.646441894347, 6392.911838640194, 0.092, 0.976, 0.136, 192.0, 0.0, 0.0, 0.0, 0.0, 0.0, 0.0, 0.0, 0.0, 0.0, 1.6878046612350338E9, 0.0, 2023-06-26 13:37:41.235
61.0, 52915.788044427405, 50059.86095188391, 20867.454513007942, -27811.023928049082, -3163.643558459706, -15325.227716592279, 21390.641795473315, 6314.546622579887, 0.092, 0.976, 0.136, 192.0, 0.0, 0.0, 0.0, 0.0, 0.0, 0.0, 0.0, 0.0, 0.0, 1.6878046612380388E9, 0.0, 2023-06-26 13:37:41.238
62.0, 52887.200163269066, 50046.53931218855, 20871.52253049881, -27750.562459297475, -3244.8250943213816, -15299.120879068481, 21396.565007753972, 6374.516352953477, 0.092, 0.976, 0.136, 192.0, 0.0, 0.0, 0.0, 0.0, 0.0, 0.0, 0.0, 0.0, 0.0, 1.687804661241037E9, 0.0, 2023-06-26 13:37:41.241
63.0, 52885.099099290266, 50068.175800821286, 20952.614659382663, -27664.731760589097, -3159.776706668938, -15203.656578499864, 21488.96711933221, 6462.85044704085, 0.092, 0.976, 0.136, 192.0, 0.0, 0.0, 0.0, 0.0, 0.0, 0.0, 0.0, 0.0, 0.0, 1.6878046612471476E9, 0.0, 2023-06-26 13:37:41.247
64.0, 52901.32646576482, 50072.4673357567, 20943.562202878264, -27729.507116020577, -3080.7185865305173, -15232.356218380479, 21478.998241305144, 6397.605704975808, 0.092, 0.976, 0.136, 192.0, 0.0, 0.0, 0.0, 0.0, 0.0, 0.0, 0.0, 0.0, 0.0, 1.687804661250134E9, 0.0, 2023-06-26 13:37:41.250
65.0, 52904.00867509946, 50055.94939660423, 20877.04341137927, -27811.314500727, -3140.2189302705447, -15311.660207707908, 21402.24235084562, 6316.714741792052, 0.092, 0.976, 0.136, 192.0, 0.0, 0.0, 0.0, 0.0, 0.0, 0.0, 0.0, 0.0, 0.0, 1.6878046612531304E9, 0.0, 2023-06-26 13:37:41.253
66.0, 52881.880448088705, 50041.55487317502, 20876.954004401447, -27766.36514262738, -3225.133207456256, -15297.288036023145, 21399.783658955534, 6360.322995224356, 0.092, 0.976, 0.136, 192.0, 0.0, 0.0, 0.0, 0.0, 0.0, 0.0, 0.0, 0.0, 0.0, 1.6878046612561524E9, 0.0, 2023-06-26 13:37:41.256
67.0, 52876.65013988616, 50059.03393733907, 20940.745883076892, -27683.887205587293, -3177.680453977639, -15207.545782035088, 21475.57842440348, 6450.981670735082, 0.092, 0.976, 0.136, 192.0, 0.0, 0.0, 0.0, 0.0, 0.0, 0.0, 0.0, 0.0, 0.0, 1.6878046612601645E9, 0.0, 2023-06-26 13:37:41.260
68.0, 52887.08840454679, 50063.839562396955, 20937.61663885315, -27736.369101568354, -3093.369673892221, -15221.96265720876, 21476.9195290708, 6405.406463790711, 0.092, 0.976, 0.136, 192.0, 0.0, 0.0, 0.0, 0.0, 0.0, 0.0, 0.0, 0.0, 0.0, 1.687804661265166E9, 0.0, 2023-06-26 13:37:41.265
69.0, 52903.762805910446, 50056.15056230433, 20874.31649855572, -27827.050128823535, -3137.223796513533, -15306.966341372294, 21394.70981296418, 6311.663247545153, 0.09, 0.978, 0.138, 192.0, 2.0, 208.0, 30.0, 144.0, 4.0, 80.0, 0.0, 0.0, 0.0, 1.6878046612691636E9, 0.0, 2023-06-26 13:37:41.269
70.0, 52894.37507323922, 50050.22735002367, 20867.096885096656, -27795.757686586105, -3223.814454533393, -15306.69812043883, 21389.05482161699, 6341.815750815363, 0.09, 0.978, 0.138, 192.0, 0.0, 0.0, 0.0, 0.0, 0.0, 0.0, 0.0, 0.0, 0.0, 1.6878046612721791E9, 0.0, 2023-06-26 13:37:41.272
71.0, 52876.71719511953, 50057.64812918283, 20926.910153259058, -27705.076659330927, -3197.908782709692, -15223.035540942616, 21458.76991257309, 6434.12845541578, 0.09, 0.978, 0.138, 192.0, 0.0, 0.0, 0.0, 0.0, 0.0, 0.0, 0.0, 0.0, 0.0, 1.6878046612792425E9, 0.0, 2023-06-26 13:37:41.279
72.0, 52886.12727953521, 50067.08056534297, 20941.595249366197, -27727.361348552866, -3112.3463049347765, -15211.993779181694, 21483.64740415185, 6417.074074396382, 0.09, 0.978, 0.138, 192.0, 0.0, 0.0, 0.0, 0.0, 0.0, 0.0, 0.0, 0.0, 0.0, 1.687804661282238E9, 0.0, 2023-06-26 13:37:41.282
73.0, 52907.406140256666, 50062.1184780739, 20887.884007440094, -27818.2658932526, -3130.5182731769414, -15293.22001853228, 21417.329778352952, 6326.773026796941, 0.09, 0.978, 0.138, 192.0, 0.0, 0.0, 0.0, 0.0, 0.0, 0.0, 0.0, 0.0, 0.0, 1.6878046612852652E9, 0.0, 2023-06-26 13:37:41.285
74.0, 52897.817241885336, 50048.34980348943, 20862.157149572035, -27812.96852981669, -3219.3441056423317, -15304.909980882405, 21382.10342909139, 6335.758428067974, 0.09, 0.978, 0.138, 192.0, 0.0, 0.0, 0.0, 0.0, 0.0, 0.0, 0.0, 0.0, 0.0, 1.6878046612902956E9, 0.0, 2023-06-26 13:37:41.290
75.0, 52889.010654569945, 50064.93479787526, 20920.539906089296, -27715.470220502644, -3203.9214019681694, -15217.984046695716, 21457.205290461217, 6434.6872490271635, 0.09, 0.978, 0.138, 192.0, 0.0, 0.0, 0.0, 0.0, 0.0, 0.0, 0.0, 0.0, 0.0, 1.6878046612942944E9, 0.0, 2023-06-26 13:37:41.294
76.0, 52900.79002389789, 50081.7209579612, 20951.698237859993, -27712.00570011207, -3109.3735229222207, -15192.346595805479, 21503.696918928257, 6438.710563029118, 0.09, 0.978, 0.138, 192.0, 0.0, 0.0, 0.0, 0.0, 0.0, 0.0, 0.0, 0.0, 0.0, 1.68780466129835E9, 0.0, 2023-06-26 13:37:41.298
77.0, 52909.79777691338, 50063.6160449524, 20893.673109254018, -27813.527323428076, -3118.2918689598882, -15281.015966059682, 21436.440519862237, 6343.290965949413, 0.09, 0.978, 0.138, 192.0, 0.0, 0.0, 0.0, 0.0, 0.0, 0.0, 0.0, 0.0, 0.0, 1.687804661302356E9, 0.0, 2023-06-26 13:37:41.302
78.0, 52906.31090477835, 50051.16612329079, 20863.632364706085, -27822.490372954653, -3200.009846688491, -15307.726300683773, 21390.28416756203, 6328.807035542373, 0.09, 0.978, 0.138, 192.0, 0.0, 0.0, 0.0, 0.0, 0.0, 0.0, 0.0, 0.0, 0.0, 1.6878046613063676E9, 0.0, 2023-06-26 13:37:41.306
79.0, 52888.00482606946, 50054.407126236816, 20901.742089002382, -27738.82779345844, -3220.7522655430157, -15240.40284638439, 21432.10428143791, 6407.619286491787, 0.09, 0.978, 0.138, 192.0, 0.0, 0.0, 0.0, 0.0, 0.0, 0.0, 0.0, 0.0, 0.0, 1.6878046613093932E9, 0.0, 2023-06-26 13:37:41.309
80.0, 52897.07963431831, 50074.34488229095, 20944.29981044529, -27708.943511121695, -3133.8710348452373, -15189.731441704207, 21484.720287885702, 6433.681420526675, 0.084, 0.974, 0.14200000000000002, 192.0, 2.0, 160.0, 30.0, 112.0, 4.0, 112.0, 0.0, 0.0, 0.0, 1.6878046613124058E9, 0.0, 2023-06-26 13:37:41.312
81.0, 52902.13112856521, 50054.451829725724, 20894.835399965694, -27803.759611101104, -3118.6047933822624, -15267.180236241848, 21429.37736861436, 6340.608756614775, 0.084, 0.974, 0.14200000000000002, 192.0, 0.0, 0.0, 0.0, 0.0, 0.0, 0.0, 0.0, 0.0, 0.0, 1.6878046613164217E9, 0.0, 2023-06-26 13:37:41.316
82.0, 52908.76959666844, 50047.746306389134, 20862.760646672326, -27826.781907890072, -3192.253791362499, -15309.536791984654, 21378.884777889823, 6312.758483023463, 0.084, 0.974, 0.14200000000000002, 192.0, 0.0, 0.0, 0.0, 0.0, 0.0, 0.0, 0.0, 0.0, 0.0, 1.6878046613204396E9, 0.0, 2023-06-26 13:37:41.320
83.0, 52894.263314516946, 50056.687004171254, 20901.496219813376, -27740.951209181694, -3225.267317922988, -15250.550538367099, 21415.09460390742, 6390.676664194663, 0.084, 0.974, 0.14200000000000002, 192.0, 0.0, 0.0, 0.0, 0.0, 0.0, 0.0, 0.0, 0.0, 0.0, 1.6878046613254583E9, 0.0, 2023-06-26 13:37:41.325
84.0, 52897.77253839643, 50078.54701024855, 20952.257031471378, -27689.586900423397, -3147.036212329413, -15187.608025980953, 21479.78055236108, 6436.877719983783, 0.084, 0.974, 0.14200000000000002, 192.0, 0.0, 0.0, 0.0, 0.0, 0.0, 0.0, 0.0, 0.0, 0.0, 1.6878046613284593E9, 0.0, 2023-06-26 13:37:41.328
85.0, 52919.90076540718, 50081.56449575001, 20933.61567659565, -27756.038636689027, -3098.3317611612993, -15229.629305556931, 21456.825310805478, 6373.398765730712, 0.084, 0.974, 0.14200000000000002, 192.0, 0.0, 0.0, 0.0, 0.0, 0.0, 0.0, 0.0, 0.0, 0.0, 1.6878046613314767E9, 0.0, 2023-06-26 13:37:41.331
86.0, 52913.75403568197, 50056.4634867267, 20877.04341137927, -27816.209532762714, -3173.34421555331, -15300.618445946986, 21385.23267331513, 6313.205517912569, 0.084, 0.974, 0.14200000000000002, 192.0, 0.0, 0.0, 0.0, 0.0, 0.0, 0.0, 0.0, 0.0, 0.0, 1.6878046613364952E9, 0.0, 2023-06-26 13:37:41.336
87.0, 52899.11364306374, 50056.12821055987, 20894.70128949896, -27748.170822640757, -3227.5695476018846, -15265.928538552349, 21402.62233050136, 6371.990605830027, 0.084, 0.974, 0.14200000000000002, 192.0, 0.0, 0.0, 0.0, 0.0, 0.0, 0.0, 0.0, 0.0, 0.0, 1.687804661340509E9, 0.0, 2023-06-26 13:37:41.340
88.0, 52885.50143069046, 50061.29146352905, 20934.397987651588, -27698.639356927797, -3173.2548085754884, -15209.043348913592, 21458.658153850814, 6422.505548299021, 0.084, 0.974, 0.14200000000000002, 192.0, 0.0, 0.0, 0.0, 0.0, 0.0, 0.0, 0.0, 0.0, 0.0, 1.6878046613445282E9, 0.0, 2023-06-26 13:37:41.344
89.0, 52899.068939574834, 50064.35365251943, 20918.729414788417, -27760.508985580087, -3117.8224823263267, -15243.889718519416, 21443.257801921107, 6363.094611536814, 0.084, 0.974, 0.14200000000000002, 192.0, 0.0, 0.0, 0.0, 0.0, 0.0, 0.0, 0.0, 0.0, 0.0, 1.68780466134856E9, 0.0, 2023-06-26 13:37:41.348
90.0, 52919.92311715164, 50061.22440829568, 20883.883045182592, -27815.248407751133, -3161.72130843655, -15304.954684371316, 21392.09465886291, 6309.651590544176, 0.08, 0.976, 0.14, 192.0, 2.0, 128.0, 30.0, 128.0, 4.0, 96.0, 0.0, 0.0, 0.0, 1.6878046613525646E9, 0.0, 2023-06-26 13:37:41.352
91.0, 52909.909535635656, 50062.67727168528, 20892.980205175903, -27765.582831571443, -3222.0486667214236, -15278.669032891874, 21401.14711536731, 6362.848742347806, 0.08, 0.976, 0.14, 192.0, 0.0, 0.0, 0.0, 0.0, 0.0, 0.0, 0.0, 0.0, 0.0, 1.6878046613565996E9, 0.0, 2023-06-26 13:37:41.356
92.0, 52899.71714016404, 50079.44108002676, 20946.222060468444, -27689.25162425657, -3181.592009257318, -15200.706148231764, 21463.776703331077, 6437.347106617344, 0.08, 0.976, 0.14, 192.0, 0.0, 0.0, 0.0, 0.0, 0.0, 0.0, 0.0, 0.0, 0.0, 1.6878046613616292E9, 0.0, 2023-06-26 13:37:41.361
93.0, 52912.12235833673, 50085.87838242989, 20948.792511080803, -27726.467278774653, -3106.8254240543156, -15207.612837268452, 21469.230528978173, 6403.618324234286, 0.08, 0.976, 0.14, 192.0, 0.0, 0.0, 0.0, 0.0, 0.0, 0.0, 0.0, 0.0, 0.0, 1.6878046613646421E9, 0.0, 2023-06-26 13:37:41.364
94.0, 52920.21368982956, 50071.103879344926, 20889.1804086185, -27810.64394839334, -3146.2091977845666, -15291.163658042391, 21402.063536889975, 6320.603945327276, 0.08, 0.976, 0.14, 192.0, 0.0, 0.0, 0.0, 0.0, 0.0, 0.0, 0.0, 0.0, 0.0, 1.687804661369676E9, 0.0, 2023-06-26 13:37:41.369
95.0, 52901.05824483136, 50055.2117890372, 20872.438952021475, -27792.181407473257, -3228.463617380097, -15295.611655188997, 21380.80702791298, 6333.746771066996, 0.08, 0.976, 0.14, 192.0, 0.0, 0.0, 0.0, 0.0, 0.0, 0.0, 0.0, 0.0, 0.0, 1.6878046613736742E9, 0.0, 2023-06-26 13:37:41.373
96.0, 52888.585971425295, 50063.23606529666, 20927.983036992915, -27705.121362819835, -3203.653181034706, -15215.3912443389, 21450.924450269278, 6426.327696600878, 0.08, 0.976, 0.14, 192.0, 0.0, 0.0, 0.0, 0.0, 0.0, 0.0, 0.0, 0.0, 0.0, 1.687804661378704E9, 0.0, 2023-06-26 13:37:41.378
97.0, 52905.372131511234, 50080.268094571606, 20950.021857025848, -27714.374985024333, -3121.890499817193, -15203.030729655115, 21472.9185668133, 6415.509452284509, 0.08, 0.976, 0.14, 192.0, 0.0, 0.0, 0.0, 0.0, 0.0, 0.0, 0.0, 0.0, 0.0, 1.6878046613817346E9, 0.0, 2023-06-26 13:37:41.381
98.0, 52933.84825394729, 50084.64903648484, 20916.181315920512, -27784.335945169445, -3121.6669823726397, -15258.507759393187, 21429.220906403174, 6349.437695674622, 0.08, 0.976, 0.14, 192.0, 0.0, 0.0, 0.0, 0.0, 0.0, 0.0, 0.0, 0.0, 0.0, 1.6878046613867574E9, 0.0, 2023-06-26 13:37:41.386
99.0, 52919.498434006986, 50064.24189379715, 20884.777114960805, -27788.627480104864, -3201.5521170559073, -15283.541713183131, 21400.23069384464, 6344.565015383365, 0.08, 0.976, 0.14, 192.0, 0.0, 0.0, 0.0, 0.0, 0.0, 0.0, 0.0, 0.0, 0.0, 1.6878046613897822E9, 0.0, 2023-06-26 13:37:41.389
100.0, 52900.70061692007, 50073.02612936809, 20927.24542942589, -27702.305043018467, -3203.072035678868, -15217.425253084333, 21449.315124668494, 6424.1819291331685, 0.092, 0.974, 0.14200000000000002, 192.0, 2.0, 224.0, 30.0, 112.0, 4.0, 112.0, 0.0, 0.0, 0.0, 1.6878046613927839E9, 0.0, 2023-06-26 13:37:41.392
101.0, 52887.80366036936, 50067.393489765345, 20937.23665919741, -27712.67625244573, -3133.71457263405, -15200.01324415365, 21477.523026171093, 6419.599821519831, 0.092, 0.974, 0.14200000000000002, 192.0, 0.0, 0.0, 0.0, 0.0, 0.0, 0.0, 0.0, 0.0, 0.0, 1.687804661396802E9, 0.0, 2023-06-26 13:37:41.396
102.0, 52914.42458801563, 50067.90757988782, 20907.218266393935, -27787.308727182, -3119.677677116117, -15260.4523611608, 21431.880763993355, 6348.856550318784, 0.092, 0.974, 0.14200000000000002, 192.0, 0.0, 0.0, 0.0, 0.0, 0.0, 0.0, 0.0, 0.0, 0.0, 1.687804661400822E9, 0.0, 2023-06-26 13:37:41.400
103.0, 52918.60436422877, 50061.76085016261, 20879.725620713907, -27795.44476216373, -3185.660026748184, -15288.637910918942, 21393.882798419334, 6337.613622857764, 0.092, 0.974, 0.14200000000000002, 192.0, 0.0, 0.0, 0.0, 0.0, 0.0, 0.0, 0.0, 0.0, 0.0, 1.6878046614058368E9, 0.0, 2023-06-26 13:37:41.405
104.0, 52893.36924473873, 50059.52567571708, 20908.782888505804, -27723.136868850812, -3212.482120094552, -15238.97233473925, 21432.081929693453, 6406.211126591102, 0.092, 0.974, 0.14200000000000002, 192.0, 0.0, 0.0, 0.0, 0.0, 0.0, 0.0, 0.0, 0.0, 0.0, 1.6878046614088776E9, 0.0, 2023-06-26 13:37:41.408
105.0, 52885.81435511284, 50061.604387951425, 20941.639952855105, -27703.176761052226, -3144.9575000950695, -15196.459316785254, 21476.96423255971, 6426.819434978895, 0.092, 0.974, 0.14200000000000002, 192.0, 0.0, 0.0, 0.0, 0.0, 0.0, 0.0, 0.0, 0.0, 0.0, 1.6878046614129024E9, 0.0, 2023-06-26 13:37:41.412
106.0, 52900.387692497694, 50054.80945763701, 20910.638083295595, -27780.402038145312, -3118.5153864044414, -15255.266756447169, 21438.541583841037, 6354.489189921522, 0.092, 0.974, 0.14200000000000002, 192.0, 0.0, 0.0, 0.0, 0.0, 0.0, 0.0, 0.0, 0.0, 0.0, 1.6878046614168806E9, 0.0, 2023-06-26 13:37:41.416
107.0, 52913.30700079286, 50054.47418147018, 20879.256234080345, -27809.54871291503, -3176.316997565865, -15298.785602901651, 21397.86140893238, 6329.544643109399, 0.092, 0.974, 0.14200000000000002, 192.0, 0.0, 0.0, 0.0, 0.0, 0.0, 0.0, 0.0, 0.0, 0.0, 1.6878046614199333E9, 0.0, 2023-06-26 13:37:41.419
108.0, 52887.334273735796, 50047.18751277775, 20895.058917410246, -27747.701436007195, -3226.071980723379, -15257.680744848341, 21420.749595254612, 6392.330693284356, 0.092, 0.974, 0.14200000000000002, 192.0, 0.0, 0.0, 0.0, 0.0, 0.0, 0.0, 0.0, 0.0, 0.0, 1.6878046614239132E9, 0.0, 2023-06-26 13:37:41.423
109.0, 52880.628750399206, 50055.25649252612, 20939.04715049829, -27697.09708656038, -3160.491962491508, -15189.642034726387, 21479.400572705337, 6444.209092165124, 0.092, 0.974, 0.14200000000000002, 192.0, 0.0, 0.0, 0.0, 0.0, 0.0, 0.0, 0.0, 0.0, 0.0, 1.687804661427961E9, 0.0, 2023-06-26 13:37:41.427
110.0, 52900.00771284196, 50059.19039955025, 20917.3883101211, -27764.085264692934, -3112.592174123785, -15244.202642941791, 21455.73007532717, 6372.0576610633925, 0.094, 0.974, 0.14, 192.0, 2.0, 240.0, 30.0, 112.0, 4.0, 96.0, 0.0, 0.0, 0.0, 1.6878046614329777E9, 0.0, 2023-06-26 13:37:41.432
111.0, 52901.34881750928, 50038.78325686255, 20867.65567870804, -27822.22215202119, -3175.5346865099295, -15310.922600140882, 21395.38036529784, 6317.742922036997, 0.094, 0.974, 0.14, 192.0, 0.0, 0.0, 0.0, 0.0, 0.0, 0.0, 0.0, 0.0, 0.0, 1.6878046614369948E9, 0.0, 2023-06-26 13:37:41.436
112.0, 52887.49073594699, 50037.3080417285, 20886.364088817132, -27759.279639635046, -3228.463617380097, -15267.515512408676, 21416.43570857474, 6381.1548210567025, 0.094, 0.974, 0.14, 192.0, 0.0, 0.0, 0.0, 0.0, 0.0, 0.0, 0.0, 0.0, 0.0, 1.6878046614410307E9, 0.0, 2023-06-26 13:37:41.441
113.0, 52888.94359933658, 50061.96201586271, 20943.495147644895, -27688.983403323105, -3167.4433550171084, -15196.459316785254, 21486.039040808566, 6448.500627100543, 0.094, 0.974, 0.14, 192.0, 0.0, 0.0, 0.0, 0.0, 0.0, 0.0, 0.0, 0.0, 0.0, 1.6878046614440246E9, 0.0, 2023-06-26 13:37:41.444
114.0, 52895.313846506346, 50059.19039955025, 20928.18420269301, -27746.4497383177, -3109.529985133408, -15227.327075878035, 21470.43752317876, 6391.950713628616, 0.094, 0.974, 0.14, 192.0, 0.0, 0.0, 0.0, 0.0, 0.0, 0.0, 0.0, 0.0, 0.0, 1.6878046614481502E9, 0.0, 2023-06-26 13:37:41.448
115.0, 52902.84638438778, 50044.92998658776, 20876.618728234618, -27816.03071880707, -3154.9487298665917, -15299.590265702042, 21414.8040312295, 6329.9693262540495, 0.094, 0.974, 0.14, 192.0, 0.0, 0.0, 0.0, 0.0, 0.0, 0.0, 0.0, 0.0, 0.0, 1.6878046614521136E9, 0.0, 2023-06-26 13:37:41.452
116.0, 52899.58302969731, 50049.46739071219, 20885.537074272284, -27764.82287225996, -3212.750341028016, -15270.085963021036, 21423.588266800438, 6377.667948921675, 0.094, 0.974, 0.14, 192.0, 0.0, 0.0, 0.0, 0.0, 0.0, 0.0, 0.0, 0.0, 0.0, 1.687804661456114E9, 0.0, 2023-06-26 13:37:41.456
117.0, 52873.140916006676, 50046.67342265528, 20920.60696132266, -27706.48481923161, -3190.622114017262, -15210.406805325367, 21467.844720821944, 6431.55800480342, 0.094, 0.974, 0.14, 192.0, 0.0, 0.0, 0.0, 0.0, 0.0, 0.0, 0.0, 0.0, 0.0, 1.6878046614611597E9, 0.0, 2023-06-26 13:37:41.461
118.0, 52890.955256337555, 50060.53150421757, 20930.2405631829, -27730.73646196562, -3117.5095579039526, -15214.072491416036, 21473.790284847055, 6406.144071357736, 0.094, 0.974, 0.14, 192.0, 0.0, 0.0, 0.0, 0.0, 0.0, 0.0, 0.0, 0.0, 0.0, 1.6878046614661405E9, 0.0, 2023-06-26 13:37:41.466
119.0, 52894.91151510615, 50036.503378928115, 20869.868501409113, -27820.635178164863, -3158.6367677017174, -15301.713681425295, 21399.42603104425, 6318.234660415013, 0.094, 0.974, 0.14, 192.0, 0.0, 0.0, 0.0, 0.0, 0.0, 0.0, 0.0, 0.0, 0.0, 1.6878046614701655E9, 0.0, 2023-06-26 13:37:41.470
120.0, 52886.30609349086, 50027.13799800134, 20856.859786136127, -27801.300919211022, -3233.1798354601665, -15308.12863208397, 21383.109257591877, 6334.417323400656, 0.094, 0.974, 0.14, 192.0, 0.0, 0.0, 0.0, 0.0, 0.0, 0.0, 0.0, 0.0, 0.0, 1.6878046614731708E9, 0.0, 2023-06-26 13:37:41.473
121.0, 52866.59185488127, 50033.776466104566, 20900.982129690903, -27719.58294148242, -3214.8290532623596, -15227.483538089222, 21442.207269931707, 6418.996324419538, 0.088, 0.972, 0.14, 192.0, 2.0, 192.0, 30.0, 96.0, 4.0, 96.0, 0.0, 0.0, 0.0, 1.687804661476179E9, 0.0, 2023-06-26 13:37:41.476
122.0, 52886.194334768574, 50055.07767857047, 20931.447557383486, -27721.505191505577, -3127.3219737198324, -15202.114308132448, 21479.53468317207, 6420.27037385349, 0.088, 0.972, 0.14, 192.0, 0.0, 0.0, 0.0, 0.0, 0.0, 0.0, 0.0, 0.0, 0.0, 1.687804661480228E9, 0.0, 2023-06-26 13:37:41.480
123.0, 52904.589820455294, 50047.03105056656, 20888.241635351376, -27806.911207069305, -3138.1178662917455, -15281.485352693244, 21419.72141500967, 6335.221986201047, 0.088, 0.972, 0.14, 192.0, 0.0, 0.0, 0.0, 0.0, 0.0, 0.0, 0.0, 0.0, 0.0, 1.687804661484243E9, 0.0, 2023-06-26 13:37:41.484
124.0, 52895.716177906535, 50032.792989348534, 20863.766475172815, -27804.40781169031, -3213.487948595041, -15299.45615523531, 21385.009155870575, 6329.321125664846, 0.088, 0.972, 0.14, 192.0, 0.0, 0.0, 0.0, 0.0, 0.0, 0.0, 0.0, 0.0, 0.0, 1.6878046614882271E9, 0.0, 2023-06-26 13:37:41.488
125.0, 52867.30711070384, 50029.35082070241, 20897.60701627815, -27730.78116545453, -3225.4461318786302, -15235.35135213749, 21428.215077902685, 6405.942905657638, 0.088, 0.972, 0.14, 192.0, 0.0, 0.0, 0.0, 0.0, 0.0, 0.0, 0.0, 0.0, 0.0, 1.687804661492273E9, 0.0, 2023-06-26 13:37:41.492
126.0, 52885.99316906848, 50058.586902449955, 20946.33381919072, -27700.986290095603, -3133.7816278674163, -15184.724650946218, 21487.71542164271, 6433.32379261539, 0.088, 0.972, 0.14, 192.0, 0.0, 0.0, 0.0, 0.0, 0.0, 0.0, 0.0, 0.0, 0.0, 1.6878046614953837E9, 0.0, 2023-06-26 13:37:41.495
127.0, 52898.42073898563, 50047.47808545567, 20905.161905904046, -27785.721753325673, -3121.9575550505588, -15261.16761698337, 21436.664037306793, 6348.029535773938, 0.088, 0.972, 0.14, 192.0, 0.0, 0.0, 0.0, 0.0, 0.0, 0.0, 0.0, 0.0, 0.0, 1.687804661500328E9, 0.0, 2023-06-26 13:37:41.500
128.0, 52892.96691333853, 50031.541291659036, 20866.538091485276, -27810.2639687376, -3204.2790298794544, -15300.014948846692, 21384.360955281372, 6327.644744830697, 0.088, 0.972, 0.14, 192.0, 0.0, 0.0, 0.0, 0.0, 0.0, 0.0, 0.0, 0.0, 0.0, 1.6878046615043433E9, 0.0, 2023-06-26 13:37:41.504
129.0, 52882.39453821118, 50043.4100679648, 20909.006405950357, -27716.073717602936, -3222.272184165977, -15227.707055533774, 21434.272400650072, 6412.827242949873, 0.088, 0.972, 0.14, 192.0, 0.0, 0.0, 0.0, 0.0, 0.0, 0.0, 0.0, 0.0, 0.0, 1.687804661508355E9, 0.0, 2023-06-26 13:37:41.508
130.0, 52877.70067187556, 50051.30023375753, 20944.880955801127, -27687.776409122518, -3151.1936367981, -15179.159066576847, 21486.754296631134, 6438.576452562386, 0.088, 0.972, 0.14, 192.0, 0.0, 0.0, 0.0, 0.0, 0.0, 0.0, 0.0, 0.0, 0.0, 1.6878046615123816E9, 0.0, 2023-06-26 13:37:41.512
131.0, 52895.76088139545, 50049.33328024546, 20917.790641521293, -27767.39332287232, -3119.1859387381005, -15239.285259161623, 21454.836005548957, 6371.230646518547, 0.08600000000000001, 0.97, 0.14, 192.0, 2.0, 176.0, 30.0, 80.0, 4.0, 96.0, 0.0, 0.0, 0.0, 1.6878046615164077E9, 0.0, 2023-06-26 13:37:41.516
132.0, 52897.057282573856, 50035.721067872175, 20876.730486956894, -27806.911207069305, -3184.140108125223, -15286.961530084793, 21399.33662406643, 6337.971250769049, 0.08600000000000001, 0.97, 0.14, 192.0, 0.0, 0.0, 0.0, 0.0, 0.0, 0.0, 0.0, 0.0, 0.0, 1.687804661520411E9, 0.0, 2023-06-26 13:37:41.520
133.0, 52859.55105537785, 50017.906727541296, 20875.679954967494, -27759.793729757515, -3250.256568224021, -15264.54273039612, 21402.24235084562, 6381.668911179175, 0.08600000000000001, 0.97, 0.14, 192.0, 0.0, 0.0, 0.0, 0.0, 0.0, 0.0, 0.0, 0.0, 0.0, 1.6878046615254383E9, 0.0, 2023-06-26 13:37:41.525
134.0, 52862.54618913486, 50036.637489394845, 20929.458252126962, -27703.44498198569, -3176.272294076955, -15193.53123826161, 21471.577462145982, 6439.828150251884, 0.08600000000000001, 0.97, 0.14, 192.0, 0.0, 0.0, 0.0, 0.0, 0.0, 0.0, 0.0, 0.0, 0.0, 1.6878046615284557E9, 0.0, 2023-06-26 13:37:41.528
135.0, 52879.578218409806, 50039.58791966295, 20910.61573155114, -27766.007514716093, -3125.265613229944, -15234.30082014809, 21450.075083979977, 6376.796230887918, 0.08600000000000001, 0.97, 0.14, 192.0, 0.0, 0.0, 0.0, 0.0, 0.0, 0.0, 0.0, 0.0, 0.0, 1.6878046615334733E9, 0.0, 2023-06-26 13:37:41.533
136.0, 52884.31678823433, 50025.37221018937, 20859.027905348292, -27822.311558999012, -3184.073052891857, -15299.590265702042, 21391.42410652925, 6321.877994761228, 0.08600000000000001, 0.97, 0.14, 192.0, 0.0, 0.0, 0.0, 0.0, 0.0, 0.0, 0.0, 0.0, 0.0, 1.6878046615374784E9, 0.0, 2023-06-26 13:37:41.537
137.0, 52866.32363394781, 50017.973782774665, 20864.88406239558, -27772.40011363031, -3243.7969140764376, -15267.448457175311, 21403.494048535114, 6372.504695952499, 0.08600000000000001, 0.97, 0.14, 192.0, 0.0, 0.0, 0.0, 0.0, 0.0, 0.0, 0.0, 0.0, 0.0, 1.6878046615415306E9, 0.0, 2023-06-26 13:37:41.541
138.0, 52859.66281410013, 50034.44701843822, 20913.00736820786, -27711.737479178606, -3194.779538485949, -15199.208581353258, 21464.53666264256, 6434.0390484379595, 0.08600000000000001, 0.97, 0.14, 192.0, 0.0, 0.0, 0.0, 0.0, 0.0, 0.0, 0.0, 0.0, 0.0, 1.6878046615445356E9, 0.0, 2023-06-26 13:37:41.544
139.0, 52882.70746263355, 50048.55096918953, 20914.639045553096, -27746.650904017795, -3125.6455928856844, -15218.118157162447, 21466.637726621357, 6394.78938517444, 0.08600000000000001, 0.97, 0.14, 192.0, 0.0, 0.0, 0.0, 0.0, 0.0, 0.0, 0.0, 0.0, 0.0, 1.6878046615475454E9, 0.0, 2023-06-26 13:37:41.547
140.0, 52901.862907631745, 50042.04661155303, 20877.781018946294, -27807.26883498059, -3162.4589160035753, -15286.626253917964, 21408.657301504292, 6332.271555932946, 0.08600000000000001, 0.97, 0.14, 192.0, 0.0, 0.0, 0.0, 0.0, 0.0, 0.0, 0.0, 0.0, 0.0, 1.6878046615515752E9, 0.0, 2023-06-26 13:37:41.551
141.0, 52878.12535502021, 50024.72400960017, 20863.922937384003, -27782.59250910193, -3238.790123318449, -15286.179219028858, 21394.441592030715, 6359.272463234957, 0.092, 0.97, 0.146, 192.0, 2.0, 224.0, 30.0, 80.0, 4.0, 144.0, 0.0, 0.0, 0.0, 1.6878046615586078E9, 0.0, 2023-06-26 13:37:41.558
142.0, 52871.84451482827, 50041.28665224155, 20919.55642933326, -27700.896883117784, -3204.390788601731, -15208.73042449122, 21463.44142716425, 6439.157597918224, 0.092, 0.97, 0.146, 192.0, 0.0, 0.0, 0.0, 0.0, 0.0, 0.0, 0.0, 0.0, 0.0, 1.6878046615626128E9, 0.0, 2023-06-26 13:37:41.562
143.0, 52890.79879412637, 50057.17874254927, 20937.415473153054, -27723.78506944002, -3123.3210114623325, -15213.15606989337, 21479.8699593389, 6416.6717429961855, 0.092, 0.97, 0.146, 192.0, 0.0, 0.0, 0.0, 0.0, 0.0, 0.0, 0.0, 0.0, 0.0, 1.6878046615656447E9, 0.0, 2023-06-26 13:37:41.565
144.0, 52906.89205013419, 50048.08158255596, 20890.119181885624, -27797.702288353717, -3148.936110608114, -15288.79437313013, 21411.250103861108, 6337.9488990245945, 0.092, 0.97, 0.146, 192.0, 0.0, 0.0, 0.0, 0.0, 0.0, 0.0, 0.0, 0.0, 0.0, 1.6878046615716672E9, 0.0, 2023-06-26 13:37:41.571
145.0, 52886.55196267986, 50025.5063206561, 20867.61097521913, -27788.850997549416, -3225.78140804546, -15298.517381968188, 21389.56891173946, 6340.25112870349, 0.092, 0.97, 0.146, 192.0, 0.0, 0.0, 0.0, 0.0, 0.0, 0.0, 0.0, 0.0, 0.0, 1.6878046615746596E9, 0.0, 2023-06-26 13:37:41.574
146.0, 52868.536456648886, 50032.34595445943, 20915.063728697747, -27706.14954306478, -3216.8630620077925, -15223.147299664892, 21449.069255479488, 6421.0079814205155, 0.092, 0.97, 0.146, 192.0, 0.0, 0.0, 0.0, 0.0, 0.0, 0.0, 0.0, 0.0, 0.0, 1.687804661577712E9, 0.0, 2023-06-26 13:37:41.577
147.0, 52883.80269811186, 50052.97661459167, 20942.221098210943, -27703.780258152517, -3129.5347964209077, -15193.084203372504, 21485.703764641734, 6428.182891390668, 0.092, 0.97, 0.146, 192.0, 0.0, 0.0, 0.0, 0.0, 0.0, 0.0, 0.0, 0.0, 0.0, 1.6878046615817187E9, 0.0, 2023-06-26 13:37:41.581
148.0, 52889.90472434816, 50035.27403298307, 20891.013251663837, -27793.366049929387, -3138.1178662917455, -15276.791486357628, 21423.968246456177, 6337.747733324496, 0.092, 0.97, 0.146, 192.0, 0.0, 0.0, 0.0, 0.0, 0.0, 0.0, 0.0, 0.0, 0.0, 1.6878046615847185E9, 0.0, 2023-06-26 13:37:41.584
149.0, 52877.477154431006, 50017.01265776309, 20861.03956234927, -27798.015212776092, -3214.426721862164, -15302.3618820145, 21389.56891173946, 6333.880881533728, 0.092, 0.97, 0.146, 192.0, 0.0, 0.0, 0.0, 0.0, 0.0, 0.0, 0.0, 0.0, 0.0, 1.6878046615877585E9, 0.0, 2023-06-26 13:37:41.587
150.0, 52859.34988967775, 50020.56658513148, 20906.011272193347, -27714.263226302057, -3222.87568126627, -15226.991799711204, 21437.088720451444, 6415.151824373224, 0.092, 0.97, 0.146, 192.0, 0.0, 0.0, 0.0, 0.0, 0.0, 0.0, 0.0, 0.0, 0.0, 1.687804661591777E9, 0.0, 2023-06-26 13:37:41.591
151.0, 52861.60741586774, 50035.22932949416, 20940.90234528808, -27696.471237715632, -3144.175189039134, -15191.877209171917, 21479.758200616623, 6434.731952516074, 0.08600000000000001, 0.972, 0.14400000000000002, 192.0, 2.0, 176.0, 30.0, 96.0, 4.0, 128.0, 0.0, 0.0, 0.0, 1.6878046615967956E9, 0.0, 2023-06-26 13:37:41.596
152.0, 52883.73564287849, 50035.78812310554, 20909.587551306195, -27767.63919206133, -3122.6951626175837, -15250.505834878188, 21449.695104324237, 6365.1286202822475, 0.08600000000000001, 0.972, 0.14400000000000002, 192.0, 0.0, 0.0, 0.0, 0.0, 0.0, 0.0, 0.0, 0.0, 0.0, 1.687804661600816E9, 0.0, 2023-06-26 13:37:41.600
153.0, 52883.53447717839, 50022.734704343646, 20870.293184553764, -27796.1600179863, -3197.6629135206836, -15292.191838287335, 21400.18599035573, 6334.126750722737, 0.08600000000000001, 0.972, 0.14400000000000002, 192.0, 0.0, 0.0, 0.0, 0.0, 0.0, 0.0, 0.0, 0.0, 0.0, 1.6878046616038096E9, 0.0, 2023-06-26 13:37:41.603
154.0, 52861.965043779026, 50021.952393287705, 20895.61771102163, -27728.545991009, -3231.659916837206, -15238.458244616777, 21431.05374944851, 6402.612495733798, 0.08600000000000001, 0.972, 0.14400000000000002, 192.0, 0.0, 0.0, 0.0, 0.0, 0.0, 0.0, 0.0, 0.0, 0.0, 1.68780466160885E9, 0.0, 2023-06-26 13:37:41.608
155.0, 52856.53356987639, 50032.61417539289, 20931.693426572496, -27699.376964494822, -3163.308282292877, -15196.705185974264, 21479.78055236108, 6436.363629861311, 0.08600000000000001, 0.972, 0.14400000000000002, 192.0, 0.0, 0.0, 0.0, 0.0, 0.0, 0.0, 0.0, 0.0, 0.0, 1.6878046616128643E9, 0.0, 2023-06-26 13:37:41.612
156.0, 52872.80563983985, 50027.98736429064, 20907.955873960957, -27767.750950783608, -3128.3501539647764, -15251.377552911945, 21447.124653711875, 6363.608701659286, 0.08600000000000001, 0.972, 0.14400000000000002, 192.0, 0.0, 0.0, 0.0, 0.0, 0.0, 0.0, 0.0, 0.0, 0.0, 1.6878046616168694E9, 0.0, 2023-06-26 13:37:41.616
157.0, 52877.36539570873, 50017.37028567437, 20862.358315272133, -27811.470962938187, -3195.3383320973317, -15302.540695970143, 21389.144228594807, 6320.246317415991, 0.08600000000000001, 0.972, 0.14400000000000002, 192.0, 0.0, 0.0, 0.0, 0.0, 0.0, 0.0, 0.0, 0.0, 0.0, 1.6878046616219091E9, 0.0, 2023-06-26 13:37:41.621
158.0, 52868.20118048206, 50027.62973637936, 20889.1804086185, -27739.744214981107, -3235.2808994389657, -15253.25509944619, 21415.474583563162, 6388.709710682597, 0.08600000000000001, 0.972, 0.14400000000000002, 192.0, 0.0, 0.0, 0.0, 0.0, 0.0, 0.0, 0.0, 0.0, 0.0, 1.6878046616259096E9, 0.0, 2023-06-26 13:37:41.625
159.0, 52863.06027925733, 50044.05826855401, 20936.834327797216, -27685.76475212154, -3174.4841545205304, -15189.597331237475, 21471.555110401525, 6440.185778163169, 0.08600000000000001, 0.972, 0.14400000000000002, 192.0, 0.0, 0.0, 0.0, 0.0, 0.0, 0.0, 0.0, 0.0, 0.0, 1.687804661629973E9, 0.0, 2023-06-26 13:37:41.629
160.0, 52880.13701202119, 50046.60636742191, 20923.91501950205, -27741.889982448814, -3123.4551219290643, -15224.82368049904, 21449.985677002154, 6383.792326902429, 0.08600000000000001, 0.972, 0.14400000000000002, 192.0, 0.0, 0.0, 0.0, 0.0, 0.0, 0.0, 0.0, 0.0, 0.0, 1.687804661632964E9, 0.0, 2023-06-26 13:37:41.632
161.0, 52892.27400926042, 50036.23515799465, 20882.340774815177, -27800.22803547717, -3175.2217620875554, -15291.677748164862, 21395.156847853286, 6331.377486154734, 0.08600000000000001, 0.972, 0.14400000000000002, 192.0, 0.0, 0.0, 0.0, 0.0, 0.0, 0.0, 0.0, 0.0, 0.0, 1.6878046616369865E9, 0.0, 2023-06-26 13:37:41.636
162.0, 52867.396517681664, 50024.90282355581, 20875.814065434228, -27765.24755540461, -3243.5733966318844, -15277.551445669109, 21396.60971124288, 6364.681585393141, 0.08600000000000001, 0.968, 0.14, 192.0, 2.0, 176.0, 30.0, 64.0, 4.0, 96.0, 0.0, 0.0, 0.0, 1.6878046616410158E9, 0.0, 2023-06-26 13:37:41.641
163.0, 52860.04279375587, 50039.498512685124, 20927.111318959156, -27695.420705726232, -3192.589067529329, -15204.349482577978, 21465.34132544295, 6430.172196647191, 0.08600000000000001, 0.968, 0.14, 192.0, 0.0, 0.0, 0.0, 0.0, 0.0, 0.0, 0.0, 0.0, 0.0, 1.6878046616450212E9, 0.0, 2023-06-26 13:37:41.645
164.0, 52875.1302212632, 50044.17002727628, 20930.017045738346, -27735.96677016816, -3130.004183054469, -15224.331942121024, 21463.217909719697, 6387.636826948742, 0.08600000000000001, 0.968, 0.14, 192.0, 0.0, 0.0, 0.0, 0.0, 0.0, 0.0, 0.0, 0.0, 0.0, 1.6878046616480253E9, 0.0, 2023-06-26 13:37:41.648
165.0, 52880.964026566035, 50025.729838100655, 20875.23292007839, -27815.002538562127, -3174.2159335870665, -15313.783623431162, 21398.53196126604, 6307.125843420726, 0.08600000000000001, 0.968, 0.14, 192.0, 0.0, 0.0, 0.0, 0.0, 0.0, 0.0, 0.0, 0.0, 0.0, 1.6878046616521168E9, 0.0, 2023-06-26 13:37:41.652
166.0, 52871.866866572724, 50020.29836419802, 20872.103675854647, -27781.586680601442, -3238.2760331959767, -15306.228733805268, 21392.8993216633, 6340.765218825963, 0.08600000000000001, 0.968, 0.14, 192.0, 0.0, 0.0, 0.0, 0.0, 0.0, 0.0, 0.0, 0.0, 0.0, 1.6878046616561384E9, 0.0, 2023-06-26 13:37:41.656
167.0, 52851.526779118394, 50022.48883515464, 20912.04624319628, -27710.61989195584, -3217.5783178303623, -15236.558346338075, 21443.213098432196, 6406.971085902583, 0.08600000000000001, 0.968, 0.14, 192.0, 0.0, 0.0, 0.0, 0.0, 0.0, 0.0, 0.0, 0.0, 0.0, 1.6878046616602285E9, 0.0, 2023-06-26 13:37:41.660
168.0, 52863.08263100179, 50032.63652713734, 20928.586534093207, -27725.57320899644, -3138.0061075694693, -15231.618610813453, 21464.33549694246, 6388.5532484714095, 0.08600000000000001, 0.968, 0.14, 192.0, 0.0, 0.0, 0.0, 0.0, 0.0, 0.0, 0.0, 0.0, 0.0, 1.687804661663108E9, 0.0, 2023-06-26 13:37:41.663
169.0, 52883.86975334523, 50027.696791612725, 20889.60509176315, -27793.07547725147, -3149.6737181751396, -15294.449364477321, 21414.37934808485, 6328.248241930991, 0.08600000000000001, 0.968, 0.14, 192.0, 0.0, 0.0, 0.0, 0.0, 0.0, 0.0, 0.0, 0.0, 0.0, 1.687804661668136E9, 0.0, 2023-06-26 13:37:41.668
170.0, 52885.38967196819, 50028.34499220193, 20882.251367837354, -27770.00847697359, -3212.035085205446, -15286.156867284402, 21400.677728733746, 6353.773934098952, 0.08600000000000001, 0.968, 0.14, 192.0, 0.0, 0.0, 0.0, 0.0, 0.0, 0.0, 0.0, 0.0, 0.0, 1.6878046616721706E9, 0.0, 2023-06-26 13:37:41.672
171.0, 52858.85815129973, 50027.74149510163, 20915.46606009794, -27701.00864184006, -3215.454902107108, -15220.487442074711, 21448.309296168005, 6417.588164518853, 0.08600000000000001, 0.968, 0.14, 192.0, 0.0, 0.0, 0.0, 0.0, 0.0, 0.0, 0.0, 0.0, 0.0, 1.6878046616761868E9, 0.0, 2023-06-26 13:37:41.676
172.0, 52874.9290555631, 50050.272053512585, 20950.267726214854, -27691.084467301902, -3129.110113276257, -15190.558456249055, 21491.179942033286, 6427.668801268197, 0.08600000000000001, 0.974, 0.14200000000000002, 192.0, 2.0, 176.0, 30.0, 112.0, 4.0, 112.0, 0.0, 0.0, 0.0, 1.687804661680218E9, 0.0, 2023-06-26 13:37:41.680
173.0, 52886.216686513035, 50037.129227772864, 20899.059879667748, -27777.764532299585, -3133.915738334148, -15268.744858353719, 21434.00417971661, 6349.214178230069, 0.08600000000000001, 0.974, 0.14200000000000002, 192.0, 0.0, 0.0, 0.0, 0.0, 0.0, 0.0, 0.0, 0.0, 0.0, 1.6878046616832364E9, 0.0, 2023-06-26 13:37:41.683
174.0, 52875.867828830225, 50018.7560938306, 20867.901547897047, -27790.683840594753, -3211.5433468274296, -15289.755498141707, 21392.94402515221, 6334.439675145111, 0.08600000000000001, 0.974, 0.14200000000000002, 192.0, 0.0, 0.0, 0.0, 0.0, 0.0, 0.0, 0.0, 0.0, 0.0, 1.687804661687254E9, 0.0, 2023-06-26 13:37:41.687
175.0, 52857.60645361024, 50024.254622966604, 20900.42333607952, -27716.252531558577, -3227.2789749239655, -15229.696360790296, 21434.808842517003, 6405.518222512987, 0.08600000000000001, 0.974, 0.14200000000000002, 192.0, 0.0, 0.0, 0.0, 0.0, 0.0, 0.0, 0.0, 0.0, 0.0, 1.687804661691249E9, 0.0, 2023-06-26 13:37:41.691
176.0, 52851.526779118394, 50031.94362305923, 20925.256124169366, -27704.584920952908, -3161.877770647737, -15202.96367442175, 21470.25870922312, 6416.6717429961855, 0.08600000000000001, 0.974, 0.14200000000000002, 192.0, 0.0, 0.0, 0.0, 0.0, 0.0, 0.0, 0.0, 0.0, 0.0, 1.687804661697276E9, 0.0, 2023-06-26 13:37:41.697
177.0, 52873.0291572844, 50031.72010561468, 20899.886894212592, -27776.378724143357, -3140.0177645704466, -15266.040297274627, 21432.730130282656, 6344.810884572374, 0.08600000000000001, 0.974, 0.14200000000000002, 192.0, 0.0, 0.0, 0.0, 0.0, 0.0, 0.0, 0.0, 0.0, 0.0, 1.6878046617012732E9, 0.0, 2023-06-26 13:37:41.701
178.0, 52881.05343354386, 50028.03206777955, 20867.208643818933, -27797.79169533154, -3207.900012481214, -15305.93816112735, 21382.617519213858, 6317.25118365898, 0.08600000000000001, 0.974, 0.14200000000000002, 192.0, 0.0, 0.0, 0.0, 0.0, 0.0, 0.0, 0.0, 0.0, 0.0, 1.687804661704302E9, 0.0, 2023-06-26 13:37:41.704
179.0, 52859.59575886676, 50027.540329401534, 20887.99576616237, -27732.39049105531, -3248.6919461121497, -15259.379477426945, 21405.90803693629, 6382.674739679664, 0.08600000000000001, 0.974, 0.14200000000000002, 192.0, 0.0, 0.0, 0.0, 0.0, 0.0, 0.0, 0.0, 0.0, 0.0, 1.687804661708359E9, 0.0, 2023-06-26 13:37:41.708
180.0, 52854.83483729778, 50036.27986148356, 20929.838231782705, -27695.063077814946, -3177.948674911103, -15198.113345874948, 21467.8670725664, 6428.719333257596, 0.08600000000000001, 0.974, 0.14200000000000002, 192.0, 0.0, 0.0, 0.0, 0.0, 0.0, 0.0, 0.0, 0.0, 0.0, 1.6878046617113543E9, 0.0, 2023-06-26 13:37:41.711
181.0, 52865.98835778098, 50025.81924507848, 20905.273664626322, -27766.74512228312, -3142.2976425048882, -15250.68464883383, 21438.407473374304, 6360.837085346829, 0.08600000000000001, 0.974, 0.14200000000000002, 192.0, 0.0, 0.0, 0.0, 0.0, 0.0, 0.0, 0.0, 0.0, 0.0, 1.6878046617153716E9, 0.0, 2023-06-26 13:37:41.715
182.0, 52872.80563983985, 50014.17398621726, 20861.64305944956, -27813.303805983523, -3204.949582213114, -15309.805012918117, 21386.462019260172, 6314.412512113156, 0.08600000000000001, 0.982, 0.14200000000000002, 192.0, 2.0, 176.0, 30.0, 176.0, 4.0, 112.0, 0.0, 0.0, 0.0, 1.6878046617194035E9, 0.0, 2023-06-26 13:37:41.719
183.0, 52853.44902914155, 50009.725989070655, 20871.187254331977, -27758.094997178912, -3260.337204973365, -15279.78662011464, 21398.844885688413, 6369.196637773113, 0.08600000000000001, 0.982, 0.14200000000000002, 192.0, 0.0, 0.0, 0.0, 0.0, 0.0, 0.0, 0.0, 0.0, 0.0, 1.6878046617234287E9, 0.0, 2023-06-26 13:37:41.723
184.0, 52848.08461047228, 50025.81924507848, 20923.445632868486, -27695.420705726232, -3198.7357972545383, -15213.066662915548, 21466.615374876903, 6430.08278966937, 0.08600000000000001, 0.982, 0.14200000000000002, 192.0, 0.0, 0.0, 0.0, 0.0, 0.0, 0.0, 0.0, 0.0, 0.0, 1.6878046617284288E9, 0.0, 2023-06-26 13:37:41.728
185.0, 52863.50731414644, 50028.50145441311, 20911.487449584896, -27746.606200528888, -3144.421058228142, -15244.426160386343, 21458.859319550913, 6378.9867018445375, 0.08600000000000001, 0.982, 0.14200000000000002, 192.0, 0.0, 0.0, 0.0, 0.0, 0.0, 0.0, 0.0, 0.0, 0.0, 1.687804661732445E9, 0.0, 2023-06-26 13:37:41.732
186.0, 52879.220590498524, 50020.499529898116, 20862.201853060946, -27804.98895704615, -3196.2771053644547, -15310.430861762867, 21395.17919959774, 6315.552451080376, 0.08600000000000001, 0.982, 0.14200000000000002, 192.0, 0.0, 0.0, 0.0, 0.0, 0.0, 0.0, 0.0, 0.0, 0.0, 1.6878046617364516E9, 0.0, 2023-06-26 13:37:41.736
187.0, 52867.08359325929, 50018.04083800803, 20871.790751432272, -27757.335037867433, -3252.469390925097, -15284.88281785045, 21399.694251977715, 6359.719498124064, 0.08600000000000001, 0.982, 0.14200000000000002, 192.0, 0.0, 0.0, 0.0, 0.0, 0.0, 0.0, 0.0, 0.0, 0.0, 1.6878046617394884E9, 0.0, 2023-06-26 13:37:41.739
188.0, 52863.55201763535, 50036.48102718366, 20929.771176549337, -27680.601499152363, -3200.30041936641, -15202.471936043732, 21468.694087111246, 6440.230481652079, 0.08600000000000001, 0.982, 0.14200000000000002, 192.0, 0.0, 0.0, 0.0, 0.0, 0.0, 0.0, 0.0, 0.0, 0.0, 1.6878046617435732E9, 0.0, 2023-06-26 13:37:41.743
189.0, 52865.60837812524, 50031.8095125925, 20919.24350491089, -27729.082432875926, -3145.426886728631, -15227.707055533774, 21460.33453468496, 6391.973065373071, 0.08600000000000001, 0.982, 0.14200000000000002, 192.0, 0.0, 0.0, 0.0, 0.0, 0.0, 0.0, 0.0, 0.0, 0.0, 1.6878046617475553E9, 0.0, 2023-06-26 13:37:41.747
190.0, 52885.74729987947, 50025.39456193383, 20882.31842307072, -27789.72271558317, -3170.080860862835, -15294.11408831049, 21403.963435168676, 6326.884785519217, 0.08600000000000001, 0.982, 0.14200000000000002, 192.0, 0.0, 0.0, 0.0, 0.0, 0.0, 0.0, 0.0, 0.0, 0.0, 1.6878046617515173E9, 0.0, 2023-06-26 13:37:41.751
191.0, 52872.51506716193, 50014.50926238409, 20872.640117721574, -27765.761645527084, -3241.8523123088257, -15288.772021385674, 21393.43576353023, 6351.4493526756, 0.08600000000000001, 0.982, 0.14200000000000002, 192.0, 0.0, 0.0, 0.0, 0.0, 0.0, 0.0, 0.0, 0.0, 0.0, 1.687804661755572E9, 0.0, 2023-06-26 13:37:41.755
192.0, 52859.03696525538, 50025.34985844492, 20918.975283977426, -27690.52567369052, -3221.8922045102368, -15218.989875196205, 21453.517252626094, 6424.517205299999, 0.088, 0.976, 0.14200000000000002, 192.0, 2.0, 192.0, 30.0, 128.0, 4.0, 112.0, 0.0, 0.0, 0.0, 1.6878046617605672E9, 0.0, 2023-06-26 13:37:41.760
193.0, 52873.38678519569, 50038.91736732929, 20935.582630107718, -27705.25547328657, -3145.7621628954607, -15211.256171614668, 21477.768895360103, 6412.380208060767, 0.088, 0.976, 0.14200000000000002, 192.0, 0.0, 0.0, 0.0, 0.0, 0.0, 0.0, 0.0, 0.0, 0.0, 1.6878046617646108E9, 0.0, 2023-06-26 13:37:41.764
194.0, 52868.69291886007, 50010.150672215306, 20872.841283421672, -27802.30674771151, -3180.586180756829, -15302.69715818133, 21407.33854858143, 6316.759445280963, 0.088, 0.976, 0.14200000000000002, 192.0, 0.0, 0.0, 0.0, 0.0, 0.0, 0.0, 0.0, 0.0, 0.0, 1.6878046617676268E9, 0.0, 2023-06-26 13:37:41.767
195.0, 52871.688052617086, 50013.36932341687, 20857.642097192063, -27785.095904480924, -3248.066097267401, -15305.289960538144, 21392.698155963204, 6337.300698435391, 0.088, 0.976, 0.14200000000000002, 192.0, 0.0, 0.0, 0.0, 0.0, 0.0, 0.0, 0.0, 0.0, 0.0, 1.687804661771627E9, 0.0, 2023-06-26 13:37:41.771
196.0, 52875.48784917448, 50042.85127435342, 20921.545734589785, -27680.132112518804, -3224.753227800516, -15209.825659969529, 21467.82236907749, 6438.7999700069395, 0.088, 0.976, 0.14200000000000002, 192.0, 0.0, 0.0, 0.0, 0.0, 0.0, 0.0, 0.0, 0.0, 0.0, 1.6878046617756605E9, 0.0, 2023-06-26 13:37:41.775
197.0, 52875.68901487458, 50048.19334127824, 20943.942182534003, -27684.602461409864, -3151.7300786650276, -15189.552627748566, 21498.06427932552, 6439.068190940403, 0.088, 0.976, 0.14200000000000002, 192.0, 0.0, 0.0, 0.0, 0.0, 0.0, 0.0, 0.0, 0.0, 0.0, 1.6878046617816997E9, 0.0, 2023-06-26 13:37:41.781
198.0, 52890.32940749281, 50039.163236518296, 20899.864542468138, -27764.755817026595, -3151.618319942751, -15265.660317618886, 21441.46966236468, 6354.109210265781, 0.088, 0.976, 0.14200000000000002, 192.0, 0.0, 0.0, 0.0, 0.0, 0.0, 0.0, 0.0, 0.0, 0.0, 1.6878046617857275E9, 0.0, 2023-06-26 13:37:41.785
199.0, 52880.78521261039, 50021.34889618742, 20861.911280383025, -27780.73731431214, -3229.8270737918706, -15304.50764948221, 21389.300690805994, 6332.360962910768, 0.088, 0.976, 0.14200000000000002, 192.0, 0.0, 0.0, 0.0, 0.0, 0.0, 0.0, 0.0, 0.0, 0.0, 1.687804661788733E9, 0.0, 2023-06-26 13:37:41.788
200.0, 52864.267273457925, 50025.66278286729, 20900.691557012982, -27700.00281333957, -3244.6686321101943, -15237.050084716093, 21431.500784337615, 6413.095463883336, 0.088, 0.976, 0.14200000000000002, 192.0, 0.0, 0.0, 0.0, 0.0, 0.0, 0.0, 0.0, 0.0, 0.0, 1.687804661792758E9, 0.0, 2023-06-26 13:37:41.792
201.0, 52869.721099105016, 50041.77839061957, 20942.154042977578, -27673.068961270925, -3163.4200410151534, -15192.77127895013, 21489.30239549904, 6443.18091192018, 0.088, 0.976, 0.14200000000000002, 192.0, 0.0, 0.0, 0.0, 0.0, 0.0, 0.0, 0.0, 0.0, 0.0, 1.6878046617957788E9, 0.0, 2023-06-26 13:37:41.795
202.0, 52881.746337621975, 50032.48006492616, 20906.882990227103, -27753.1999651432, -3147.326785007332, -15259.223015215757, 21450.924450269278, 6366.134448782736, 0.088, 0.976, 0.14200000000000002, 192.0, 0.0, 0.0, 0.0, 0.0, 0.0, 0.0, 0.0, 0.0, 0.0, 1.687804661799791E9, 0.0, 2023-06-26 13:37:41.799
203.0, 52878.79590735387, 50014.88924203983, 20863.252385050346, -27792.628442362362, -3226.8542917793147, -15314.78945193165, 21383.869216903357, 6322.213270928058, 0.092, 0.98, 0.14, 192.0, 2.0, 224.0, 30.0, 160.0, 4.0, 96.0, 0.0, 0.0, 0.0, 1.6878046618038113E9, 0.0, 2023-06-26 13:37:41.803
204.0, 52867.86590431522, 50026.17687298976, 20890.0297749078, -27717.593636225898, -3256.35859446032, -15258.619518115464, 21418.447365575717, 6393.470632251577, 0.092, 0.98, 0.14, 192.0, 0.0, 0.0, 0.0, 0.0, 0.0, 0.0, 0.0, 0.0, 0.0, 1.6878046618078227E9, 0.0, 2023-06-26 13:37:41.807
205.0, 52866.54715139236, 50046.1146290439, 20933.034531239813, -27671.660801370243, -3189.8398029613263, -15201.309645332056, 21474.505540669626, 6434.553138560431, 0.092, 0.98, 0.14, 192.0, 0.0, 0.0, 0.0, 0.0, 0.0, 0.0, 0.0, 0.0, 0.0, 1.6878046618118498E9, 0.0, 2023-06-26 13:37:41.811
206.0, 52883.02038705593, 50046.69577439973, 20915.555467075763, -27735.11740387886, -3146.879750118226, -15243.085055719026, 21458.613450361903, 6375.678643665153, 0.092, 0.98, 0.14, 192.0, 0.0, 0.0, 0.0, 0.0, 0.0, 0.0, 0.0, 0.0, 0.0, 1.6878046618158767E9, 0.0, 2023-06-26 13:37:41.815
207.0, 52889.301227247866, 50032.90474807081, 20871.52253049881, -27785.766456814585, -3204.3460851128207, -15302.585399459052, 21400.677728733746, 6325.230756429524, 0.092, 0.98, 0.14, 192.0, 0.0, 0.0, 0.0, 0.0, 0.0, 0.0, 0.0, 0.0, 0.0, 1.687804661820895E9, 0.0, 2023-06-26 13:37:41.820
208.0, 52883.46742194503, 50043.52182668708, 20894.366013332132, -27721.43813627221, -3247.3731931892867, -15262.799294328606, 21421.442499332727, 6385.446355992121, 0.092, 0.98, 0.14, 192.0, 0.0, 0.0, 0.0, 0.0, 0.0, 0.0, 0.0, 0.0, 0.0, 1.6878046618238847E9, 0.0, 2023-06-26 13:37:41.823
209.0, 52877.4324509421, 50062.1184780739, 20942.981057522426, -27660.5296326315, -3193.259619862988, -15201.801383710073, 21481.16636051731, 6441.728048530585, 0.092, 0.98, 0.14, 192.0, 0.0, 0.0, 0.0, 0.0, 0.0, 0.0, 0.0, 0.0, 0.0, 1.6878046618269267E9, 0.0, 2023-06-26 13:37:41.826
210.0, 52884.58500916779, 50059.346861761434, 20929.838231782705, -27715.76079318056, -3144.2645960169552, -15236.290125404612, 21464.514310898103, 6384.172306558169, 0.092, 0.98, 0.14, 192.0, 0.0, 0.0, 0.0, 0.0, 0.0, 0.0, 0.0, 0.0, 0.0, 1.6878046618319468E9, 0.0, 2023-06-26 13:37:41.831
211.0, 52898.66660817464, 50049.26622501209, 20890.99089991938, -27773.24947991961, -3185.660026748184, -15296.729242411762, 21413.23940911763, 6332.316259421857, 0.092, 0.98, 0.14, 192.0, 0.0, 0.0, 0.0, 0.0, 0.0, 0.0, 0.0, 0.0, 0.0, 1.6878046618359783E9, 0.0, 2023-06-26 13:37:41.835
212.0, 52890.46351795954, 50050.7637918906, 20896.668243011027, -27725.237932829612, -3247.7531728450267, -15269.88479732094, 21415.34047309643, 6373.845800619817, 0.092, 0.98, 0.14, 192.0, 0.0, 0.0, 0.0, 0.0, 0.0, 0.0, 0.0, 0.0, 0.0, 1.6878046618399785E9, 0.0, 2023-06-26 13:37:41.839
213.0, 52868.75997409344, 50053.02131808059, 20929.972342249435, -27666.922231545715, -3225.0885039673453, -15207.836354713007, 21461.9662120302, 6429.747513502541, 0.092, 0.974, 0.136, 192.0, 2.0, 224.0, 30.0, 112.0, 4.0, 64.0, 0.0, 0.0, 0.0, 1.6878046618439844E9, 0.0, 2023-06-26 13:37:41.843
214.0, 52869.8775613162, 50049.42268722328, 20922.439804367998, -27712.609197212365, -3165.789325927416, -15238.100616705493, 21454.165453215297, 6385.111079825292, 0.092, 0.974, 0.136, 192.0, 0.0, 0.0, 0.0, 0.0, 0.0, 0.0, 0.0, 0.0, 0.0, 1.6878046618480203E9, 0.0, 2023-06-26 13:37:41.848
215.0, 52886.55196267986, 50040.61609990789, 20879.792675947272, -27781.78784630154, -3191.337369839832, -15305.692291938341, 21399.31427232197, 6321.386256383212, 0.092, 0.974, 0.136, 192.0, 0.0, 0.0, 0.0, 0.0, 0.0, 0.0, 0.0, 0.0, 0.0, 1.6878046618520415E9, 0.0, 2023-06-26 13:37:41.852
216.0, 52880.069956787826, 50035.96693706119, 20873.13185609959, -27753.647000032306, -3257.1409055162558, -15296.058690078104, 21394.441592030715, 6349.102419507793, 0.092, 0.974, 0.136, 192.0, 0.0, 0.0, 0.0, 0.0, 0.0, 0.0, 0.0, 0.0, 0.0, 1.687804661857232E9, 0.0, 2023-06-26 13:37:41.857
217.0, 52872.96210205104, 50053.96009134771, 20927.84892652618, -27668.933888546693, -3228.8883005247476, -15220.956828708271, 21463.8661103089, 6431.51330131451, 0.092, 0.974, 0.136, 192.0, 0.0, 0.0, 0.0, 0.0, 0.0, 0.0, 0.0, 0.0, 0.0, 1.6878046618602166E9, 0.0, 2023-06-26 13:37:41.860
218.0, 52875.376090452206, 50058.38573674986, 20938.354246420175, -27688.514016689543, -3157.429773501131, -15219.571020552043, 21483.669755896302, 6411.061455137904, 0.092, 0.974, 0.136, 192.0, 0.0, 0.0, 0.0, 0.0, 0.0, 0.0, 0.0, 0.0, 0.0, 1.687804661865137E9, 0.0, 2023-06-26 13:37:41.865
219.0, 52884.964988823536, 50042.82892260897, 20887.928710929, -27771.72956129665, -3172.941884153114, -15293.532942954655, 21419.609656287394, 6338.708858336075, 0.092, 0.974, 0.136, 192.0, 0.0, 0.0, 0.0, 0.0, 0.0, 0.0, 0.0, 0.0, 0.0, 1.6878046618681047E9, 0.0, 2023-06-26 13:37:41.868
220.0, 52883.28860798939, 50033.351782959915, 20869.175597331, -27766.476901349655, -3240.153579730222, -15310.386158273956, 21398.554313010492, 6344.408553172178, 0.092, 0.974, 0.136, 192.0, 0.0, 0.0, 0.0, 0.0, 0.0, 0.0, 0.0, 0.0, 0.0, 1.6878046618741589E9, 0.0, 2023-06-26 13:37:41.874
221.0, 52862.83676181278, 50037.397448706324, 20904.08902217019, -27693.476103958623, -3250.54714090194, -15248.225956943746, 21442.251973420618, 6414.011885406004, 0.092, 0.974, 0.136, 192.0, 0.0, 0.0, 0.0, 0.0, 0.0, 0.0, 0.0, 0.0, 0.0, 1.6878046618771636E9, 0.0, 2023-06-26 13:37:41.877
222.0, 52870.59281713877, 50053.557759947515, 20938.264839442356, -27680.892071830283, -3168.4491835175972, -15215.346540849989, 21489.660023410324, 6429.166368146703, 0.092, 0.974, 0.136, 192.0, 0.0, 0.0, 0.0, 0.0, 0.0, 0.0, 0.0, 0.0, 0.0, 1.6878046618801744E9, 0.0, 2023-06-26 13:37:41.880
223.0, 52885.32261673482, 50044.818227865486, 20901.451516324465, -27756.26215413358, -3155.14989556669, -15278.646681147418, 21446.76702580059, 6353.461009676577, 0.08600000000000001, 0.978, 0.14400000000000002, 192.0, 2.0, 176.0, 30.0, 144.0, 4.0, 128.0, 0.0, 0.0, 0.0, 1.687804661883167E9, 0.0, 2023-06-26 13:37:41.883
224.0, 52871.7774595949, 50019.49370139762, 20854.60225994614, -27786.63817484834, -3237.9184052846917, -15325.004199147726, 21386.350260537896, 6317.63116331472, 0.08600000000000001, 0.978, 0.14400000000000002, 192.0, 0.0, 0.0, 0.0, 0.0, 0.0, 0.0, 0.0, 0.0, 0.0, 1.687804661887196E9, 0.0, 2023-06-26 13:37:41.887
225.0, 52853.44902914155, 50022.82411132147, 20887.727545228907, -27712.810362912463, -3260.918350329203, -15269.616576387476, 21420.86135397689, 6387.748585671018, 0.08600000000000001, 0.978, 0.14400000000000002, 192.0, 0.0, 0.0, 0.0, 0.0, 0.0, 0.0, 0.0, 0.0, 0.0, 1.6878046618912392E9, 0.0, 2023-06-26 13:37:41.891
226.0, 52862.166209479125, 50046.47225695518, 20937.415473153054, -27672.62192638182, -3181.2790848349437, -15214.206601882768, 21476.472494181693, 6427.534690801464, 0.08600000000000001, 0.978, 0.14400000000000002, 192.0, 0.0, 0.0, 0.0, 0.0, 0.0, 0.0, 0.0, 0.0, 0.0, 1.68780466189626E9, 0.0, 2023-06-26 13:37:41.896
227.0, 52880.42758469911, 50045.309966243505, 20909.52049607283, -27738.425462058243, -3152.6912036766057, -15261.905224550394, 21447.14700545633, 6363.653405148198, 0.08600000000000001, 0.978, 0.14400000000000002, 192.0, 0.0, 0.0, 0.0, 0.0, 0.0, 0.0, 0.0, 0.0, 0.0, 1.6878046619002693E9, 0.0, 2023-06-26 13:37:41.900
228.0, 52881.00873005495, 50026.40039043431, 20871.45547526544, -27776.40107588781, -3218.9864777310468, -15315.996446132238, 21403.42699330175, 6325.476625618533, 0.08600000000000001, 0.978, 0.14400000000000002, 192.0, 0.0, 0.0, 0.0, 0.0, 0.0, 0.0, 0.0, 0.0, 0.0, 1.6878046619032815E9, 0.0, 2023-06-26 13:37:41.903
229.0, 52862.50148564595, 50027.76384684609, 20889.47098129642, -27719.44883101569, -3265.7910306204594, -15277.998480558215, 21421.688368521736, 6379.724309411563, 0.08600000000000001, 0.978, 0.14400000000000002, 192.0, 0.0, 0.0, 0.0, 0.0, 0.0, 0.0, 0.0, 0.0, 0.0, 1.6878046619072952E9, 0.0, 2023-06-26 13:37:41.907
230.0, 52855.41598265362, 50039.6102714074, 20930.352321905175, -27675.4829496721, -3205.7989485024154, -15219.436910085311, 21475.131389514376, 6422.751417488029, 0.08600000000000001, 0.978, 0.14400000000000002, 192.0, 0.0, 0.0, 0.0, 0.0, 0.0, 0.0, 0.0, 0.0, 0.0, 1.687804661911344E9, 0.0, 2023-06-26 13:37:41.911
231.0, 52879.42175619862, 50048.43921046725, 20925.546696847287, -27725.372043296346, -3148.0196890854468, -15250.416427900367, 21464.179034731274, 6377.466783221577, 0.08600000000000001, 0.978, 0.14400000000000002, 192.0, 0.0, 0.0, 0.0, 0.0, 0.0, 0.0, 0.0, 0.0, 0.0, 1.6878046619153335E9, 0.0, 2023-06-26 13:37:41.915
232.0, 52882.774517866914, 50029.35082070241, 20879.12212361361, -27780.089113722937, -3203.8990502237143, -15321.472623523787, 21404.18695261323, 6321.900346505684, 0.08600000000000001, 0.978, 0.14400000000000002, 192.0, 0.0, 0.0, 0.0, 0.0, 0.0, 0.0, 0.0, 0.0, 0.0, 1.687804661919382E9, 0.0, 2023-06-26 13:37:41.919
233.0, 52862.792058323874, 50023.38290493285, 20879.613861991627, -27731.78699395502, -3261.812420107415, -15293.555294699108, 21406.13155438084, 6365.195675515613, 0.084, 0.982, 0.14, 192.0, 2.0, 160.0, 30.0, 176.0, 4.0, 96.0, 0.0, 0.0, 0.0, 1.6878046619233708E9, 0.0, 2023-06-26 13:37:41.923
234.0, 52862.50148564595, 50042.717163886686, 20937.28136268632, -27663.457711155144, -3203.384960101242, -15215.950037950282, 21472.180959246274, 6434.262565882513, 0.084, 0.982, 0.14, 192.0, 0.0, 0.0, 0.0, 0.0, 0.0, 0.0, 0.0, 0.0, 0.0, 1.6878046619284174E9, 0.0, 2023-06-26 13:37:41.928
235.0, 52870.43635492759, 50040.973727819175, 20930.754653305372, -27712.229217556625, -3141.9176628491477, -15241.363971395967, 21479.422924449795, 6392.241286306535, 0.084, 0.982, 0.14, 192.0, 0.0, 0.0, 0.0, 0.0, 0.0, 0.0, 0.0, 0.0, 0.0, 1.6878046619324443E9, 0.0, 2023-06-26 13:37:41.932
236.0, 52879.66762538763, 50026.5568526455, 20883.123085871113, -27775.97639274316, -3188.051663404902, -15310.766137929695, 21419.877877220857, 6331.623355343742, 0.084, 0.982, 0.14, 192.0, 0.0, 0.0, 0.0, 0.0, 0.0, 0.0, 0.0, 0.0, 0.0, 1.6878046619364524E9, 0.0, 2023-06-26 13:37:41.936
237.0, 52861.674471101105, 50015.96212577369, 20874.540016000276, -27749.713093008173, -3257.6996991276383, -15306.74282392774, 21409.752536982603, 6359.093649279314, 0.084, 0.982, 0.14, 192.0, 0.0, 0.0, 0.0, 0.0, 0.0, 0.0, 0.0, 0.0, 0.0, 1.6878046619404712E9, 0.0, 2023-06-26 13:37:41.940
238.0, 52852.77847680789, 50033.24002423764, 20923.982074735413, -27670.990249036582, -3223.836806277848, -15224.309590376568, 21471.555110401525, 6430.418065836199, 0.084, 0.982, 0.14, 192.0, 0.0, 0.0, 0.0, 0.0, 0.0, 0.0, 0.0, 0.0, 0.0, 1.6878046619444814E9, 0.0, 2023-06-26 13:37:41.944
239.0, 52855.25952044243, 50034.71523937169, 20923.490336357398, -27706.842447142895, -3163.1294683372344, -15234.01024747017, 21475.48901742566, 6392.733024684551, 0.084, 0.982, 0.14, 192.0, 0.0, 0.0, 0.0, 0.0, 0.0, 0.0, 0.0, 0.0, 0.0, 1.687804661949499E9, 0.0, 2023-06-26 13:37:41.949
240.0, 52865.60837812524, 50020.6559921093, 20874.763533444828, -27783.330116668956, -3198.2217071320665, -15321.293809568146, 21409.216095115673, 6320.5815935828205, 0.084, 0.982, 0.14, 192.0, 0.0, 0.0, 0.0, 0.0, 0.0, 0.0, 0.0, 0.0, 0.0, 1.6878046619535365E9, 0.0, 2023-06-26 13:37:41.953
241.0, 52866.97183453701, 50022.77940783255, 20872.3271932992, -27752.17178489826, -3259.4654869396077, -15313.73891994225, 21397.28026357654, 6347.180169484636, 0.084, 0.982, 0.14, 192.0, 0.0, 0.0, 0.0, 0.0, 0.0, 0.0, 0.0, 0.0, 0.0, 1.68780466195756E9, 0.0, 2023-06-26 13:37:41.957
242.0, 52879.80173585436, 50061.38087050687, 20939.874165043137, -27652.080673227392, -3223.7697510444823, -15220.219221141246, 21478.43944769376, 6441.526882830487, 0.084, 0.982, 0.14, 192.0, 0.0, 0.0, 0.0, 0.0, 0.0, 0.0, 0.0, 0.0, 0.0, 1.6878046619605875E9, 0.0, 2023-06-26 13:37:41.960
243.0, 52886.976645824514, 50070.09805084444, 20954.112226261168, -27663.14478673277, -3147.8185233853487, -15208.842183213495, 21505.19448580676, 6434.821359493895, 0.084, 0.982, 0.14, 192.0, 0.0, 0.0, 0.0, 0.0, 0.0, 0.0, 0.0, 0.0, 0.0, 1.6878046619645922E9, 0.0, 2023-06-26 13:37:41.964
244.0, 52874.30320671835, 50033.776466104566, 20883.83834169368, -27768.10857869489, -3181.301436579399, -15307.279265794668, 21426.136365668342, 6334.529082122932, 0.082, 0.982, 0.138, 192.0, 2.0, 144.0, 30.0, 176.0, 4.0, 80.0, 0.0, 0.0, 0.0, 1.6878046619676056E9, 0.0, 2023-06-26 13:37:41.967
245.0, 52868.78232583789, 50025.036934022544, 20860.883100138082, -27768.60031707291, -3256.8279810938816, -15326.74763521524, 21392.832266429934, 6329.29877392039, 0.082, 0.982, 0.138, 192.0, 0.0, 0.0, 0.0, 0.0, 0.0, 0.0, 0.0, 0.0, 0.0, 1.6878046619716375E9, 0.0, 2023-06-26 13:37:41.971
246.0, 52857.27117744341, 50039.163236518296, 20903.57493204772, -27682.121417775325, -3258.1243822722895, -15250.68464883383, 21447.48228162316, 6412.760187716507, 0.082, 0.982, 0.138, 192.0, 0.0, 0.0, 0.0, 0.0, 0.0, 0.0, 0.0, 0.0, 0.0, 1.6878046619756415E9, 0.0, 2023-06-26 13:37:41.975
247.0, 52867.41886942612, 50058.60925419441, 20942.37756042213, -27660.820205309417, -3176.227590588044, -15215.167726894348, 21492.342232744963, 6431.356839103322, 0.082, 0.982, 0.138, 192.0, 0.0, 0.0, 0.0, 0.0, 0.0, 0.0, 0.0, 0.0, 0.0, 1.6878046619796755E9, 0.0, 2023-06-26 13:37:41.979
248.0, 52879.3323492208, 50046.94164358874, 20899.529266301306, -27745.466261561665, -3168.8291631733377, -15298.539733712643, 21447.571688600983, 6349.325936952346, 0.082, 0.982, 0.138, 192.0, 0.0, 0.0, 0.0, 0.0, 0.0, 0.0, 0.0, 0.0, 0.0, 1.6878046619836922E9, 0.0, 2023-06-26 13:37:41.983
249.0, 52869.89991306066, 50025.9086520563, 20856.189233802466, -27770.857843262893, -3248.4237251786863, -15335.062484152615, 21396.162676353775, 6318.480529604021, 0.082, 0.982, 0.138, 192.0, 0.0, 0.0, 0.0, 0.0, 0.0, 0.0, 0.0, 0.0, 0.0, 1.6878046619877067E9, 0.0, 2023-06-26 13:37:41.987
250.0, 52860.71334608953, 50040.32552722997, 20898.881065712103, -27690.48097020161, -3266.1710102762, -15271.360012454988, 21436.038188462044, 6401.070225366381, 0.082, 0.982, 0.138, 192.0, 0.0, 0.0, 0.0, 0.0, 0.0, 0.0, 0.0, 0.0, 0.0, 1.6878046619907184E9, 0.0, 2023-06-26 13:37:41.990
251.0, 52868.82702932681, 50065.918274631294, 20950.20067098149, -27647.006827236037, -3180.7649947124714, -15210.518564047643, 21506.78145966309, 6446.757191033029, 0.082, 0.982, 0.138, 192.0, 0.0, 0.0, 0.0, 0.0, 0.0, 0.0, 0.0, 0.0, 0.0, 1.6878046619957428E9, 0.0, 2023-06-26 13:37:41.995
252.0, 52877.231285242, 50054.563588448, 20918.841173510693, -27722.019281628047, -3154.1887705551117, -15269.080134520547, 21471.6668691238, 6372.348233741312, 0.082, 0.982, 0.138, 192.0, 0.0, 0.0, 0.0, 0.0, 0.0, 0.0, 0.0, 0.0, 0.0, 1.6878046619997513E9, 0.0, 2023-06-26 13:37:41.999
253.0, 52878.63944514268, 50036.30221322802, 20872.640117721574, -27760.710151280186, -3225.7367045565493, -15327.351132315533, 21413.61938877337, 6327.06359947486, 0.082, 0.982, 0.138, 192.0, 0.0, 0.0, 0.0, 0.0, 0.0, 0.0, 0.0, 0.0, 0.0, 1.6878046620037808E9, 0.0, 2023-06-26 13:37:42.003
254.0, 52867.46357291503, 50042.73951563115, 20894.99186217688, -27694.459580714654, -3260.0466322954458, -15279.853675348006, 21445.135348455355, 6391.88365839525, 0.078, 0.986, 0.134, 192.0, 2.0, 112.0, 30.0, 208.0, 4.0, 48.0, 0.0, 0.0, 0.0, 1.6878046620078025E9, 0.0, 2023-06-26 13:37:42.007
255.0, 52868.49175315997, 50061.0679460845, 20944.076293000733, -27642.55883008943, -3195.293628608421, -15213.87132571594, 21507.407308507838, 6445.594900321353, 0.078, 0.986, 0.134, 192.0, 0.0, 0.0, 0.0, 0.0, 0.0, 0.0, 0.0, 0.0, 0.0, 1.687804662011813E9, 0.0, 2023-06-26 13:37:42.011
0.0, 52867.41886942612, 50043.72299238718, 20914.571990319728, -27716.319586791946, -3157.2286078010334, -15266.956718797293, 21474.43848543626, 6373.398765730712, 0.078, 0.986, 0.134, 192.0, 0.0, 0.0, 0.0, 0.0, 0.0, 0.0, 0.0, 0.0, 0.0, 1.6878046620158408E9, 0.0, 2023-06-26 13:37:42.015
1.0, 52871.44218342807, 50027.42857067926, 20865.621669962606, -27774.612936331385, -3220.595803331829, -15336.56005103112, 21402.71173747918, 6311.5961923117875, 0.078, 0.986, 0.134, 192.0, 0.0, 0.0, 0.0, 0.0, 0.0, 0.0, 0.0, 0.0, 0.0, 1.6878046620208676E9, 0.0, 2023-06-26 13:37:42.020
2.0, 52867.08359325929, 50034.894053327334, 20882.541940515275, -27716.96778738115, -3267.176838776689, -15299.79143140214, 21416.94979869721, 6368.302567994901, 0.078, 0.986, 0.134, 192.0, 0.0, 0.0, 0.0, 0.0, 0.0, 0.0, 0.0, 0.0, 0.0, 1.687804662024885E9, 0.0, 2023-06-26 13:37:42.024
3.0, 52865.67543335861, 50056.217617537695, 20934.599153351683, -27646.29157141347, -3210.4481113491192, -15226.72357877774, 21485.30143324154, 6437.056533939426, 0.078, 0.986, 0.134, 192.0, 0.0, 0.0, 0.0, 0.0, 0.0, 0.0, 0.0, 0.0, 0.0, 1.687804662028893E9, 0.0, 2023-06-26 13:37:42.028
4.0, 52886.26139000194, 50070.835658411466, 20945.842080812705, -27679.483911929598, -3139.7718953814383, -15237.027732971637, 21497.5725409475, 6408.6251149922755, 0.078, 0.986, 0.134, 192.0, 0.0, 0.0, 0.0, 0.0, 0.0, 0.0, 0.0, 0.0, 0.0, 1.687804662032926E9, 0.0, 2023-06-26 13:37:42.032
5.0, 52893.6374656722, 50055.85998962641, 20897.47290581142, -27747.45556681819, -3184.162459869678, -15308.84388790654, 21437.669865807282, 6342.754524082485, 0.078, 0.986, 0.134, 192.0, 0.0, 0.0, 0.0, 0.0, 0.0, 0.0, 0.0, 0.0, 0.0, 1.6878046620369823E9, 0.0, 2023-06-26 13:37:42.036
6.0, 52875.867828830225, 50043.32066098698, 20884.263024838332, -27720.834639171917, -3254.6151583928063, -15300.93137036936, 21421.15192665481, 6365.083916793337, 0.078, 0.986, 0.134, 192.0, 0.0, 0.0, 0.0, 0.0, 0.0, 0.0, 0.0, 0.0, 0.0, 1.6878046620419753E9, 0.0, 2023-06-26 13:37:42.041
7.0, 52865.56367463633, 50057.692832671746, 20931.447557383486, -27648.057359225437, -3222.4733498660744, -15224.264886887657, 21481.032250050575, 6437.481217084077, 0.078, 0.986, 0.134, 192.0, 0.0, 0.0, 0.0, 0.0, 0.0, 0.0, 0.0, 0.0, 0.0, 1.6878046620449717E9, 0.0, 2023-06-26 13:37:42.044
8.0, 52880.74050912148, 50073.04848111254, 20947.674923858038, -27665.961106534138, -3146.1644942956564, -15218.989875196205, 21504.63569219538, 6425.411275078211, 0.076, 0.986, 0.14, 192.0, 2.0, 96.0, 30.0, 208.0, 4.0, 96.0, 0.0, 0.0, 0.0, 1.6878046620479887E9, 0.0, 2023-06-26 13:37:42.047
9.0, 52894.62094242823, 50060.64326293985, 20904.37959484811, -27742.024092915548, -3173.098346364301, -15294.203495288313, 21445.984714744656, 6350.0411927749155, 0.076, 0.986, 0.14, 192.0, 0.0, 0.0, 0.0, 0.0, 0.0, 0.0, 0.0, 0.0, 0.0, 1.6878046620510128E9, 0.0, 2023-06-26 13:37:42.051
10.0, 52884.00386381196, 50047.411030222305, 20885.313556827732, -27732.63636024432, -3251.240044980055, -15300.461983735799, 21416.882743463844, 6353.885692821228, 0.076, 0.986, 0.14, 192.0, 0.0, 0.0, 0.0, 0.0, 0.0, 0.0, 0.0, 0.0, 0.0, 1.6878046620550427E9, 0.0, 2023-06-26 13:37:42.055
11.0, 52869.34111944927, 50057.536370460555, 20928.698292815483, -27658.18269946369, -3242.2546437090214, -15233.540860836609, 21469.834026078468, 6429.121664657791, 0.076, 0.986, 0.14, 192.0, 0.0, 0.0, 0.0, 0.0, 0.0, 0.0, 0.0, 0.0, 0.0, 1.6878046620603552E9, 0.0, 2023-06-26 13:37:42.060
12.0, 52871.665700872625, 50062.94549261874, 20950.021857025848, -27663.792987321973, -3169.164439340167, -15215.547706550087, 21496.522008958105, 6425.165405889203, 0.076, 0.986, 0.14, 192.0, 0.0, 0.0, 0.0, 0.0, 0.0, 0.0, 0.0, 0.0, 0.0, 1.6878046620641394E9, 0.0, 2023-06-26 13:37:42.064
13.0, 52873.923227062616, 50041.063134797, 20896.444725566475, -27750.96479069767, -3185.660026748184, -15293.443535976832, 21431.0090459596, 6338.172416469147, 0.076, 0.986, 0.14, 192.0, 0.0, 0.0, 0.0, 0.0, 0.0, 0.0, 0.0, 0.0, 0.0, 1.6878046620671456E9, 0.0, 2023-06-26 13:37:42.067
14.0, 52881.254599243955, 50038.69384988474, 20880.843207936672, -27748.72961625214, -3245.4956466550407, -15307.949818128327, 21406.176257869753, 6340.429942659133, 0.076, 0.986, 0.14, 192.0, 0.0, 0.0, 0.0, 0.0, 0.0, 0.0, 0.0, 0.0, 0.0, 1.6878046620711436E9, 0.0, 2023-06-26 13:37:42.071
15.0, 52854.208988453036, 50033.28472772655, 20906.2347896379, -27682.881377086804, -3266.126306787289, -15250.908166278383, 21442.989580987643, 6403.484213767554, 0.076, 0.986, 0.14, 192.0, 0.0, 0.0, 0.0, 0.0, 0.0, 0.0, 0.0, 0.0, 0.0, 1.6878046620751247E9, 0.0, 2023-06-26 13:37:42.075
16.0, 52871.50923866144, 50059.88330362837, 20953.128749505133, -27653.064149983427, -3178.7756894559493, -15205.936456434305, 21494.957386846232, 6433.256737382024, 0.076, 0.986, 0.14, 192.0, 0.0, 0.0, 0.0, 0.0, 0.0, 0.0, 0.0, 0.0, 0.0, 1.6878046620791361E9, 0.0, 2023-06-26 13:37:42.079
17.0, 52884.115622534235, 50049.40033547883, 20921.456327611962, -27729.95415090968, -3159.754354924483, -15271.091791521525, 21449.784511302056, 6356.120867266759, 0.076, 0.986, 0.14, 192.0, 0.0, 0.0, 0.0, 0.0, 0.0, 0.0, 0.0, 0.0, 0.0, 1.687804662083178E9, 0.0, 2023-06-26 13:37:42.083
18.0, 52884.85323010126, 50033.55294866001, 20882.40783004854, -27760.888965235827, -3225.9602220011025, -15316.421129276889, 21400.76713571157, 6329.701105320586, 0.068, 0.984, 0.138, 192.0, 2.0, 32.0, 30.0, 192.0, 4.0, 80.0, 0.0, 0.0, 0.0, 1.6878046620881937E9, 0.0, 2023-06-26 13:37:42.088
19.0, 52873.25267472895, 50042.00190806412, 20912.448574596474, -27690.771542879527, -3252.4470391806412, -15258.843035560018, 21441.33555189795, 6400.109100354803, 0.068, 0.984, 0.138, 192.0, 0.0, 0.0, 0.0, 0.0, 0.0, 0.0, 0.0, 0.0, 0.0, 1.6878046620922124E9, 0.0, 2023-06-26 13:37:42.092
20.0, 52877.74537536447, 50060.755021662124, 20962.047095542803, -27645.62101907981, -3174.1265266092455, -15195.475840029221, 21510.715366687225, 6448.455923611632, 0.068, 0.984, 0.138, 192.0, 0.0, 0.0, 0.0, 0.0, 0.0, 0.0, 0.0, 0.0, 0.0, 1.6878046620962365E9, 0.0, 2023-06-26 13:37:42.096
21.0, 52889.79296562588, 50052.931911102765, 20933.81684229575, -27717.414822270253, -3142.5658634383517, -15246.281355176134, 21482.887444840366, 6385.334597269845, 0.068, 0.984, 0.138, 192.0, 0.0, 0.0, 0.0, 0.0, 0.0, 0.0, 0.0, 0.0, 0.0, 1.6878046621002545E9, 0.0, 2023-06-26 13:37:42.100
22.0, 52886.50725919095, 50032.457713181706, 20885.872350439116, -27770.38845662933, -3211.1857189161447, -15301.177239558368, 21419.989635943133, 6340.809922314874, 0.068, 0.984, 0.138, 192.0, 0.0, 0.0, 0.0, 0.0, 0.0, 0.0, 0.0, 0.0, 0.0, 1.6878046621042752E9, 0.0, 2023-06-26 13:37:42.104
23.0, 52857.56175012133, 50017.45969265219, 20885.09003938318, -27730.91527592126, -3267.6238736657947, -15273.818704345073, 21425.734034268145, 6381.557152456899, 0.068, 0.984, 0.138, 192.0, 0.0, 0.0, 0.0, 0.0, 0.0, 0.0, 0.0, 0.0, 0.0, 1.687804662108289E9, 0.0, 2023-06-26 13:37:42.108
24.0, 52861.182732723086, 50045.08644879895, 20947.227888968933, -27668.308039701944, -3196.0312361754463, -15197.19692435228, 21496.142029302362, 6450.780505034984, 0.068, 0.984, 0.138, 192.0, 0.0, 0.0, 0.0, 0.0, 0.0, 0.0, 0.0, 0.0, 0.0, 1.6878046621132996E9, 0.0, 2023-06-26 13:37:42.113
25.0, 52883.04273880038, 50055.54706520404, 20949.15013899209, -27709.56935996644, -3133.7816278674163, -15221.560325808565, 21490.44233446626, 6407.194603347136, 0.068, 0.984, 0.138, 192.0, 0.0, 0.0, 0.0, 0.0, 0.0, 0.0, 0.0, 0.0, 0.0, 1.6878046621173208E9, 0.0, 2023-06-26 13:37:42.117
26.0, 52879.82408759881, 50029.306117213506, 20889.22511210741, -27782.704267824207, -3195.427739075153, -15294.985806344248, 21414.781679485044, 6337.814788557862, 0.068, 0.984, 0.138, 192.0, 0.0, 0.0, 0.0, 0.0, 0.0, 0.0, 0.0, 0.0, 0.0, 1.6878046621213632E9, 0.0, 2023-06-26 13:37:42.121
27.0, 52876.87365733072, 50036.078695783464, 20900.400984335065, -27736.05617714598, -3249.7648298460044, -15263.469846662265, 21421.062519676987, 6385.759280414496, 0.068, 0.984, 0.138, 192.0, 0.0, 0.0, 0.0, 0.0, 0.0, 0.0, 0.0, 0.0, 0.0, 1.687804662124369E9, 0.0, 2023-06-26 13:37:42.124
28.0, 52874.75024160746, 50057.20109429373, 20956.23564198442, -27664.932926289195, -3200.30041936641, -15181.90833114485, 21496.432601980283, 6458.424801638699, 0.068, 0.984, 0.138, 192.0, 0.0, 0.0, 0.0, 0.0, 0.0, 0.0, 0.0, 0.0, 0.0, 1.6878046621273944E9, 0.0, 2023-06-26 13:37:42.127
29.0, 52878.32652072031, 50053.40129773632, 20949.686580859016, -27713.838543157406, -3144.3092995058655, -15204.81886921154, 21492.565750189515, 6415.531804028965, 0.068, 0.978, 0.15, 192.0, 2.0, 32.0, 30.0, 144.0, 4.0, 176.0, 0.0, 0.0, 0.0, 1.6878046621313887E9, 0.0, 2023-06-26 13:37:42.131
30.0, 52887.73660513599, 50038.91736732929, 20896.80235347776, -27792.40492491781, -3185.8388407038265, -15290.761326642196, 21424.772909256568, 6339.580576369832, 0.068, 0.978, 0.15, 192.0, 0.0, 0.0, 0.0, 0.0, 0.0, 0.0, 0.0, 0.0, 0.0, 1.6878046621354132E9, 0.0, 2023-06-26 13:37:42.135
31.0, 52881.947503322066, 50038.71620162919, 20894.254254609856, -27757.402093100798, -3246.6355856222613, -15277.819666602572, 21424.102356922907, 6371.945902341116, 0.068, 0.978, 0.15, 192.0, 0.0, 0.0, 0.0, 0.0, 0.0, 0.0, 0.0, 0.0, 0.0, 1.6878046621394215E9, 0.0, 2023-06-26 13:37:42.139
32.0, 52863.842590313274, 50046.13698078835, 20939.15890922057, -27684.937737576693, -3223.836806277848, -15200.01324415365, 21482.172189017798, 6442.532711330976, 0.068, 0.978, 0.15, 192.0, 0.0, 0.0, 0.0, 0.0, 0.0, 0.0, 0.0, 0.0, 0.0, 1.6878046621434424E9, 0.0, 2023-06-26 13:37:42.143
33.0, 52878.4829829315, 50061.76085016261, 20962.605889154183, -27695.308947003956, -3144.8457413727933, -15185.328148046512, 21508.614302708425, 6437.503568828532, 0.068, 0.978, 0.15, 192.0, 0.0, 0.0, 0.0, 0.0, 0.0, 0.0, 0.0, 0.0, 0.0, 1.687804662147482E9, 0.0, 2023-06-26 13:37:42.147
34.0, 52880.00290155446, 50039.09618128493, 20904.670167526026, -27781.340811412432, -3170.237323074022, -15266.129704252447, 21442.00610423161, 6357.68548937863, 0.068, 0.978, 0.15, 192.0, 0.0, 0.0, 0.0, 0.0, 0.0, 0.0, 0.0, 0.0, 0.0, 1.6878046621515107E9, 0.0, 2023-06-26 13:37:42.151
35.0, 52875.08551777429, 50030.40135269181, 20892.71198424244, -27769.181462428747, -3235.7949895614374, -15275.606843901498, 21419.90022896531, 6365.285082493435, 0.068, 0.978, 0.15, 192.0, 0.0, 0.0, 0.0, 0.0, 0.0, 0.0, 0.0, 0.0, 0.0, 1.6878046621545153E9, 0.0, 2023-06-26 13:37:42.154
36.0, 52866.05541301434, 50044.84057960995, 20939.248316198387, -27691.53150219101, -3227.167216201689, -15208.305741346569, 21473.253842980128, 6441.459827597121, 0.068, 0.978, 0.15, 192.0, 0.0, 0.0, 0.0, 0.0, 0.0, 0.0, 0.0, 0.0, 0.0, 1.6878046621595392E9, 0.0, 2023-06-26 13:37:42.159
37.0, 52880.31582597683, 50070.567437478, 20968.193825268012, -27682.568452664433, -3145.8068663843715, -15176.521560731122, 21510.78242192059, 6450.378173634788, 0.068, 0.978, 0.15, 192.0, 0.0, 0.0, 0.0, 0.0, 0.0, 0.0, 0.0, 0.0, 0.0, 1.687804662163551E9, 0.0, 2023-06-26 13:37:42.163
38.0, 52882.014558555435, 50049.087411056455, 20917.187144421, -27769.06970370647, -3152.177113554134, -15250.215262200269, 21449.33747641295, 6364.614530159775, 0.068, 0.978, 0.15, 192.0, 0.0, 0.0, 0.0, 0.0, 0.0, 0.0, 0.0, 0.0, 0.0, 1.6878046621676517E9, 0.0, 2023-06-26 13:37:42.167
39.0, 52865.31780544732, 50021.818282820976, 20871.723696198904, -27797.098791253426, -3233.872739538281, -15291.923617353872, 21397.816705443467, 6337.814788557862, 0.066, 0.97, 0.148, 192.0, 2.0, 16.0, 30.0, 80.0, 4.0, 160.0, 0.0, 0.0, 0.0, 1.6878046621715927E9, 0.0, 2023-06-26 13:37:42.171
40.0, 52847.57052034981, 50026.7580183456, 20912.739147274395, -27716.096069347393, -3246.970861789091, -15223.63903804291, 21439.748578041625, 6414.727141228574, 0.066, 0.97, 0.148, 192.0, 0.0, 0.0, 0.0, 0.0, 0.0, 0.0, 0.0, 0.0, 0.0, 1.687804662175604E9, 0.0, 2023-06-26 13:37:42.175
41.0, 52850.65506108464, 50041.66663189729, 20952.77112159385, -27688.022278311528, -3167.756279439483, -15182.556531734053, 21496.074974068997, 6441.236310152568, 0.066, 0.97, 0.148, 192.0, 0.0, 0.0, 0.0, 0.0, 0.0, 0.0, 0.0, 0.0, 0.0, 1.6878046621806474E9, 0.0, 2023-06-26 13:37:42.180
42.0, 52874.683186374095, 50043.67828889827, 20925.56904859174, -27757.603258800897, -3145.024555328436, -15239.77699753964, 21459.976906773678, 6371.834143618839, 0.066, 0.97, 0.148, 192.0, 0.0, 0.0, 0.0, 0.0, 0.0, 0.0, 0.0, 0.0, 0.0, 1.6878046621846764E9, 0.0, 2023-06-26 13:37:42.184
43.0, 52874.2808549739, 50026.288631712036, 20883.480713782395, -27798.462247665197, -3217.0195242189798, -15292.437707476343, 21407.204438114695, 6335.199634456591, 0.066, 0.97, 0.148, 192.0, 0.0, 0.0, 0.0, 0.0, 0.0, 0.0, 0.0, 0.0, 0.0, 1.6878046621876748E9, 0.0, 2023-06-26 13:37:42.187
44.0, 52856.46651464302, 50027.00388753461, 20904.290187870287, -27732.72576722214, -3254.034013036968, -15245.722561564751, 21435.032359961555, 6396.175193330669, 0.066, 0.97, 0.148, 192.0, 0.0, 0.0, 0.0, 0.0, 0.0, 0.0, 0.0, 0.0, 0.0, 1.6878046621916757E9, 0.0, 2023-06-26 13:37:42.191
45.0, 52849.51512211742, 50039.14088477384, 20945.372694179143, -27694.727801648118, -3184.810660458882, -15189.753793448663, 21490.621148421902, 6437.74943801754, 0.066, 0.97, 0.148, 192.0, 0.0, 0.0, 0.0, 0.0, 0.0, 0.0, 0.0, 0.0, 0.0, 1.687804662195707E9, 0.0, 2023-06-26 13:37:42.195
46.0, 52867.977663037505, 50040.0126028076, 20928.586534093207, -27760.17370941326, -3143.52698844993, -15233.674971303342, 21468.425866177782, 6378.1596872996915, 0.066, 0.97, 0.148, 192.0, 0.0, 0.0, 0.0, 0.0, 0.0, 0.0, 0.0, 0.0, 0.0, 1.6878046621997404E9, 0.0, 2023-06-26 13:37:42.199
47.0, 52882.573352166815, 50034.51407367159, 20893.71781274293, -27800.004518032616, -3200.5686402998736, -15291.74480339823, 21423.18593540024, 6336.183111212625, 0.066, 0.97, 0.148, 192.0, 0.0, 0.0, 0.0, 0.0, 0.0, 0.0, 0.0, 0.0, 0.0, 1.6878046622037554E9, 0.0, 2023-06-26 13:37:42.203
48.0, 52865.31780544732, 50032.301250970515, 20906.90534197156, -27746.494441806608, -3248.915463556703, -15258.932442537838, 21435.8593745064, 6386.876867637261, 0.066, 0.97, 0.148, 192.0, 0.0, 0.0, 0.0, 0.0, 0.0, 0.0, 0.0, 0.0, 0.0, 1.6878046622067463E9, 0.0, 2023-06-26 13:37:42.206
49.0, 52855.661851842626, 50042.448942953226, 20950.915926804057, -27692.04559231348, -3192.1867361291334, -15194.291197573091, 21495.82910487999, 6447.338336388867, 0.068, 0.974, 0.146, 192.0, 2.0, 32.0, 30.0, 112.0, 4.0, 144.0, 0.0, 0.0, 0.0, 1.6878046622107751E9, 0.0, 2023-06-26 13:37:42.210
50.0, 52872.89504681767, 50050.94260584624, 20945.90913604607, -27737.441985302212, -3135.1450842791896, -15210.227991369724, 21494.510351957128, 6405.026484134971, 0.068, 0.974, 0.146, 192.0, 0.0, 0.0, 0.0, 0.0, 0.0, 0.0, 0.0, 0.0, 0.0, 1.6878046622148073E9, 0.0, 2023-06-26 13:37:42.214
51.0, 52880.494639932476, 50037.46450393969, 20895.304786599256, -27802.776134345073, -3188.7892709719267, -15284.100506794513, 21431.43372910425, 6336.674849590641, 0.068, 0.974, 0.146, 192.0, 0.0, 0.0, 0.0, 0.0, 0.0, 0.0, 0.0, 0.0, 0.0, 1.6878046622188349E9, 0.0, 2023-06-26 13:37:42.218
52.0, 52864.02140426891, 50027.1603497458, 20889.292167340776, -27765.78399727154, -3255.5762834043844, -15265.615614129974, 21426.181069157254, 6378.472611722066, 0.068, 0.974, 0.146, 192.0, 0.0, 0.0, 0.0, 0.0, 0.0, 0.0, 0.0, 0.0, 0.0, 1.6878046622238452E9, 0.0, 2023-06-26 13:37:42.223
53.0, 52855.79596230936, 50045.10880054341, 20939.80710980977, -27691.218577768635, -3211.4762915940632, -15188.032709125604, 21493.392764734363, 6452.255720169034, 0.068, 0.974, 0.146, 192.0, 0.0, 0.0, 0.0, 0.0, 0.0, 0.0, 0.0, 0.0, 0.0, 1.6878046622278705E9, 0.0, 2023-06-26 13:37:42.227
54.0, 52873.923227062616, 50056.30702451552, 20948.591345380708, -27718.286540304012, -3141.5153314489526, -15194.5370667621, 21502.28875902757, 6424.293687855446, 0.068, 0.974, 0.146, 192.0, 0.0, 0.0, 0.0, 0.0, 0.0, 0.0, 0.0, 0.0, 0.0, 1.6878046622318864E9, 0.0, 2023-06-26 13:37:42.231
55.0, 52885.21085801254, 50041.599576663924, 20896.891760455583, -27791.130875483857, -3178.7980412004044, -15266.017945530171, 21431.61254305989, 6352.2763672204455, 0.068, 0.974, 0.146, 192.0, 0.0, 0.0, 0.0, 0.0, 0.0, 0.0, 0.0, 0.0, 0.0, 1.6878046622348964E9, 0.0, 2023-06-26 13:37:42.234
56.0, 52883.28860798939, 50042.314832486496, 20897.85288546716, -27756.150395411303, -3243.1487134872336, -15253.031582001637, 21426.806918002, 6379.590198944831, 0.068, 0.974, 0.146, 192.0, 0.0, 0.0, 0.0, 0.0, 0.0, 0.0, 0.0, 0.0, 0.0, 1.6878046622389092E9, 0.0, 2023-06-26 13:37:42.238
57.0, 52865.518971147416, 50050.65203316832, 20944.255106956378, -27678.254565984556, -3215.6337160627504, -15179.606101465954, 21494.01861357911, 6452.23336842458, 0.068, 0.974, 0.146, 192.0, 0.0, 0.0, 0.0, 0.0, 0.0, 0.0, 0.0, 0.0, 0.0, 1.687804662242935E9, 0.0, 2023-06-26 13:37:42.242
58.0, 52856.019479753915, 50044.125323787375, 20946.57968837973, -27708.407069254765, -3153.473514732542, -15190.916084160339, 21502.825200894502, 6424.137225644258, 0.068, 0.974, 0.146, 192.0, 0.0, 0.0, 0.0, 0.0, 0.0, 0.0, 0.0, 0.0, 0.0, 1.6878046622469623E9, 0.0, 2023-06-26 13:37:42.246
59.0, 52879.287645731885, 50044.393544720835, 20913.744975774884, -27776.78105554355, -3164.202352071089, -15255.646736102908, 21448.756331057113, 6355.226797488546, 0.07200000000000001, 0.976, 0.14, 192.0, 2.0, 64.0, 30.0, 128.0, 4.0, 96.0, 0.0, 0.0, 0.0, 1.6878046622509587E9, 0.0, 2023-06-26 13:37:42.250
60.0, 52866.36833743672, 50026.780370090055, 20882.430181793, -27780.290279423032, -3242.0534780089233, -15273.036393289138, 21410.579551527448, 6346.6437276177085, 0.07200000000000001, 0.976, 0.14, 192.0, 0.0, 0.0, 0.0, 0.0, 0.0, 0.0, 0.0, 0.0, 0.0, 1.6878046622560165E9, 0.0, 2023-06-26 13:37:42.256
61.0, 52852.95729076354, 50036.81630335049, 20927.446595125984, -27698.929929605714, -3234.9903267610466, -15201.510811032154, 21468.58232838897, 6427.9370222016605, 0.07200000000000001, 0.976, 0.14, 192.0, 0.0, 0.0, 0.0, 0.0, 0.0, 0.0, 0.0, 0.0, 0.0, 1.687804662260002E9, 0.0, 2023-06-26 13:37:42.260
62.0, 52845.15653194863, 50040.63845165235, 20943.070464500244, -27700.67336567323, -3168.113907350768, -15185.864589913439, 21493.34806124545, 6423.958411688615, 0.07200000000000001, 0.976, 0.14, 192.0, 0.0, 0.0, 0.0, 0.0, 0.0, 0.0, 0.0, 0.0, 0.0, 1.6878046622640443E9, 0.0, 2023-06-26 13:37:42.264
63.0, 52858.20995071053, 50032.033030037055, 20897.070574411224, -27780.983183501146, -3173.1654015976674, -15260.720582094264, 21437.088720451444, 6340.16172172567, 0.07200000000000001, 0.976, 0.14, 192.0, 0.0, 0.0, 0.0, 0.0, 0.0, 0.0, 0.0, 0.0, 0.0, 1.6878046622681365E9, 0.0, 2023-06-26 13:37:42.268
64.0, 52863.641424613175, 50023.87464331087, 20871.924861899002, -27793.343698184934, -3241.807608819915, -15291.163658042391, 21405.796278214013, 6329.9693262540495, 0.07200000000000001, 0.976, 0.14, 192.0, 0.0, 0.0, 0.0, 0.0, 0.0, 0.0, 0.0, 0.0, 0.0, 1.6878046622721372E9, 0.0, 2023-06-26 13:37:42.272
65.0, 52848.08461047228, 50031.65305038131, 20906.27949312681, -27716.923083892238, -3261.879475340781, -15228.131738678425, 21441.42495887577, 6406.434644035655, 0.07200000000000001, 0.976, 0.14, 192.0, 0.0, 0.0, 0.0, 0.0, 0.0, 0.0, 0.0, 0.0, 0.0, 1.6878046622771263E9, 0.0, 2023-06-26 13:37:42.277
66.0, 52849.716287817515, 50049.24387326764, 20948.85956631417, -27683.887205587293, -3186.5093930374856, -15183.584711978998, 21490.911721099823, 6432.250908881535, 0.07200000000000001, 0.976, 0.14, 192.0, 0.0, 0.0, 0.0, 0.0, 0.0, 0.0, 0.0, 0.0, 0.0, 1.6878046622811368E9, 0.0, 2023-06-26 13:37:42.281
67.0, 52873.498543917965, 50052.88720761385, 20932.408682395064, -27746.807366228983, -3150.4336774866197, -15230.478671846233, 21479.646441894347, 6374.695166909119, 0.07200000000000001, 0.976, 0.14, 192.0, 0.0, 0.0, 0.0, 0.0, 0.0, 0.0, 0.0, 0.0, 0.0, 1.687804662284172E9, 0.0, 2023-06-26 13:37:42.284
68.0, 52879.287645731885, 50043.00773656461, 20893.76251623184, -27777.988049744137, -3217.555966085907, -15275.517436923676, 21429.265609892085, 6347.850721818295, 0.07200000000000001, 0.976, 0.14, 192.0, 0.0, 0.0, 0.0, 0.0, 0.0, 0.0, 0.0, 0.0, 0.0, 1.6878046622871723E9, 0.0, 2023-06-26 13:37:42.287
69.0, 52854.99129950897, 50035.11757077189, 20909.028757694814, -27715.872551902838, -3261.4994956850405, -15230.00928521267, 21448.9127932683, 6407.88750742525, 0.07200000000000001, 0.976, 0.14, 192.0, 0.0, 0.0, 0.0, 0.0, 0.0, 0.0, 0.0, 0.0, 0.0, 1.6878046622911687E9, 0.0, 2023-06-26 13:37:42.291
70.0, 52842.653136569636, 50039.83378885195, 20943.361037178165, -27679.81918809643, -3201.976800200558, -15180.701336944263, 21500.12063981541, 6446.265452655012, 0.068, 0.974, 0.14400000000000002, 192.0, 2.0, 32.0, 30.0, 112.0, 4.0, 128.0, 0.0, 0.0, 0.0, 1.6878046622951915E9, 0.0, 2023-06-26 13:37:42.295
71.0, 52857.762915821426, 50037.688021384245, 20919.221153166432, -27749.06489241897, -3166.7951544279044, -15229.741064279207, 21467.95647954422, 6379.769012900474, 0.068, 0.974, 0.14400000000000002, 192.0, 0.0, 0.0, 0.0, 0.0, 0.0, 0.0, 0.0, 0.0, 0.0, 1.687804662299223E9, 0.0, 2023-06-26 13:37:42.299
72.0, 52872.26919797292, 50027.67443986827, 20885.671184739018, -27791.73437258415, -3221.176948687667, -15287.497971951721, 21416.52511555256, 6334.037343744915, 0.068, 0.974, 0.14400000000000002, 192.0, 0.0, 0.0, 0.0, 0.0, 0.0, 0.0, 0.0, 0.0, 0.0, 1.6878046623032389E9, 0.0, 2023-06-26 13:37:42.303
73.0, 52865.80954382534, 50033.95528006021, 20907.508839071852, -27726.333168307923, -3262.4382689521635, -15241.721599307251, 21443.682485065758, 6399.50560325451, 0.068, 0.974, 0.14400000000000002, 192.0, 0.0, 0.0, 0.0, 0.0, 0.0, 0.0, 0.0, 0.0, 0.0, 1.6878046623072555E9, 0.0, 2023-06-26 13:37:42.307
74.0, 52865.161343236134, 50054.876512870374, 20964.1481595216, -27657.534498874487, -3196.880602464748, -15162.864644868929, 21513.308169044038, 6468.348976176855, 0.068, 0.974, 0.14400000000000002, 192.0, 0.0, 0.0, 0.0, 0.0, 0.0, 0.0, 0.0, 0.0, 0.0, 1.68780466231128E9, 0.0, 2023-06-26 13:37:42.311
75.0, 52879.24294224298, 50060.93383561776, 20955.118054761657, -27705.85897038686, -3138.0508110583796, -15191.787802194096, 21503.227532294695, 6415.487100540055, 0.068, 0.974, 0.14400000000000002, 192.0, 0.0, 0.0, 0.0, 0.0, 0.0, 0.0, 0.0, 0.0, 0.0, 1.6878046623153064E9, 0.0, 2023-06-26 13:37:42.315
76.0, 52878.12535502021, 50037.9115388288, 20892.197894119967, -27787.085209737448, -3198.2887623654324, -15276.4562101908, 21425.577572056958, 6336.473683890544, 0.068, 0.974, 0.14400000000000002, 192.0, 0.0, 0.0, 0.0, 0.0, 0.0, 0.0, 0.0, 0.0, 0.0, 1.6878046623183348E9, 0.0, 2023-06-26 13:37:42.318
77.0, 52855.41598265362, 50024.969878789176, 20889.247463851865, -27755.81511924447, -3269.4120132222192, -15265.503855407698, 21419.252028376108, 6369.5319139399435, 0.068, 0.974, 0.14400000000000002, 192.0, 0.0, 0.0, 0.0, 0.0, 0.0, 0.0, 0.0, 0.0, 0.0, 1.68780466232235E9, 0.0, 2023-06-26 13:37:42.322
78.0, 52856.06418324282, 50048.93094884526, 20956.19093849551, -27665.469368156122, -3215.9019369962143, -15173.168799062825, 21498.466610725714, 6460.235292939579, 0.068, 0.974, 0.14400000000000002, 192.0, 0.0, 0.0, 0.0, 0.0, 0.0, 0.0, 0.0, 0.0, 0.0, 1.6878046623273528E9, 0.0, 2023-06-26 13:37:42.327
79.0, 52865.2283984695, 50051.68021341327, 20954.067522772257, -27698.035859827505, -3151.171285053645, -15186.736307947196, 21501.90877937183, 6425.992420434049, 0.068, 0.974, 0.14400000000000002, 192.0, 0.0, 0.0, 0.0, 0.0, 0.0, 0.0, 0.0, 0.0, 0.0, 1.6878046623313704E9, 0.0, 2023-06-26 13:37:42.331
80.0, 52866.502447903455, 50028.6579166243, 20893.13666738709, -27787.599299859918, -3191.7397012400274, -15274.31044272309, 21431.99252271563, 6340.139369981214, 0.062, 0.972, 0.15, 192.0, 1.0, 240.0, 30.0, 96.0, 4.0, 176.0, 0.0, 0.0, 0.0, 1.6878046623353896E9, 0.0, 2023-06-26 13:37:42.335
81.0, 52867.061241514835, 50030.78133234756, 20889.023946407313, -27758.452625090198, -3250.748306602038, -15269.102486265003, 21425.108185423396, 6366.916759838672, 0.062, 0.972, 0.15, 192.0, 0.0, 0.0, 0.0, 0.0, 0.0, 0.0, 0.0, 0.0, 0.0, 1.6878046623394203E9, 0.0, 2023-06-26 13:37:42.339
82.0, 52852.39849715215, 50040.28082374106, 20936.879031286124, -27678.701600873665, -3230.5199778699853, -15192.033671383104, 21484.0720872965, 6446.377211377288, 0.062, 0.972, 0.15, 192.0, 0.0, 0.0, 0.0, 0.0, 0.0, 0.0, 0.0, 0.0, 0.0, 1.6878046623435302E9, 0.0, 2023-06-26 13:37:42.343
83.0, 52852.28673842987, 50041.17489351927, 20945.350342434685, -27699.041688327994, -3166.7728026834493, -15186.937473647295, 21499.092459570464, 6428.65227802423, 0.062, 0.972, 0.15, 192.0, 0.0, 0.0, 0.0, 0.0, 0.0, 0.0, 0.0, 0.0, 0.0, 1.6878046623464448E9, 0.0, 2023-06-26 13:37:42.346
84.0, 52876.87365733072, 50041.62192840838, 20908.782888505804, -27770.83549151844, -3177.658102233184, -15261.569948383565, 21446.63291533386, 6353.952748054594, 0.062, 0.972, 0.15, 192.0, 0.0, 0.0, 0.0, 0.0, 0.0, 0.0, 0.0, 0.0, 0.0, 1.6878046623524814E9, 0.0, 2023-06-26 13:37:42.352
85.0, 52874.77259335192, 50032.48006492616, 20887.056992895246, -27771.170767685267, -3242.5005128980297, -15277.126762524458, 21420.28020862105, 6354.73505911053, 0.062, 0.972, 0.15, 192.0, 0.0, 0.0, 0.0, 0.0, 0.0, 0.0, 0.0, 0.0, 0.0, 1.6878046623554964E9, 0.0, 2023-06-26 13:37:42.355
86.0, 52854.678375086594, 50036.95041381722, 20921.746900289883, -27693.05142081397, -3251.7541351025266, -15208.708072746764, 21465.363677187404, 6426.327696600878, 0.062, 0.972, 0.15, 192.0, 0.0, 0.0, 0.0, 0.0, 0.0, 0.0, 0.0, 0.0, 0.0, 1.6878046623595364E9, 0.0, 2023-06-26 13:37:42.359
87.0, 52866.010709525435, 50056.284672771064, 20965.66807814456, -27670.81143508094, -3169.745584696005, -15168.273767027113, 21514.179887077797, 6445.416086365711, 0.062, 0.972, 0.15, 192.0, 0.0, 0.0, 0.0, 0.0, 0.0, 0.0, 0.0, 0.0, 0.0, 1.6878046623645678E9, 0.0, 2023-06-26 13:37:42.364
88.0, 52881.679282388606, 50049.936777345756, 20928.00538873737, -27749.802499985995, -3162.1906950701114, -15240.671067317853, 21465.229566720674, 6369.420155217666, 0.062, 0.972, 0.15, 192.0, 0.0, 0.0, 0.0, 0.0, 0.0, 0.0, 0.0, 0.0, 0.0, 1.6878046623685696E9, 0.0, 2023-06-26 13:37:42.368
89.0, 52869.56463689383, 50025.39456193383, 20881.871388181615, -27783.955965513705, -3242.9475477871356, -15284.234617261245, 21404.633987502337, 6338.194768213602, 0.062, 0.972, 0.15, 192.0, 0.0, 0.0, 0.0, 0.0, 0.0, 0.0, 0.0, 0.0, 0.0, 1.6878046623715641E9, 0.0, 2023-06-26 13:37:42.371
90.0, 52859.55105537785, 50035.07286728297, 20916.38248162061, -27705.121362819835, -3260.5383706734624, -15221.448567086289, 21452.891403781345, 6418.526937785976, 0.066, 0.976, 0.148, 192.0, 2.0, 16.0, 30.0, 128.0, 4.0, 160.0, 0.0, 0.0, 0.0, 1.6878046623745944E9, 0.0, 2023-06-26 13:37:42.374
91.0, 52865.586026380784, 50055.10003031493, 20964.103456032688, -27666.519900145522, -3183.3354453248317, -15161.76940939062, 21514.291645800073, 6457.6424905827635, 0.066, 0.976, 0.148, 192.0, 0.0, 0.0, 0.0, 0.0, 0.0, 0.0, 0.0, 0.0, 0.0, 1.6878046623786132E9, 0.0, 2023-06-26 13:37:42.378
92.0, 52873.58795089578, 50044.50530344311, 20929.681769571518, -27748.081415662935, -3160.044927602402, -15226.902392733384, 21474.125561013887, 6379.858419878295, 0.066, 0.976, 0.148, 192.0, 0.0, 0.0, 0.0, 0.0, 0.0, 0.0, 0.0, 0.0, 0.0, 1.6878046623826203E9, 0.0, 2023-06-26 13:37:42.382
93.0, 52880.472288188015, 50031.8095125925, 20888.50985628484, -27788.515721382588, -3226.451960379119, -15282.826457360561, 21419.47554582066, 6339.915852536661, 0.066, 0.976, 0.148, 192.0, 0.0, 0.0, 0.0, 0.0, 0.0, 0.0, 0.0, 0.0, 0.0, 1.6878046623876507E9, 0.0, 2023-06-26 13:37:42.387
94.0, 52864.42373566911, 50031.04955328102, 20913.588513563696, -27722.28750256151, -3262.997062563546, -15235.552517837586, 21444.28598216605, 6401.405501533211, 0.066, 0.976, 0.148, 192.0, 0.0, 0.0, 0.0, 0.0, 0.0, 0.0, 0.0, 0.0, 0.0, 1.6878046623916595E9, 0.0, 2023-06-26 13:37:42.391
95.0, 52859.282834444384, 50045.019393565584, 20960.191900753012, -27668.799778079963, -3196.187698386633, -15167.3796972489, 21502.936959616778, 6454.155618447736, 0.066, 0.976, 0.148, 192.0, 0.0, 0.0, 0.0, 0.0, 0.0, 0.0, 0.0, 0.0, 0.0, 1.6878046623956945E9, 0.0, 2023-06-26 13:37:42.395
96.0, 52876.27016023042, 50047.254568011114, 20940.030627254324, -27731.742290466107, -3152.4229827431423, -15206.092918645492, 21481.456933195226, 6395.795213674929, 0.066, 0.976, 0.148, 192.0, 0.0, 0.0, 0.0, 0.0, 0.0, 0.0, 0.0, 0.0, 0.0, 1.6878046623987064E9, 0.0, 2023-06-26 13:37:42.398
97.0, 52882.23807599999, 50031.36247770339, 20891.21441736393, -27795.64592786383, -3211.3868846162422, -15284.324024239068, 21419.29673186502, 6336.943070524106, 0.066, 0.976, 0.148, 192.0, 0.0, 0.0, 0.0, 0.0, 0.0, 0.0, 0.0, 0.0, 0.0, 1.6878046624027092E9, 0.0, 2023-06-26 13:37:42.402
98.0, 52861.56271237883, 50023.74053284413, 20893.69546099847, -27747.902601707294, -3272.809478379426, -15260.072381505059, 21418.737938253635, 6378.204390788602, 0.066, 0.976, 0.148, 192.0, 0.0, 0.0, 0.0, 0.0, 0.0, 0.0, 0.0, 0.0, 0.0, 1.6878046624067276E9, 0.0, 2023-06-26 13:37:42.406
99.0, 52854.76778206442, 50038.67149814028, 20947.205537224476, -27676.421722939223, -3218.070056208379, -15186.71395620274, 21484.96615707471, 6441.683345041674, 0.066, 0.976, 0.148, 192.0, 0.0, 0.0, 0.0, 0.0, 0.0, 0.0, 0.0, 0.0, 0.0, 1.687804662410756E9, 0.0, 2023-06-26 13:37:42.410
100.0, 52866.904779303644, 50041.35370747492, 20945.86443255716, -27720.700528705183, -3152.7135554210613, -15205.981159923216, 21485.703764641734, 6401.472556766576, 0.07200000000000001, 0.978, 0.15, 192.0, 2.0, 64.0, 30.0, 144.0, 4.0, 176.0, 0.0, 0.0, 0.0, 1.6878046624147935E9, 0.0, 2023-06-26 13:37:42.414
101.0, 52881.99220681098, 50032.658878881804, 20901.585626791195, -27783.531282369055, -3188.744567483016, -15270.980032799249, 21432.01487446009, 6348.498922407499, 0.07200000000000001, 0.978, 0.15, 192.0, 0.0, 0.0, 0.0, 0.0, 0.0, 0.0, 0.0, 0.0, 0.0, 1.6878046624198244E9, 0.0, 2023-06-26 13:37:42.419
102.0, 52868.20118048206, 50023.89699505532, 20894.589530776684, -27754.116386665868, -3251.6870798691607, -15262.97810828425, 21438.273362907574, 6379.456088478099, 0.07200000000000001, 0.978, 0.15, 192.0, 0.0, 0.0, 0.0, 0.0, 0.0, 0.0, 0.0, 0.0, 0.0, 1.687804662423826E9, 0.0, 2023-06-26 13:37:42.423
103.0, 52847.83874128327, 50028.81437883549, 20935.135595218613, -27682.769618364528, -3227.0554574794123, -15193.017148139137, 21493.50452345664, 6445.930176488183, 0.07200000000000001, 0.978, 0.15, 192.0, 0.0, 0.0, 0.0, 0.0, 0.0, 0.0, 0.0, 0.0, 0.0, 1.6878046624268289E9, 0.0, 2023-06-26 13:37:42.426
104.0, 52847.59287209426, 50026.46744566768, 20933.056882984267, -27716.878380403326, -3169.879695162737, -15205.824697712029, 21493.169247289807, 6412.469615038588, 0.07200000000000001, 0.978, 0.15, 192.0, 0.0, 0.0, 0.0, 0.0, 0.0, 0.0, 0.0, 0.0, 0.0, 1.687804662430859E9, 0.0, 2023-06-26 13:37:42.430
105.0, 52875.28668347439, 50030.33429745845, 20902.546751802773, -27777.920994510772, -3186.8893726932256, -15269.527169409654, 21441.894345509332, 6350.9799660420385, 0.07200000000000001, 0.978, 0.15, 192.0, 0.0, 0.0, 0.0, 0.0, 0.0, 0.0, 0.0, 0.0, 0.0, 1.6878046624359052E9, 0.0, 2023-06-26 13:37:42.435
106.0, 52873.833820084794, 50028.43439917975, 20895.32713834371, -27758.989066957125, -3248.200207734133, -15266.397925185911, 21426.605752301904, 6366.179152271647, 0.07200000000000001, 0.978, 0.15, 192.0, 0.0, 0.0, 0.0, 0.0, 0.0, 0.0, 0.0, 0.0, 0.0, 1.6878046624408998E9, 0.0, 2023-06-26 13:37:42.440
107.0, 52854.74543031996, 50034.5587771605, 20938.66717084255, -27683.887205587293, -3239.5724343743846, -15199.990892409194, 21477.321860470995, 6438.844673495851, 0.07200000000000001, 0.978, 0.15, 192.0, 0.0, 0.0, 0.0, 0.0, 0.0, 0.0, 0.0, 0.0, 0.0, 1.6878046624439125E9, 0.0, 2023-06-26 13:37:42.443
108.0, 52856.69003208757, 50043.275957498074, 20958.023781540847, -27690.19039752369, -3165.9904916275136, -15187.943302147783, 21503.182828805784, 6431.066266425403, 0.07200000000000001, 0.978, 0.15, 192.0, 0.0, 0.0, 0.0, 0.0, 0.0, 0.0, 0.0, 0.0, 0.0, 1.6878046624469275E9, 0.0, 2023-06-26 13:37:42.446
109.0, 52863.350851935254, 50025.01458227808, 20900.825667479716, -27783.419523646775, -3183.9612941695805, -15276.88089333545, 21439.972095486177, 6338.574747869343, 0.07200000000000001, 0.978, 0.15, 192.0, 0.0, 0.0, 0.0, 0.0, 0.0, 0.0, 0.0, 0.0, 0.0, 1.6878046624519756E9, 0.0, 2023-06-26 13:37:42.451
110.0, 52864.84841881376, 50018.68903859724, 20878.004536390847, -27785.721753325673, -3256.9620915606133, -15299.009120346203, 21407.76323172608, 6338.105361235781, 0.07200000000000001, 0.978, 0.15, 192.0, 0.0, 0.0, 0.0, 0.0, 0.0, 0.0, 0.0, 0.0, 0.0, 1.6878046624550114E9, 0.0, 2023-06-26 13:37:42.455
111.0, 52846.96702324951, 50024.813416577985, 20919.57878107772, -27705.411935497756, -3267.467411454608, -15233.093825947504, 21453.897232281834, 6419.219841864091, 0.07200000000000001, 0.978, 0.148, 192.0, 2.0, 64.0, 30.0, 144.0, 4.0, 160.0, 0.0, 0.0, 0.0, 1.6878046624579844E9, 0.0, 2023-06-26 13:37:42.457
112.0, 52852.242034940966, 50039.25264349612, 20954.223984983444, -27687.105856788858, -3187.2470006045105, -15187.965653892239, 21499.49479097066, 6436.877719983783, 0.07200000000000001, 0.978, 0.148, 192.0, 0.0, 0.0, 0.0, 0.0, 0.0, 0.0, 0.0, 0.0, 0.0, 1.6878046624630141E9, 0.0, 2023-06-26 13:37:42.463
113.0, 52871.956273550546, 50038.69384988474, 20922.193935178988, -27757.178575656246, -3174.2159335870665, -15247.845977288007, 21453.025514248075, 6363.854570848295, 0.07200000000000001, 0.978, 0.148, 192.0, 0.0, 0.0, 0.0, 0.0, 0.0, 0.0, 0.0, 0.0, 0.0, 1.6878046624671516E9, 0.0, 2023-06-26 13:37:42.467
114.0, 52885.63554115719, 50037.79978010652, 20899.685728512493, -27770.07553220696, -3234.4538848941193, -15283.11703003848, 21419.564952798482, 6347.940128796116, 0.07200000000000001, 0.978, 0.148, 192.0, 0.0, 0.0, 0.0, 0.0, 0.0, 0.0, 0.0, 0.0, 0.0, 1.6878046624710553E9, 0.0, 2023-06-26 13:37:42.471
115.0, 52860.623939111705, 50032.48006492616, 20916.89657174308, -27701.455676729165, -3269.1884957776665, -15230.568078824053, 21453.42784564827, 6414.4142168062, 0.07200000000000001, 0.978, 0.148, 192.0, 0.0, 0.0, 0.0, 0.0, 0.0, 0.0, 0.0, 0.0, 0.0, 1.6878046624751387E9, 0.0, 2023-06-26 13:37:42.475
116.0, 52849.53747386187, 50036.39162020584, 20954.000467538892, -27670.09617925837, -3203.027332189957, -15184.367023034934, 21502.020538094108, 6445.349031132345, 0.07200000000000001, 0.978, 0.148, 192.0, 0.0, 0.0, 0.0, 0.0, 0.0, 0.0, 0.0, 0.0, 0.0, 1.6878046624791355E9, 0.0, 2023-06-26 13:37:42.479
117.0, 52864.84841881376, 50037.03982079504, 20933.3921591511, -27739.58775276992, -3170.3043783073877, -15234.30082014809, 21473.946747058242, 6379.143164055725, 0.07200000000000001, 0.978, 0.148, 192.0, 0.0, 0.0, 0.0, 0.0, 0.0, 0.0, 0.0, 0.0, 0.0, 1.6878046624821496E9, 0.0, 2023-06-26 13:37:42.482
118.0, 52880.22641899901, 50036.011640550096, 20900.915074457538, -27773.87532876436, -3224.3732481447755, -15275.360974712488, 21428.19272615823, 6346.800189828896, 0.07200000000000001, 0.978, 0.148, 192.0, 0.0, 0.0, 0.0, 0.0, 0.0, 0.0, 0.0, 0.0, 0.0, 1.6878046624861267E9, 0.0, 2023-06-26 13:37:42.486
119.0, 52848.15166570564, 50019.53840488654, 20899.79748723477, -27729.14948810929, -3284.097109329356, -15249.522358122154, 21434.808842517003, 6389.380263016255, 0.07200000000000001, 0.978, 0.148, 192.0, 0.0, 0.0, 0.0, 0.0, 0.0, 0.0, 0.0, 0.0, 0.0, 1.6878046624921813E9, 0.0, 2023-06-26 13:37:42.492
120.0, 52839.099209201246, 50030.31194571399, 20942.645781355593, -27677.271089228525, -3225.557890600907, -15187.652729469864, 21491.269349011105, 6440.833978752373, 0.07200000000000001, 0.978, 0.148, 192.0, 0.0, 0.0, 0.0, 0.0, 0.0, 0.0, 0.0, 0.0, 0.0, 1.687804662495162E9, 0.0, 2023-06-26 13:37:42.495
121.0, 52862.41207866813, 50041.82309410848, 20937.370769664143, -27722.309854305968, -3169.2761980624437, -15223.549631065087, 21486.30726174203, 6392.464803751088, 0.07, 0.98, 0.146, 192.0, 2.0, 48.0, 30.0, 160.0, 4.0, 144.0, 0.0, 0.0, 0.0, 1.6878046624991903E9, 0.0, 2023-06-26 13:37:42.499
122.0, 52876.5830846528, 50035.4081434498, 20901.76444074684, -27775.14937819831, -3211.6327538052506, -15289.420221974877, 21432.059577949, 6337.613622857764, 0.07, 0.98, 0.146, 192.0, 0.0, 0.0, 0.0, 0.0, 0.0, 0.0, 0.0, 0.0, 0.0, 1.6878046625032053E9, 0.0, 2023-06-26 13:37:42.503
123.0, 52864.08845950228, 50030.31194571399, 20905.161905904046, -27729.10478462038, -3267.2438940100546, -15264.229805973746, 21440.173261186275, 6381.6242076902645, 0.07, 0.98, 0.146, 192.0, 0.0, 0.0, 0.0, 0.0, 0.0, 0.0, 0.0, 0.0, 0.0, 1.6878046625062315E9, 0.0, 2023-06-26 13:37:42.506
124.0, 52851.37031690721, 50038.246814995626, 20952.94993554949, -27662.96597277713, -3222.3392393993427, -15194.581770251008, 21502.020538094108, 6447.919481744705, 0.07, 0.98, 0.146, 192.0, 0.0, 0.0, 0.0, 0.0, 0.0, 0.0, 0.0, 0.0, 0.0, 1.6878046625103376E9, 0.0, 2023-06-26 13:37:42.510
125.0, 52854.03017449739, 50031.98832654814, 20939.740054576407, -27714.196171068692, -3168.762107939972, -15221.850898486484, 21487.000165820144, 6398.097443353826, 0.07, 0.98, 0.146, 192.0, 0.0, 0.0, 0.0, 0.0, 0.0, 0.0, 0.0, 0.0, 0.0, 1.6878046625162938E9, 0.0, 2023-06-26 13:37:42.516
126.0, 52865.98835778098, 50015.40333216231, 20889.3815743186, -27791.60026211742, -3211.163367171689, -15300.50668722471, 21423.789432500536, 6321.386256383212, 0.07, 0.98, 0.146, 192.0, 0.0, 0.0, 0.0, 0.0, 0.0, 0.0, 0.0, 0.0, 0.0, 1.6878046625192935E9, 0.0, 2023-06-26 13:37:42.519
127.0, 52862.94852053506, 50017.14676822982, 20890.722678985916, -27749.4001685858, -3273.1224028018005, -15275.182160756847, 21424.750557512114, 6362.334652225334, 0.07, 0.98, 0.146, 192.0, 0.0, 0.0, 0.0, 0.0, 0.0, 0.0, 0.0, 0.0, 0.0, 1.6878046625243373E9, 0.0, 2023-06-26 13:37:42.524
128.0, 52864.93782579158, 50045.175855776775, 20956.928546062536, -27653.935868017183, -3230.1399982142448, -15186.602197480464, 21502.221703794206, 6451.763981791018, 0.07, 0.98, 0.146, 192.0, 0.0, 0.0, 0.0, 0.0, 0.0, 0.0, 0.0, 0.0, 0.0, 1.6878046625273602E9, 0.0, 2023-06-26 13:37:42.527
129.0, 52866.927131048105, 50050.137943045855, 20960.95186006449, -27681.71908637513, -3164.336462537821, -15191.988967894195, 21510.49184924267, 6423.533728543965, 0.07, 0.98, 0.146, 192.0, 0.0, 0.0, 0.0, 0.0, 0.0, 0.0, 0.0, 0.0, 0.0, 1.6878046625313637E9, 0.0, 2023-06-26 13:37:42.531
130.0, 52880.204067254555, 50039.45380919622, 20912.42622285202, -27762.78886351453, -3187.4481663046085, -15273.215207244779, 21445.448272877726, 6344.721477594552, 0.07, 0.98, 0.146, 192.0, 0.0, 0.0, 0.0, 0.0, 0.0, 0.0, 0.0, 0.0, 0.0, 1.6878046625343637E9, 0.0, 2023-06-26 13:37:42.534
131.0, 52858.254654199445, 50013.771654817065, 20876.350507301155, -27769.2038141732, -3273.2118097796215, -15297.690367423342, 21403.42699330175, 6336.361925168268, 0.07200000000000001, 0.978, 0.138, 192.0, 2.0, 64.0, 30.0, 144.0, 4.0, 80.0, 0.0, 0.0, 0.0, 1.687804662538382E9, 0.0, 2023-06-26 13:37:42.538
132.0, 52845.46945637101, 50025.75218984511, 20924.876144513626, -27684.445999198677, -3264.807553864426, -15222.63320954242, 21461.541528885547, 6418.728103486073, 0.07200000000000001, 0.978, 0.138, 192.0, 0.0, 0.0, 0.0, 0.0, 0.0, 0.0, 0.0, 0.0, 0.0, 1.687804662542421E9, 0.0, 2023-06-26 13:37:42.542
133.0, 52863.1273344907, 50048.662727911804, 20961.600060653695, -27671.705504859154, -3177.3451778108097, -15185.976348635717, 21511.564732976527, 6434.642545538252, 0.07200000000000001, 0.978, 0.138, 192.0, 0.0, 0.0, 0.0, 0.0, 0.0, 0.0, 0.0, 0.0, 0.0, 1.6878046625464406E9, 0.0, 2023-06-26 13:37:42.546
134.0, 52884.42854695661, 50044.684117398756, 20921.1881066785, -27750.271886619557, -3177.00990164398, -15256.54080588112, 21457.026476505576, 6357.730192867541, 0.07200000000000001, 0.978, 0.138, 192.0, 0.0, 0.0, 0.0, 0.0, 0.0, 0.0, 0.0, 0.0, 0.0, 1.6878046625514543E9, 0.0, 2023-06-26 13:37:42.551
135.0, 52865.67543335861, 50018.71139034169, 20874.00357413335, -27773.87532876436, -3262.3712137187977, -15293.868219121483, 21404.29871133551, 6335.400800156689, 0.07200000000000001, 0.978, 0.138, 192.0, 0.0, 0.0, 0.0, 0.0, 0.0, 0.0, 0.0, 0.0, 0.0, 1.6878046625554764E9, 0.0, 2023-06-26 13:37:42.555
136.0, 52847.41405813862, 50024.63460262235, 20909.408737350554, -27696.918272604737, -3280.2526092830435, -15231.640962557909, 21446.029418233564, 6408.669818481186, 0.07200000000000001, 0.978, 0.138, 192.0, 0.0, 0.0, 0.0, 0.0, 0.0, 0.0, 0.0, 0.0, 0.0, 1.6878046625595026E9, 0.0, 2023-06-26 13:37:42.559
137.0, 52852.53260761889, 50043.72299238718, 20945.842080812705, -27676.75699910605, -3201.4850618225414, -15195.654653984864, 21497.706651414235, 6430.708638514118, 0.07200000000000001, 0.978, 0.138, 192.0, 0.0, 0.0, 0.0, 0.0, 0.0, 0.0, 0.0, 0.0, 0.0, 1.6878046625625072E9, 0.0, 2023-06-26 13:37:42.562
138.0, 52878.0806515313, 50051.41199247981, 20926.977208492426, -27742.381720826834, -3172.5395527529186, -15247.86832903246, 21467.129464999376, 6367.632015661242, 0.07200000000000001, 0.978, 0.138, 192.0, 0.0, 0.0, 0.0, 0.0, 0.0, 0.0, 0.0, 0.0, 0.0, 1.6878046625665286E9, 0.0, 2023-06-26 13:37:42.566
139.0, 52876.24780848597, 50038.82796035147, 20881.35729805914, -27776.892814265826, -3248.4460769231414, -15296.125745311469, 21412.926484695254, 6333.4338466446225, 0.07200000000000001, 0.978, 0.138, 192.0, 0.0, 0.0, 0.0, 0.0, 0.0, 0.0, 0.0, 0.0, 0.0, 1.6878046625710688E9, 0.0, 2023-06-26 13:37:42.571
140.0, 52859.7745728224, 50040.92902433027, 20903.61963553663, -27702.01447034055, -3282.845411639859, -15240.089921962015, 21446.074121722475, 6401.941943400138, 0.07200000000000001, 0.978, 0.138, 192.0, 0.0, 0.0, 0.0, 0.0, 0.0, 0.0, 0.0, 0.0, 0.0, 1.6878046625745635E9, 0.0, 2023-06-26 13:37:42.574
141.0, 52848.531645361385, 50046.67342265528, 20943.22692671143, -27664.642353611274, -3217.555966085907, -15189.843200426485, 21498.935997359276, 6437.816493250906, 0.07, 0.98, 0.138, 192.0, 2.0, 48.0, 30.0, 160.0, 4.0, 80.0, 0.0, 0.0, 0.0, 1.687804662578575E9, 0.0, 2023-06-26 13:37:42.578
142.0, 52862.61324436823, 50045.75700113261, 20922.86448751265, -27731.96580791066, -3183.6707214916614, -15242.97329699675, 21470.39281968985, 6372.750565141508, 0.07, 0.98, 0.138, 192.0, 0.0, 0.0, 0.0, 0.0, 0.0, 0.0, 0.0, 0.0, 0.0, 1.6878046625825994E9, 0.0, 2023-06-26 13:37:42.582
143.0, 52880.271122487924, 50043.633585409356, 20890.745030730373, -27767.370971127868, -3236.197320961633, -15294.047033077126, 21424.81761274548, 6337.255994946479, 0.07, 0.98, 0.138, 192.0, 0.0, 0.0, 0.0, 0.0, 0.0, 0.0, 0.0, 0.0, 0.0, 1.6878046625876515E9, 0.0, 2023-06-26 13:37:42.587
144.0, 52861.89798854566, 50037.86683533989, 20903.262007625344, -27709.323490777435, -3286.734615175082, -15250.237613944724, 21439.99444723063, 6390.989588617038, 0.07, 0.98, 0.138, 192.0, 0.0, 0.0, 0.0, 0.0, 0.0, 0.0, 0.0, 0.0, 0.0, 1.6878046625916314E9, 0.0, 2023-06-26 13:37:42.591
145.0, 52849.649232584154, 50047.45573371121, 20948.971325036448, -27654.85228953985, -3231.97284125958, -15184.881113157406, 21500.00888109313, 6443.516188087009, 0.07, 0.98, 0.138, 192.0, 0.0, 0.0, 0.0, 0.0, 0.0, 0.0, 0.0, 0.0, 0.0, 1.6878046625956671E9, 0.0, 2023-06-26 13:37:42.595
