%OpenBCI Raw EEG Data
%Number of channels = 8
%Sample Rate = 250 Hz
%Board = OpenBCI_GUI$BoardCytonSerial
Sample Index, EXG Channel 0, EXG Channel 1, EXG Channel 2, EXG Channel 3, EXG Channel 4, EXG Channel 5, EXG Channel 6, EXG Channel 7, Accel Channel 0, Accel Channel 1, Accel Channel 2, Other, Other, Other, Other, Other, Other, Other, Analog Channel 0, Analog Channel 1, Analog Channel 2, Timestamp, Other, Timestamp (Formatted)
72.0, 52741.75736209838, 50076.80357418103, 21196.24867394551, -27485.873101457728, -3463.3133963720084, -14926.539650742967, 21849.970144029874, 6533.0125728860585, 0.062, 0.972, 0.176, 192.0, 1.0, 240.0, 30.0, 96.0, 5.0, 128.0, 0.0, 0.0, 0.0, 1.6878047101412685E9, 0.0, 2023-06-26 13:38:30.141
73.0, 52764.48908620943, 50076.825925925485, 21184.558711595382, -27551.810747600884, -3472.2093906652203, -14976.451096111668, 21816.308416880183, 6470.785316322484, 0.062, 0.972, 0.176, 192.0, 0.0, 0.0, 0.0, 0.0, 0.0, 0.0, 0.0, 0.0, 0.0, 1.6878047101412933E9, 0.0, 2023-06-26 13:38:30.141
74.0, 52752.195626759014, 50067.01351010961, 21147.343057077298, -27540.277247461945, -3557.1907230842976, -14971.310194886948, 21804.439640574416, 6495.439290456688, 0.062, 0.972, 0.176, 192.0, 0.0, 0.0, 0.0, 0.0, 0.0, 0.0, 0.0, 0.0, 0.0, 1.6878047101413047E9, 0.0, 2023-06-26 13:38:30.141
75.0, 52723.875966534135, 50064.733632175165, 21185.51983660696, -27448.858612639742, -3552.6309672154152, -14905.394900488247, 21849.210184718395, 6571.323462882455, 0.062, 0.972, 0.176, 192.0, 0.0, 0.0, 0.0, 0.0, 0.0, 0.0, 0.0, 0.0, 0.0, 1.6878047101413157E9, 0.0, 2023-06-26 13:38:30.141
0.0, 0.0, 0.0, 0.0, 0.0, 0.0, 0.0, 0.0, 0.0, 0.056, 0.934, 0.28200000000000003, 192.0, 1.0, 192.0, 29.0, 48.0, 8.0, 208.0, 0.0, 0.0, 0.0, 1.6878047101712124E9, 0.0, 2023-06-26 13:38:30.171
1.0, 52388.19746830434, 50009.52482337056, 21648.536222998646, -27109.693242274912, -3500.707864845737, -14564.843721967189, 21987.54513115229, 6498.054444557959, 0.056, 0.934, 0.28200000000000003, 192.0, 0.0, 0.0, 0.0, 0.0, 0.0, 0.0, 0.0, 0.0, 0.0, 1.687804710179248E9, 0.0, 2023-06-26 13:38:30.179
2.0, 52367.209180260805, 50021.66182060979, 21706.091964971063, -26975.180444142872, -3499.8361468119797, -14410.61668522557, 22096.71105107201, 6622.844233851938, 0.056, 0.934, 0.28200000000000003, 192.0, 0.0, 0.0, 0.0, 0.0, 0.0, 0.0, 0.0, 0.0, 0.0, 1.68780471018829E9, 0.0, 2023-06-26 13:38:30.188
3.0, 52387.057529337115, 50055.167085548295, 21781.417343785448, -26975.29220286515, -3370.5313051380285, -14387.03559482522, 22147.53891796338, 6629.259184510611, 0.056, 0.934, 0.28200000000000003, 192.0, 0.0, 0.0, 0.0, 0.0, 0.0, 0.0, 0.0, 0.0, 0.0, 1.6878047101913013E9, 0.0, 2023-06-26 13:38:30.191
4.0, 52416.360666318025, 50047.835713366956, 21739.664285142935, -27092.102419388586, -3348.648947316283, -14538.759236187845, 22051.247602849915, 6509.342075507889, 0.056, 0.934, 0.28200000000000003, 192.0, 0.0, 0.0, 0.0, 0.0, 0.0, 0.0, 0.0, 0.0, 0.0, 1.6878047102013516E9, 0.0, 2023-06-26 13:38:30.201
5.0, 52406.59295399105, 50024.053457266506, 21676.81117973461, -27105.89344571751, -3454.998547434634, -14565.424867323027, 21999.54801792479, 6490.0972235318695, 0.056, 0.934, 0.28200000000000003, 192.0, 0.0, 0.0, 0.0, 0.0, 0.0, 0.0, 0.0, 0.0, 0.0, 1.6878047102043731E9, 0.0, 2023-06-26 13:38:30.204
6.0, 52374.965235586795, 50027.070942767976, 21698.939406745365, -26990.714906539313, -3497.2433444551643, -14433.214298869885, 22082.31652764279, 6600.134861485346, 0.056, 0.934, 0.28200000000000003, 192.0, 0.0, 0.0, 0.0, 0.0, 0.0, 0.0, 0.0, 0.0, 0.0, 1.6878047102073815E9, 0.0, 2023-06-26 13:38:30.207
7.0, 52372.998282074725, 50050.964957590695, 21738.814918853634, -26952.113443864997, -3400.1697182857656, -14375.479742941827, 22144.208508039537, 6625.437036208754, 0.056, 0.934, 0.28200000000000003, 192.0, 0.0, 0.0, 0.0, 0.0, 0.0, 0.0, 0.0, 0.0, 0.0, 1.6878047102103927E9, 0.0, 2023-06-26 13:38:30.210
8.0, 52423.80379722164, 50067.21467580971, 21737.362055464037, -27045.387273476994, -3340.80348501247, -14497.63202639008, 22074.98515546145, 6529.10101760638, 0.054, 0.918, 0.34800000000000003, 192.0, 1.0, 176.0, 28.0, 176.0, 10.0, 224.0, 0.0, 0.0, 0.0, 1.6878047102144456E9, 0.0, 2023-06-26 13:38:30.214
9.0, 52429.54819554665, 50041.9125010863, 21697.643005566955, -27091.655384499478, -3427.8188261769806, -14570.275195869828, 22005.717099394453, 6493.2711712445225, 0.054, 0.918, 0.34800000000000003, 192.0, 0.0, 0.0, 0.0, 0.0, 0.0, 0.0, 0.0, 0.0, 0.0, 1.6878047102174175E9, 0.0, 2023-06-26 13:38:30.217
10.0, 52372.50654369671, 50011.670590838265, 21667.222281363283, -27031.283322725692, -3509.2015277387536, -14481.270549448795, 22060.255355865404, 6573.782154772539, 0.054, 0.918, 0.34800000000000003, 192.0, 0.0, 0.0, 0.0, 0.0, 0.0, 0.0, 0.0, 0.0, 0.0, 1.6878047102204268E9, 0.0, 2023-06-26 13:38:30.220
11.0, 52358.58140690105, 50032.83769283744, 21706.29313067116, -26971.805330730123, -3441.766314717092, -14398.479687986337, 22136.60891492473, 6619.245602994633, 0.054, 0.918, 0.34800000000000003, 192.0, 0.0, 0.0, 0.0, 0.0, 0.0, 0.0, 0.0, 0.0, 0.0, 1.6878047102264717E9, 0.0, 2023-06-26 13:38:30.226
12.0, 52397.16051783091, 50046.00287032162, 21706.226075437793, -27057.34545676058, -3370.0172150155563, -14515.692235909968, 22074.046382194327, 6517.3887035118, 0.054, 0.918, 0.34800000000000003, 192.0, 0.0, 0.0, 0.0, 0.0, 0.0, 0.0, 0.0, 0.0, 0.0, 1.6878047102295027E9, 0.0, 2023-06-26 13:38:30.229
13.0, 52389.13624157146, 50003.93688725673, 21605.822039344555, -27194.47340899389, -3449.6788322542707, -14632.144824522118, 21978.7385438369, 6439.962260718616, 0.054, 0.918, 0.34800000000000003, 192.0, 0.0, 0.0, 0.0, 0.0, 0.0, 0.0, 0.0, 0.0, 0.0, 1.687804710232515E9, 0.0, 2023-06-26 13:38:30.232
14.0, 52354.37927894346, 49992.96218072918, 21625.335112254037, -27135.37539665406, -3557.660109717859, -14596.627902582635, 22007.25936976187, 6505.76579639504, 0.054, 0.918, 0.34800000000000003, 192.0, 0.0, 0.0, 0.0, 0.0, 0.0, 0.0, 0.0, 0.0, 0.0, 1.6878047102526352E9, 0.0, 2023-06-26 13:38:30.252
15.0, 52360.16838075738, 50027.62973637936, 21722.49814540126, -26941.8092896711, -3481.1947919362538, -14369.51182717226, 22121.879115328684, 6624.252393752622, 0.054, 0.918, 0.34800000000000003, 192.0, 0.0, 0.0, 0.0, 0.0, 0.0, 0.0, 0.0, 0.0, 0.0, 1.687804710255623E9, 0.0, 2023-06-26 13:38:30.255
16.0, 52406.74941620224, 50054.51888495909, 21773.236605314803, -27018.878104552998, -3350.7276595506264, -14445.731275764856, 22120.80623159483, 6572.329291382944, 0.054, 0.918, 0.34800000000000003, 192.0, 0.0, 0.0, 0.0, 0.0, 0.0, 0.0, 0.0, 0.0, 0.0, 1.6878047102586255E9, 0.0, 2023-06-26 13:38:30.258
17.0, 52419.33344833058, 50040.77256211908, 21663.198967361328, -27136.783556554743, -3409.6245061903605, -14606.46267014297, 22010.5450761968, 6463.968034263616, 0.054, 0.918, 0.34800000000000003, 192.0, 0.0, 0.0, 0.0, 0.0, 0.0, 0.0, 0.0, 0.0, 0.0, 1.6878047102626605E9, 0.0, 2023-06-26 13:38:30.262
18.0, 52396.71348294181, 50026.288631712036, 21642.70241769581, -27046.840136866587, -3516.577603409005, -14497.922599067999, 22027.86767814966, 6533.593718241897, 0.052000000000000005, 0.912, 0.368, 192.0, 1.0, 160.0, 28.0, 128.0, 11.0, 128.0, 0.0, 0.0, 0.0, 1.6878047102656748E9, 0.0, 2023-06-26 13:38:30.265
19.0, 52403.977799889784, 50074.23312356867, 21761.50193947577, -26913.489629446227, -3460.3629661039076, -14374.965652819355, 22137.257115513938, 6637.93166135927, 0.052000000000000005, 0.912, 0.368, 192.0, 0.0, 0.0, 0.0, 0.0, 0.0, 0.0, 0.0, 0.0, 0.0, 1.687804710269673E9, 0.0, 2023-06-26 13:38:30.269
20.0, 52434.733800260285, 50103.91624020532, 21809.669948776955, -26926.967731352775, -3339.551787322973, -14392.310606516672, 22143.29208651687, 6601.006579519103, 0.052000000000000005, 0.912, 0.368, 192.0, 0.0, 0.0, 0.0, 0.0, 0.0, 0.0, 0.0, 0.0, 0.0, 1.687804710272696E9, 0.0, 2023-06-26 13:38:30.272
21.0, 52426.1730821339, 50049.10976280091, 21698.715889300813, -27094.02466941174, -3401.1978985307096, -14563.614376022146, 22018.681111178532, 6469.8465430553615, 0.052000000000000005, 0.912, 0.368, 192.0, 0.0, 0.0, 0.0, 0.0, 0.0, 0.0, 0.0, 0.0, 0.0, 1.6878047102757068E9, 0.0, 2023-06-26 13:38:30.275
22.0, 52402.167308588905, 50027.47327416817, 21656.29227832464, -27081.194768094396, -3509.5815073944937, -14558.741695730889, 22013.249637275894, 6503.374159738321, 0.052000000000000005, 0.912, 0.368, 192.0, 0.0, 0.0, 0.0, 0.0, 0.0, 0.0, 0.0, 0.0, 0.0, 1.6878047102797484E9, 0.0, 2023-06-26 13:38:30.279
23.0, 52358.7602208567, 50026.087466011944, 21694.804334021133, -26978.734371511266, -3498.2268212111976, -14397.049176341197, 22107.104612243726, 6613.657666880807, 0.052000000000000005, 0.912, 0.368, 192.0, 0.0, 0.0, 0.0, 0.0, 0.0, 0.0, 0.0, 0.0, 0.0, 1.687804710282762E9, 0.0, 2023-06-26 13:38:30.282
24.0, 52372.70770939681, 50036.61513765039, 21691.608034564022, -27016.754688829744, -3410.317410268475, -14438.913993705988, 22118.95103680504, 6577.045509463014, 0.052000000000000005, 0.912, 0.368, 192.0, 0.0, 0.0, 0.0, 0.0, 0.0, 0.0, 0.0, 0.0, 0.0, 1.6878047102857776E9, 0.0, 2023-06-26 13:38:30.285
25.0, 52381.02255833418, 50011.1565007158, 21609.957112068787, -27171.65227790502, -3458.060736425011, -14620.901897061098, 21997.201084756984, 6433.770827504495, 0.052000000000000005, 0.912, 0.368, 192.0, 0.0, 0.0, 0.0, 0.0, 0.0, 0.0, 0.0, 0.0, 0.0, 1.6878047102898028E9, 0.0, 2023-06-26 13:38:30.289
26.0, 52390.45499449432, 50000.47236686616, 21610.40414695789, -27182.33641175466, -3531.150940793865, -14614.375187680149, 21980.34786943768, 6455.966109748615, 0.052000000000000005, 0.912, 0.368, 192.0, 0.0, 0.0, 0.0, 0.0, 0.0, 0.0, 0.0, 0.0, 0.0, 1.6878047102928088E9, 0.0, 2023-06-26 13:38:30.292
27.0, 52367.186828516344, 50033.37413470437, 21642.76947292918, -27044.046168809673, -3553.1897608267977, -14460.483427105359, 22075.767466517387, 6579.168925186268, 0.052000000000000005, 0.912, 0.368, 192.0, 0.0, 0.0, 0.0, 0.0, 0.0, 0.0, 0.0, 0.0, 0.0, 1.687804710295818E9, 0.0, 2023-06-26 13:38:30.295
28.0, 52368.058546550106, 50037.978594062166, 21680.879197225477, -27006.942273013865, -3450.282329354564, -14450.246328144829, 22113.832487324773, 6576.285550151533, 0.046, 0.908, 0.374, 192.0, 1.0, 112.0, 28.0, 96.0, 11.0, 176.0, 0.0, 0.0, 0.0, 1.6878047102998476E9, 0.0, 2023-06-26 13:38:30.299
29.0, 52426.486006556275, 50054.317719258994, 21719.59241862207, -27140.8068705567, -3354.750973552582, -14561.937995187998, 22061.79762623282, 6484.911618818238, 0.046, 0.908, 0.374, 192.0, 0.0, 0.0, 0.0, 0.0, 0.0, 0.0, 0.0, 0.0, 0.0, 1.6878047103028543E9, 0.0, 2023-06-26 13:38:30.302
30.0, 52415.310134328625, 50032.435361437245, 21641.182499072853, -27137.81173679969, -3507.346332948963, -14603.355777663683, 21989.82500908673, 6451.629871324286, 0.046, 0.908, 0.374, 192.0, 0.0, 0.0, 0.0, 0.0, 0.0, 0.0, 0.0, 0.0, 0.0, 1.6878047103058631E9, 0.0, 2023-06-26 13:38:30.305
31.0, 52383.99534034674, 50036.503378928115, 21689.886950240965, -26968.407865572914, -3549.9934613696887, -14442.065589674186, 22068.19022514704, 6566.182561657734, 0.046, 0.908, 0.374, 192.0, 0.0, 0.0, 0.0, 0.0, 0.0, 0.0, 0.0, 0.0, 0.0, 1.6878047103088896E9, 0.0, 2023-06-26 13:38:30.308
32.0, 52333.25688043319, 50008.8542710369, 21654.973525401776, -27048.561221189648, -3434.7255152136704, -14419.08799637413, 22124.33780721877, 6584.555695599997, 0.046, 0.908, 0.374, 192.0, 0.0, 0.0, 0.0, 0.0, 0.0, 0.0, 0.0, 0.0, 0.0, 1.6878047103189692E9, 0.0, 2023-06-26 13:38:30.318
33.0, 52366.292758738135, 49988.49183183812, 21619.61306567348, -27164.09738827913, -3444.15795137381, -14564.195521377984, 22039.89291666662, 6471.634682611786, 0.046, 0.908, 0.374, 192.0, 0.0, 0.0, 0.0, 0.0, 0.0, 0.0, 0.0, 0.0, 0.0, 1.687804710321948E9, 0.0, 2023-06-26 13:38:30.321
34.0, 52437.70658227284, 50057.64812918283, 21730.321255960615, -27094.427000811935, -3442.772143217581, -14606.17209746505, 22013.204933786983, 6468.706604088141, 0.046, 0.908, 0.374, 192.0, 0.0, 0.0, 0.0, 0.0, 0.0, 0.0, 0.0, 0.0, 0.0, 1.6878047103249612E9, 0.0, 2023-06-26 13:38:30.324
35.0, 52361.196561002325, 49992.13516618433, 21610.940588824822, -27058.01600909424, -3538.1917402972867, -14490.926503053488, 22041.859870178687, 6540.902738678782, 0.046, 0.908, 0.374, 192.0, 0.0, 0.0, 0.0, 0.0, 0.0, 0.0, 0.0, 0.0, 0.0, 1.687804710327983E9, 0.0, 2023-06-26 13:38:30.327
36.0, 52371.29954949612, 50046.651070910826, 21687.405906606426, -27006.62934859149, -3484.5028501156394, -14408.493269502314, 22124.33780721877, 6601.654780108307, 0.046, 0.908, 0.374, 192.0, 0.0, 0.0, 0.0, 0.0, 0.0, 0.0, 0.0, 0.0, 0.0, 1.6878047103621385E9, 0.0, 2023-06-26 13:38:30.362
37.0, 52452.79400978018, 50115.80736825554, 21792.92849217993, -26955.734426466755, -3338.61301405585, -14451.498025834326, 22116.179420492583, 6549.1505323827905, 0.046, 0.908, 0.374, 192.0, 0.0, 0.0, 0.0, 0.0, 0.0, 0.0, 0.0, 0.0, 0.0, 1.687804710365151E9, 0.0, 2023-06-26 13:38:30.365
38.0, 52461.42178313992, 50077.69764395925, 21753.790587638687, -27054.797357892676, -3402.516651453573, -14498.280226979285, 22045.5032045249, 6500.267267259034, 0.046, 0.908, 0.374, 192.0, 0.0, 0.0, 0.0, 0.0, 0.0, 0.0, 0.0, 0.0, 0.0, 1.6878047103691573E9, 0.0, 2023-06-26 13:38:30.369
39.0, 52370.60664541801, 50014.79983506201, 21587.448905402292, -27119.41625111297, -3559.4482492742836, -14523.403587747049, 22034.26027706388, 6521.143796580291, 0.044, 0.916, 0.376, 192.0, 1.0, 96.0, 28.0, 160.0, 11.0, 192.0, 0.0, 0.0, 0.0, 1.6878047103721893E9, 0.0, 2023-06-26 13:38:30.372
40.0, 52363.431735447855, 50032.927099815264, 21720.374729678006, -26967.916127194898, -3482.0441582255553, -14374.809190608168, 22144.923763862105, 6618.552698916519, 0.044, 0.916, 0.376, 192.0, 0.0, 0.0, 0.0, 0.0, 0.0, 0.0, 0.0, 0.0, 0.0, 1.687804710375234E9, 0.0, 2023-06-26 13:38:30.375
41.0, 52406.45884352432, 50049.981480834664, 21740.603058410055, -27021.96264528783, -3352.4040403847744, -14406.816888668167, 22145.86253712923, 6583.952198499704, 0.044, 0.916, 0.376, 192.0, 0.0, 0.0, 0.0, 0.0, 0.0, 0.0, 0.0, 0.0, 0.0, 1.6878047103832335E9, 0.0, 2023-06-26 13:38:30.383
42.0, 52433.92913745989, 50034.15644576031, 21676.341793101048, -27138.526992622257, -3429.4281517777627, -14593.476306614437, 22034.528497997344, 6475.94856929166, 0.044, 0.916, 0.376, 192.0, 0.0, 0.0, 0.0, 0.0, 0.0, 0.0, 0.0, 0.0, 0.0, 1.687804710387269E9, 0.0, 2023-06-26 13:38:30.387
43.0, 52409.766901703704, 50037.5092074286, 21665.657659251414, -27076.143273847494, -3548.920577635834, -14548.683410726002, 22036.11547185367, 6520.517947735542, 0.044, 0.916, 0.376, 192.0, 0.0, 0.0, 0.0, 0.0, 0.0, 0.0, 0.0, 0.0, 0.0, 1.687804710390279E9, 0.0, 2023-06-26 13:38:30.390
44.0, 52355.89919756642, 50023.56171888849, 21664.9647551733, -27001.86842702251, -3521.763208122636, -14453.107351435108, 22118.235780982468, 6596.335064927944, 0.044, 0.916, 0.376, 192.0, 0.0, 0.0, 0.0, 0.0, 0.0, 0.0, 0.0, 0.0, 0.0, 1.687804710394302E9, 0.0, 2023-06-26 13:38:30.394
45.0, 52409.67749472589, 50065.53829497556, 21741.385369465992, -26976.14156915445, -3368.072613247945, -14418.685664973935, 22148.4776912305, 6586.3661869008765, 0.044, 0.916, 0.376, 192.0, 0.0, 0.0, 0.0, 0.0, 0.0, 0.0, 0.0, 0.0, 0.0, 1.6878047103973207E9, 0.0, 2023-06-26 13:38:30.397
46.0, 52444.65797479844, 50073.87549565739, 21738.591401409078, -27062.866337641044, -3407.0764073224555, -14545.263593824338, 22048.051303392807, 6485.939799063182, 0.044, 0.916, 0.376, 192.0, 0.0, 0.0, 0.0, 0.0, 0.0, 0.0, 0.0, 0.0, 0.0, 1.687804710400336E9, 0.0, 2023-06-26 13:38:30.400
47.0, 52426.10602690054, 50061.872608884885, 21720.710005844834, -27043.085043798095, -3489.8225652960023, -14569.112905158152, 22041.055207378293, 6513.879479632316, 0.044, 0.916, 0.376, 192.0, 0.0, 0.0, 0.0, 0.0, 0.0, 0.0, 0.0, 0.0, 0.0, 1.68780471040433E9, 0.0, 2023-06-26 13:38:30.404
48.0, 52412.73968371626, 50069.494553744145, 21765.368791266537, -26919.256379515697, -3482.379434392385, -14368.528350416227, 22139.872269615207, 6638.401047992832, 0.044, 0.916, 0.376, 192.0, 0.0, 0.0, 0.0, 0.0, 0.0, 0.0, 0.0, 0.0, 0.0, 1.6878047104195316E9, 0.0, 2023-06-26 13:38:30.419
49.0, 52398.70278819833, 50083.17382135079, 21707.097793471552, -26895.675289115345, -3422.610869718894, -14350.021106007232, 22144.744949906464, 6607.2650679665885, 0.042, 0.924, 0.366, 192.0, 1.0, 80.0, 28.0, 224.0, 11.0, 112.0, 0.0, 0.0, 0.0, 1.6878047104254413E9, 0.0, 2023-06-26 13:38:30.425
50.0, 52423.46852105481, 50075.73069044718, 21696.279549155184, -27074.39983777998, -3394.090043793922, -14565.000184178376, 22037.99301838792, 6468.214865710123, 0.042, 0.924, 0.366, 192.0, 0.0, 0.0, 0.0, 0.0, 0.0, 0.0, 0.0, 0.0, 0.0, 1.6878047104284544E9, 0.0, 2023-06-26 13:38:30.428
51.0, 52453.822190025116, 50075.306007302526, 21724.621561124513, -27039.173488518416, -3470.5330098310724, -14556.506521285359, 22024.425509503548, 6498.9038108472605, 0.042, 0.924, 0.366, 192.0, 0.0, 0.0, 0.0, 0.0, 0.0, 0.0, 0.0, 0.0, 0.0, 1.687804710431502E9, 0.0, 2023-06-26 13:38:30.431
52.0, 52398.32280854259, 50064.130135074876, 21701.822781780098, -26923.592617940023, -3521.3385249779853, -14378.094897043098, 22097.292196427847, 6606.102777254913, 0.042, 0.924, 0.366, 192.0, 0.0, 0.0, 0.0, 0.0, 0.0, 0.0, 0.0, 0.0, 0.0, 1.6878047104354942E9, 0.0, 2023-06-26 13:38:30.435
53.0, 52416.09244538456, 50088.49353653116, 21772.63310821451, -26892.389582680415, -3418.7663696725813, -14336.49830061177, 22157.37368552371, 6625.146463530835, 0.042, 0.924, 0.366, 192.0, 0.0, 0.0, 0.0, 0.0, 0.0, 0.0, 0.0, 0.0, 0.0, 1.6878047104385152E9, 0.0, 2023-06-26 13:38:30.438
54.0, 52452.6822510579, 50093.58973426697, 21761.367829009036, -27041.319255986127, -3378.1756017417433, -14507.600904417146, 22084.127018943673, 6509.163261552247, 0.042, 0.924, 0.366, 192.0, 0.0, 0.0, 0.0, 0.0, 0.0, 0.0, 0.0, 0.0, 0.0, 1.6878047104416153E9, 0.0, 2023-06-26 13:38:30.441
55.0, 52458.359594149544, 50086.548934763545, 21716.82080230961, -27087.766180964256, -3487.3638734059186, -14567.011841179354, 22019.575180956745, 6479.189572237679, 0.042, 0.924, 0.366, 192.0, 0.0, 0.0, 0.0, 0.0, 0.0, 0.0, 0.0, 0.0, 0.0, 1.6878047104455569E9, 0.0, 2023-06-26 13:38:30.445
56.0, 52432.85625372604, 50093.58973426697, 21737.429110697405, -26911.075641045052, -3520.1985860107648, -14401.608932210082, 22112.245513468446, 6607.68975111124, 0.042, 0.924, 0.366, 192.0, 0.0, 0.0, 0.0, 0.0, 0.0, 0.0, 0.0, 0.0, 0.0, 1.6878047104485939E9, 0.0, 2023-06-26 13:38:30.448
57.0, 52413.79021570566, 50095.89196394586, 21747.330933491103, -26914.718975391268, -3448.315375842497, -14357.441885166394, 22169.980069396504, 6631.561414189508, 0.042, 0.924, 0.366, 192.0, 0.0, 0.0, 0.0, 0.0, 0.0, 0.0, 0.0, 0.0, 0.0, 1.6878047104525993E9, 0.0, 2023-06-26 13:38:30.452
58.0, 52454.582149336595, 50097.814213969024, 21749.990791081287, -26979.09199942255, -3372.7664795835594, -14479.035375003265, 22105.94232153205, 6531.202081585179, 0.042, 0.924, 0.366, 192.0, 0.0, 0.0, 0.0, 0.0, 0.0, 0.0, 0.0, 0.0, 0.0, 1.6878047104576082E9, 0.0, 2023-06-26 13:38:30.457
59.0, 52459.11955346102, 50077.474126514695, 21704.43793588137, -27035.038415794184, -3480.412480880318, -14576.488980828402, 22018.748166411897, 6470.0253570110035, 0.05, 0.93, 0.372, 192.0, 1.0, 144.0, 29.0, 16.0, 11.0, 160.0, 0.0, 0.0, 0.0, 1.6878047104606168E9, 0.0, 2023-06-26 13:38:30.460
60.0, 52426.88833795647, 50065.180667064276, 21684.075496682584, -26965.613897516003, -3544.0702490890326, -14476.286110435261, 22068.16787340258, 6558.53826505402, 0.05, 0.93, 0.372, 192.0, 0.0, 0.0, 0.0, 0.0, 0.0, 0.0, 0.0, 0.0, 0.0, 1.6878047104636292E9, 0.0, 2023-06-26 13:38:30.463
61.0, 52408.96223890332, 50086.88421093037, 21761.434884242404, -26873.636469082412, -3454.9538439457233, -14349.350553673572, 22169.756551951952, 6640.949146860737, 0.05, 0.93, 0.372, 192.0, 0.0, 0.0, 0.0, 0.0, 0.0, 0.0, 0.0, 0.0, 0.0, 1.687804710467645E9, 0.0, 2023-06-26 13:38:30.467
62.0, 52460.19243719488, 50118.355467123445, 21790.44744854539, -26950.19119384184, -3360.6294823443277, -14443.652563530513, 22140.162842293124, 6568.797715759006, 0.05, 0.93, 0.372, 192.0, 0.0, 0.0, 0.0, 0.0, 0.0, 0.0, 0.0, 0.0, 0.0, 1.6878047104877484E9, 0.0, 2023-06-26 13:38:30.487
63.0, 52479.19141998189, 50093.276809844596, 21746.772139879722, -27039.44170945188, -3428.087047110444, -14571.191617392495, 22036.428396276046, 6483.592865895375, 0.05, 0.93, 0.372, 192.0, 0.0, 0.0, 0.0, 0.0, 0.0, 0.0, 0.0, 0.0, 0.0, 1.6878047104907656E9, 0.0, 2023-06-26 13:38:30.490
64.0, 52451.87758825751, 50078.368196292904, 21720.82176456711, -26973.995801686742, -3521.8749668449127, -14482.902226794033, 22054.04157090683, 6549.1505323827905, 0.05, 0.93, 0.372, 192.0, 0.0, 0.0, 0.0, 0.0, 0.0, 0.0, 0.0, 0.0, 0.0, 1.6878047104947872E9, 0.0, 2023-06-26 13:38:30.494
65.0, 52422.172119876406, 50100.49642330366, 21749.052017814163, -26883.918271531853, -3481.6641785698152, -14347.942393772888, 22148.410635997134, 6635.070638068991, 0.05, 0.93, 0.372, 192.0, 0.0, 0.0, 0.0, 0.0, 0.0, 0.0, 0.0, 0.0, 0.0, 1.6878047104978E9, 0.0, 2023-06-26 13:38:30.497
66.0, 52464.81924829713, 50131.92297600782, 21781.193826340896, -26948.492461263235, -3370.4642499046627, -14410.639036970024, 22146.644848185166, 6588.646064835319, 0.05, 0.93, 0.372, 192.0, 0.0, 0.0, 0.0, 0.0, 0.0, 0.0, 0.0, 0.0, 0.0, 1.6878047105008178E9, 0.0, 2023-06-26 13:38:30.500
67.0, 52495.01645505625, 50119.562461324036, 21765.346439522084, -27030.50101166976, -3404.8188811324694, -14552.505559027859, 22047.716027225975, 6493.829964855906, 0.05, 0.93, 0.372, 192.0, 0.0, 0.0, 0.0, 0.0, 0.0, 0.0, 0.0, 0.0, 0.0, 1.6878047105048363E9, 0.0, 2023-06-26 13:38:30.504
68.0, 52471.74828907827, 50096.137833134875, 21727.080253014596, -26984.992859958755, -3507.8827748158906, -14478.498933136338, 22063.742228000432, 6548.234110860123, 0.05, 0.93, 0.372, 192.0, 0.0, 0.0, 0.0, 0.0, 0.0, 0.0, 0.0, 0.0, 0.0, 1.6878047105078557E9, 0.0, 2023-06-26 13:38:30.507
69.0, 52430.71048625833, 50093.9250104338, 21751.30954400415, -26912.46144920128, -3487.0956524724547, -14360.906405556967, 22148.18711855258, 6630.242661266645, 0.052000000000000005, 0.926, 0.376, 192.0, 1.0, 160.0, 28.0, 240.0, 11.0, 192.0, 0.0, 0.0, 0.0, 1.687804710510851E9, 0.0, 2023-06-26 13:38:30.510
70.0, 52448.4801231003, 50107.313705362525, 21786.15591360997, -26952.783996198657, -3380.611941887372, -14384.286330257217, 22151.539880220877, 6597.8102800619945, 0.052000000000000005, 0.926, 0.376, 192.0, 0.0, 0.0, 0.0, 0.0, 0.0, 0.0, 0.0, 0.0, 0.0, 1.68780471051487E9, 0.0, 2023-06-26 13:38:30.514
71.0, 52479.88432406, 50101.45754831524, 21741.295962488173, -27046.12488104402, -3393.0171600600675, -14543.58721299019, 22062.959916944495, 6488.800822353462, 0.052000000000000005, 0.926, 0.376, 192.0, 0.0, 0.0, 0.0, 0.0, 0.0, 0.0, 0.0, 0.0, 0.0, 1.687804710537002E9, 0.0, 2023-06-26 13:38:30.537
72.0, 52452.52578884671, 50072.512039245616, 21704.169714947908, -27055.289096270695, -3509.2685829721195, -14552.818483450234, 22028.001788616395, 6496.445118957176, 0.052000000000000005, 0.926, 0.376, 192.0, 0.0, 0.0, 0.0, 0.0, 0.0, 0.0, 0.0, 0.0, 0.0, 1.6878047105400023E9, 0.0, 2023-06-26 13:38:30.540
73.0, 52425.74839898925, 50081.519792261104, 21753.96940159433, -26924.285522018137, -3498.6291526113932, -14361.241681723795, 22132.675007900598, 6628.678039154773, 0.052000000000000005, 0.926, 0.376, 192.0, 0.0, 0.0, 0.0, 0.0, 0.0, 0.0, 0.0, 0.0, 0.0, 1.6878047105440192E9, 0.0, 2023-06-26 13:38:30.544
74.0, 52444.34505037607, 50111.11350191993, 21787.899349677486, -26929.627588942956, -3386.5351541680284, -14353.93266128691, 22171.656450230654, 6628.208652521212, 0.052000000000000005, 0.926, 0.376, 192.0, 0.0, 0.0, 0.0, 0.0, 0.0, 0.0, 0.0, 0.0, 0.0, 1.687804710566134E9, 0.0, 2023-06-26 13:38:30.566
75.0, 52481.42659442742, 50106.91137396233, 21759.982020852807, -27041.40866296395, -3371.023043516045, -14494.145154255051, 22080.841312508743, 6511.599601697874, 0.052000000000000005, 0.926, 0.376, 192.0, 0.0, 0.0, 0.0, 0.0, 0.0, 0.0, 0.0, 0.0, 0.0, 1.687804710570158E9, 0.0, 2023-06-26 13:38:30.570
76.0, 52460.86298952854, 50072.512039245616, 21699.85582826803, -27065.6379539535, -3488.3697019064075, -14537.105207098151, 22019.396367001103, 6497.316836990934, 0.052000000000000005, 0.926, 0.376, 192.0, 0.0, 0.0, 0.0, 0.0, 0.0, 0.0, 0.0, 0.0, 0.0, 1.6878047105731845E9, 0.0, 2023-06-26 13:38:30.573
77.0, 52422.61915476551, 50072.19911482324, 21717.91603778792, -26983.517644824704, -3516.9799348092006, -14401.899504888, 22103.036594752863, 6614.574088403474, 0.052000000000000005, 0.926, 0.376, 192.0, 0.0, 0.0, 0.0, 0.0, 0.0, 0.0, 0.0, 0.0, 0.0, 1.6878047105972943E9, 0.0, 2023-06-26 13:38:30.597
78.0, 52429.68230601338, 50099.848222714456, 21774.6894687044, -26945.162051339397, -3414.899517881813, -14351.988059519299, 22170.985897896993, 6635.763542147106, 0.052000000000000005, 0.926, 0.376, 192.0, 0.0, 0.0, 0.0, 0.0, 0.0, 0.0, 0.0, 0.0, 0.0, 1.687804710600318E9, 0.0, 2023-06-26 13:38:30.600
79.0, 52467.322643676125, 50104.22916462769, 21761.792512153686, -27041.028683308206, -3365.9715492691457, -14493.20638098793, 22092.754792303418, 6523.468378003643, 0.052000000000000005, 0.926, 0.376, 192.0, 0.0, 0.0, 0.0, 0.0, 0.0, 0.0, 0.0, 0.0, 0.0, 1.6878047106053421E9, 0.0, 2023-06-26 13:38:30.605
80.0, 52465.66861458643, 50078.09997535944, 21717.848982554555, -27097.489189802312, -3444.604986262916, -14565.626033023123, 22028.538230483322, 6489.8066508539505, 0.056, 0.904, 0.38, 192.0, 1.0, 192.0, 28.0, 64.0, 11.0, 224.0, 0.0, 0.0, 0.0, 1.6878047106123972E9, 0.0, 2023-06-26 13:38:30.612
81.0, 52425.033143166685, 50067.14762057634, 21722.25227621225, -26988.323269882592, -3510.8108533395357, -14420.876135930555, 22088.820885279285, 6594.613980604885, 0.056, 0.904, 0.38, 192.0, 0.0, 0.0, 0.0, 0.0, 0.0, 0.0, 0.0, 0.0, 0.0, 1.6878047106154008E9, 0.0, 2023-06-26 13:38:30.615
82.0, 52426.10602690054, 50097.97067618021, 21775.583538482613, -26930.76752791018, -3426.991811632134, -14328.272858652219, 22164.034505371394, 6645.17362656279, 0.056, 0.904, 0.38, 192.0, 0.0, 0.0, 0.0, 0.0, 0.0, 0.0, 0.0, 0.0, 0.0, 1.6878047106194189E9, 0.0, 2023-06-26 13:38:30.619
83.0, 52461.19826569537, 50105.34675185046, 21769.25799480176, -27032.95970355984, -3356.650871831283, -14454.917842735988, 22101.919007530094, 6543.227320102134, 0.056, 0.904, 0.38, 192.0, 0.0, 0.0, 0.0, 0.0, 0.0, 0.0, 0.0, 0.0, 0.0, 1.6878047106224427E9, 0.0, 2023-06-26 13:38:30.622
84.0, 52474.43049841291, 50082.90560041733, 21718.139555232472, -27101.288986359716, -3439.1735123602766, -14537.172262331518, 22016.78121289983, 6495.036959056492, 0.056, 0.904, 0.38, 192.0, 0.0, 0.0, 0.0, 0.0, 0.0, 0.0, 0.0, 0.0, 0.0, 1.6878047106264443E9, 0.0, 2023-06-26 13:38:30.626
85.0, 52435.80668399414, 50069.986292122165, 21723.34751169056, -26998.24744442075, -3517.7175423762255, -14432.990781425331, 22067.586728046743, 6583.505163610597, 0.056, 0.904, 0.38, 192.0, 0.0, 0.0, 0.0, 0.0, 0.0, 0.0, 0.0, 0.0, 0.0, 1.6878047106304631E9, 0.0, 2023-06-26 13:38:30.630
86.0, 52416.65123899594, 50086.973617908196, 21760.272593530728, -26927.414766241884, -3447.7789339755695, -14321.902611482456, 22155.00440061145, 6654.583710978474, 0.056, 0.904, 0.38, 192.0, 0.0, 0.0, 0.0, 0.0, 0.0, 0.0, 0.0, 0.0, 0.0, 1.6878047106375072E9, 0.0, 2023-06-26 13:38:30.637
87.0, 52450.91646324593, 50104.69855126126, 21789.665137489457, -27007.903398025443, -3355.1086014638668, -14395.395147251505, 22115.66533037011, 6580.666492064774, 0.056, 0.904, 0.38, 192.0, 0.0, 0.0, 0.0, 0.0, 0.0, 0.0, 0.0, 0.0, 0.0, 1.687804710654581E9, 0.0, 2023-06-26 13:38:30.654
88.0, 52467.65791984295, 50082.72678646169, 21731.7294158613, -27093.152951377982, -3417.0899888384333, -14522.174241802008, 22014.30016926529, 6489.918409576227, 0.056, 0.904, 0.38, 192.0, 0.0, 0.0, 0.0, 0.0, 0.0, 0.0, 0.0, 0.0, 0.0, 1.6878047106927495E9, 0.0, 2023-06-26 13:38:30.692
89.0, 52433.79502699316, 50062.67727168528, 21707.209552193828, -27033.71966287132, -3509.827376583502, -14449.776941511267, 22042.351608556703, 6553.82204697395, 0.056, 0.904, 0.38, 192.0, 0.0, 0.0, 0.0, 0.0, 0.0, 0.0, 0.0, 0.0, 0.0, 1.6878047106977887E9, 0.0, 2023-06-26 13:38:30.697
90.0, 52412.2702970827, 50080.42455678279, 21754.34938125007, -26942.815118171588, -3464.5874458059607, -14316.895820724467, 22143.493252216966, 6645.106571329424, 0.048, 0.9, 0.388, 192.0, 1.0, 128.0, 28.0, 32.0, 12.0, 32.0, 0.0, 0.0, 0.0, 1.6878047107008145E9, 0.0, 2023-06-26 13:38:30.700
91.0, 52442.288689886176, 50098.663580258326, 21781.417343785448, -26996.01226997522, -3360.4506683886852, -14375.390335964006, 22136.6759701581, 6587.930809012749, 0.048, 0.9, 0.388, 192.0, 0.0, 0.0, 0.0, 0.0, 0.0, 0.0, 0.0, 0.0, 0.0, 1.687804710704821E9, 0.0, 2023-06-26 13:38:30.704
92.0, 52480.97955953832, 50096.31664709051, 21745.766311379233, -27084.97221290734, -3386.870430334858, -14502.39294795906, 22044.296210324315, 6494.321703233923, 0.048, 0.9, 0.388, 192.0, 0.0, 0.0, 0.0, 0.0, 0.0, 0.0, 0.0, 0.0, 0.0, 1.6878047107078333E9, 0.0, 2023-06-26 13:38:30.707
93.0, 52444.099181187055, 50065.29242578655, 21704.214418436815, -27059.960610861854, -3501.7583968351364, -14474.073287734187, 22026.615980460167, 6521.836700658406, 0.048, 0.9, 0.388, 192.0, 0.0, 0.0, 0.0, 0.0, 0.0, 0.0, 0.0, 0.0, 0.0, 1.687804710710848E9, 0.0, 2023-06-26 13:38:30.710
94.0, 52413.03025639418, 50075.59657998045, 21752.605945182557, -26948.067778118584, -3490.4931176296614, -14324.45071035036, 22119.75569960543, 6634.847120624438, 0.048, 0.9, 0.388, 192.0, 0.0, 0.0, 0.0, 0.0, 0.0, 0.0, 0.0, 0.0, 0.0, 1.6878047107148688E9, 0.0, 2023-06-26 13:38:30.714
95.0, 52434.75615200474, 50100.00468492564, 21784.770105453743, -26968.474920806282, -3376.298055207498, -14344.097893726575, 22144.72259816201, 6611.109568012902, 0.048, 0.9, 0.388, 192.0, 0.0, 0.0, 0.0, 0.0, 0.0, 0.0, 0.0, 0.0, 0.0, 1.6878047107178812E9, 0.0, 2023-06-26 13:38:30.717
96.0, 52460.259492428246, 50084.313760318015, 21743.64289565598, -27083.184073350916, -3386.9821890571343, -14500.805974102734, 22037.36716954317, 6492.488860188587, 0.048, 0.9, 0.388, 192.0, 0.0, 0.0, 0.0, 0.0, 0.0, 0.0, 0.0, 0.0, 0.0, 1.68780471072089E9, 0.0, 2023-06-26 13:38:30.720
97.0, 52440.58995730757, 50056.776411149076, 21701.91218875792, -27072.36582903455, -3492.8176990530133, -14479.683575592468, 22005.73945113891, 6501.586020181897, 0.048, 0.9, 0.388, 192.0, 0.0, 0.0, 0.0, 0.0, 0.0, 0.0, 0.0, 0.0, 0.0, 1.6878047107249079E9, 0.0, 2023-06-26 13:38:30.724
98.0, 52409.789253448165, 50069.7180711887, 21731.01416003873, -26960.58475501356, -3510.475577172706, -14329.770425530724, 22093.537103359355, 6610.818995334983, 0.048, 0.9, 0.388, 192.0, 0.0, 0.0, 0.0, 0.0, 0.0, 0.0, 0.0, 0.0, 0.0, 1.687804710727938E9, 0.0, 2023-06-26 13:38:30.727
109.0, 52443.4286288534, 50064.24189379715, 21699.833476523578, -27097.26567235776, -3446.571939774983, -14495.665072878013, 22002.65491040408, 6487.772642108517, 0.048, 0.9, 0.388, 192.0, 0.0, 0.0, 0.0, 0.0, 0.0, 0.0, 0.0, 0.0, 0.0, 1.6878047107309475E9, 0.0, 2023-06-26 13:38:30.730
100.0, 52466.76385006474, 50102.083397159986, 21756.472796973325, -27054.775006148222, -3371.2465609605983, -14450.38043861156, 22065.284498367848, 6507.732749907106, 0.044, 0.904, 0.39, 192.0, 1.0, 96.0, 28.0, 64.0, 12.0, 48.0, 0.0, 0.0, 0.0, 1.687804710734966E9, 0.0, 2023-06-26 13:38:30.734
101.0, 52451.87758825751, 50066.25355079813, 21705.041432981663, -27079.384276793513, -3472.54466683205, -14498.459040934926, 22008.466363962456, 6485.850392085361, 0.044, 0.904, 0.39, 192.0, 0.0, 0.0, 0.0, 0.0, 0.0, 0.0, 0.0, 0.0, 0.0, 1.6878047107379625E9, 0.0, 2023-06-26 13:38:30.737
106.0, 52418.238212852266, 50066.94645487624, 21724.755671591243, -26978.376743599983, -3507.1675189933208, -14361.152274745975, 22076.6615362956, 6603.375864431366, 0.044, 0.904, 0.39, 192.0, 0.0, 0.0, 0.0, 0.0, 0.0, 0.0, 0.0, 0.0, 0.0, 1.6878047107440045E9, 0.0, 2023-06-26 13:38:30.744
103.0, 52405.38595979047, 50082.7714899506, 21766.620488956036, -26937.651865202413, -3413.9830963591453, -14288.48675352177, 22155.362028522733, 6637.730495659172, 0.044, 0.904, 0.39, 192.0, 0.0, 0.0, 0.0, 0.0, 0.0, 0.0, 0.0, 0.0, 0.0, 1.6878047107550535E9, 0.0, 2023-06-26 13:38:30.755
104.0, 52460.10303021706, 50104.34092334997, 21771.5378727362, -27024.801316833655, -3350.5935490838947, -14407.062757857175, 22094.162952204104, 6543.383782313322, 0.044, 0.904, 0.39, 192.0, 0.0, 0.0, 0.0, 0.0, 0.0, 0.0, 0.0, 0.0, 0.0, 1.6878047107591567E9, 0.0, 2023-06-26 13:38:30.759
110.0, 52408.381093547476, 50050.49557095714, 21703.879142269987, -27019.571008631112, -3521.606745911449, -14400.714862431869, 22045.816128947274, 6570.295282637511, 0.046, 0.908, 0.384, 192.0, 1.0, 112.0, 28.0, 96.0, 12.0, 0.0, 0.0, 0.0, 0.0, 1.6878047107631493E9, 0.0, 2023-06-26 13:38:30.763
111.0, 52391.617285206, 50066.32060603149, 21753.96940159433, -26932.220391299772, -3461.2346841376648, -14278.942558639355, 22133.27850500089, 6647.565263219508, 0.046, 0.908, 0.384, 192.0, 0.0, 0.0, 0.0, 0.0, 0.0, 0.0, 0.0, 0.0, 0.0, 1.6878047107661464E9, 0.0, 2023-06-26 13:38:30.766
112.0, 52440.16527416292, 50098.507118047135, 21780.63503272951, -26991.34075538406, -3362.9764155121347, -14343.494396626282, 22107.506943643923, 6585.382710144843, 0.046, 0.908, 0.384, 192.0, 0.0, 0.0, 0.0, 0.0, 0.0, 0.0, 0.0, 0.0, 0.0, 1.6878047107691462E9, 0.0, 2023-06-26 13:38:30.769
113.0, 52459.276015672214, 50075.70833870272, 21733.875183329008, -27082.178244850427, -3413.424302747763, -14474.922654023489, 22021.586837957722, 6500.915467848238, 0.046, 0.908, 0.384, 192.0, 0.0, 0.0, 0.0, 0.0, 0.0, 0.0, 0.0, 0.0, 0.0, 1.6878047107731445E9, 0.0, 2023-06-26 13:38:30.773
132.0, 52400.37916903248, 50072.69085320125, 21758.77502665222, -26957.209641600806, -3460.184152148265, -14269.711288179315, 22145.929592362594, 6639.205710793222, 0.046, 0.908, 0.384, 192.0, 0.0, 0.0, 0.0, 0.0, 0.0, 0.0, 0.0, 0.0, 0.0, 1.6878047107761662E9, 0.0, 2023-06-26 13:38:30.776
125.0, 52448.97186147831, 50081.89977191684, 21750.527232948214, -27074.46689301335, -3378.1085465083775, -14423.714807476379, 22076.907405484606, 6513.0524650874695, 0.046, 0.908, 0.384, 192.0, 0.0, 0.0, 0.0, 0.0, 0.0, 0.0, 0.0, 0.0, 0.0, 1.6878047107791593E9, 0.0, 2023-06-26 13:38:30.779
130.0, 52444.79208526517, 50055.68117567077, 21716.15024997595, -27105.625224784046, -3468.677815041282, -14475.906130779522, 22013.07082332025, 6489.449022942666, 0.046, 0.908, 0.384, 192.0, 0.0, 0.0, 0.0, 0.0, 0.0, 0.0, 0.0, 0.0, 0.0, 1.6878047107832155E9, 0.0, 2023-06-26 13:38:30.783
128.0, 52401.13912834396, 50073.67432995729, 21764.072390088128, -26958.461339290305, -3437.608890248405, -14263.810427643113, 22157.217223312524, 6643.74311491765, 0.046, 0.908, 0.384, 192.0, 0.0, 0.0, 0.0, 0.0, 0.0, 0.0, 0.0, 0.0, 0.0, 1.6878047107862089E9, 0.0, 2023-06-26 13:38:30.786
118.0, 52422.909727443424, 50043.343012731435, 21695.58664507707, -27065.146215575485, -3505.5581933925387, -14445.95479320941, 22017.943503611506, 6518.841566901394, 0.046, 0.908, 0.384, 192.0, 0.0, 0.0, 0.0, 0.0, 0.0, 0.0, 0.0, 0.0, 0.0, 1.687804710789244E9, 0.0, 2023-06-26 13:38:30.789
123.0, 52404.71540745681, 50060.59855945093, 21728.711930359834, -26971.224185374285, -3511.995495795667, -14304.177678129397, 22109.608007622723, 6630.130902544368, 0.046, 0.908, 0.384, 192.0, 0.0, 0.0, 0.0, 0.0, 0.0, 0.0, 0.0, 0.0, 0.0, 1.6878047107922428E9, 0.0, 2023-06-26 13:38:30.792
126.0, 52448.21190216683, 50062.27494028508, 21709.087098728072, -27092.16947462195, -3473.7293092881814, -14465.870197519089, 22022.391500758113, 6497.182726524202, 0.046, 0.908, 0.384, 192.0, 0.0, 0.0, 0.0, 0.0, 0.0, 0.0, 0.0, 0.0, 0.0, 1.6878047107982724E9, 0.0, 2023-06-26 13:38:30.798
133.0, 52447.0272597107, 50094.26028660063, 21776.7905326832, -27026.96943604582, -3375.158116240277, -14363.70037361388, 22111.887885557164, 6558.851189476394, 0.046, 0.908, 0.384, 192.0, 0.0, 0.0, 0.0, 0.0, 0.0, 0.0, 0.0, 0.0, 0.0, 1.6878047108053217E9, 0.0, 2023-06-26 13:38:30.805
134.0, 52460.21478893934, 50069.695719444244, 21728.39900593746, -27093.085896144617, -3442.705087984215, -14468.48535162036, 22020.87158213515, 6488.242028742079, 0.046, 0.908, 0.384, 192.0, 0.0, 0.0, 0.0, 0.0, 0.0, 0.0, 0.0, 0.0, 0.0, 1.6878047108093276E9, 0.0, 2023-06-26 13:38:30.809
135.0, 52416.695942484854, 50047.545140689035, 21703.00742423623, -27029.472831424813, -3536.738876907692, -14393.22702803934, 22045.525556269356, 6557.890064464816, 0.046, 0.908, 0.384, 192.0, 0.0, 0.0, 0.0, 0.0, 0.0, 0.0, 0.0, 0.0, 0.0, 1.6878047108143744E9, 0.0, 2023-06-26 13:38:30.814
136.0, 52400.31211379911, 50069.74042293316, 21759.02089584123, -26942.47984200476, -3474.578675577483, -14266.693802677848, 22137.90531610314, 6644.190149806756, 0.046, 0.908, 0.384, 192.0, 0.0, 0.0, 0.0, 0.0, 0.0, 0.0, 0.0, 0.0, 0.0, 1.68780471081738E9, 0.0, 2023-06-26 13:38:30.817
137.0, 52436.65605028344, 50093.880306944884, 21782.6913932194, -26995.229958919284, -3374.9793022846347, -14328.183451674397, 22122.66142638462, 6583.527515355053, 0.046, 0.908, 0.384, 192.0, 0.0, 0.0, 0.0, 0.0, 0.0, 0.0, 0.0, 0.0, 0.0, 1.6878047108203776E9, 0.0, 2023-06-26 13:38:30.820
138.0, 52454.20216968086, 50070.276864800086, 21732.645837383967, -27087.430904797424, -3424.6672302087823, -14469.066496976197, 22021.56448621327, 6487.817345597428, 0.046, 0.908, 0.384, 192.0, 0.0, 0.0, 0.0, 0.0, 0.0, 0.0, 0.0, 0.0, 0.0, 1.6878047108244047E9, 0.0, 2023-06-26 13:38:30.824
139.0, 52420.74160823126, 50045.153504032314, 21696.34660438855, -27042.280380997705, -3529.921594848823, -14420.384397552538, 22015.395404743602, 6532.543186252497, 0.046, 0.908, 0.384, 192.0, 0.0, 0.0, 0.0, 0.0, 0.0, 0.0, 0.0, 0.0, 0.0, 1.6878047108274212E9, 0.0, 2023-06-26 13:38:30.827
140.0, 52403.26254406721, 50072.13205958987, 21748.515575947236, -26925.17959179635, -3486.246286183153, -14270.404192257429, 22121.923818817595, 6639.317469515499, 0.046, 0.908, 0.384, 192.0, 0.0, 0.0, 0.0, 0.0, 0.0, 0.0, 0.0, 0.0, 0.0, 1.687804710830414E9, 0.0, 2023-06-26 13:38:30.830
141.0, 52419.780483219685, 50088.2700190866, 21781.46204727436, -26963.84810970403, -3382.7577093550813, -14310.704387510346, 22143.269734772413, 6599.821937062971, 0.036000000000000004, 0.918, 0.376, 192.0, 1.0, 32.0, 28.0, 176.0, 11.0, 192.0, 0.0, 0.0, 0.0, 1.687804710833447E9, 0.0, 2023-06-26 13:38:30.833
142.0, 52438.71241077333, 50061.15735306232, 21732.7799478507, -27078.959593648862, -3409.445692234718, -14467.635985331057, 22036.048416620306, 6489.516078176031, 0.036000000000000004, 0.918, 0.376, 192.0, 0.0, 0.0, 0.0, 0.0, 0.0, 0.0, 0.0, 0.0, 0.0, 1.687804710837468E9, 0.0, 2023-06-26 13:38:30.837
143.0, 52425.18960537787, 50045.0640970545, 21707.902456271942, -27046.527212444213, -3508.1062922604433, -14438.466958816882, 22021.11745132416, 6523.893061148294, 0.036000000000000004, 0.918, 0.376, 192.0, 0.0, 0.0, 0.0, 0.0, 0.0, 0.0, 0.0, 0.0, 0.0, 1.6878047108404913E9, 0.0, 2023-06-26 13:38:30.840
144.0, 52394.34419802955, 50055.52471345958, 21740.15602352095, -26939.19413556983, -3503.4347776692844, -14289.000843644244, 22123.84606884075, 6637.104646814424, 0.036000000000000004, 0.918, 0.376, 192.0, 0.0, 0.0, 0.0, 0.0, 0.0, 0.0, 0.0, 0.0, 0.0, 1.6878047108435037E9, 0.0, 2023-06-26 13:38:30.843
145.0, 52417.388846562964, 50086.92891441929, 21785.77593395423, -26943.888001905445, -3388.1444797688105, -14287.145648854454, 22162.000496625962, 6624.542966430541, 0.036000000000000004, 0.918, 0.376, 192.0, 0.0, 0.0, 0.0, 0.0, 0.0, 0.0, 0.0, 0.0, 0.0, 1.6878047108495288E9, 0.0, 2023-06-26 13:38:30.849
146.0, 52448.12249518901, 50075.797745680546, 21751.600116682068, -27057.501918971768, -3384.1882210002213, -14440.456264073404, 22061.909384955095, 6509.230316785613, 0.036000000000000004, 0.918, 0.376, 192.0, 0.0, 0.0, 0.0, 0.0, 0.0, 0.0, 0.0, 0.0, 0.0, 1.68780471085253E9, 0.0, 2023-06-26 13:38:30.852
147.0, 52428.76588449072, 50047.45573371121, 21700.705194557333, -27065.615602209047, -3498.830318311491, -14464.015002729298, 22011.50620120838, 6504.7152644056405, 0.036000000000000004, 0.918, 0.376, 192.0, 0.0, 0.0, 0.0, 0.0, 0.0, 0.0, 0.0, 0.0, 0.0, 1.6878047108555484E9, 0.0, 2023-06-26 13:38:30.855
148.0, 52399.17217483189, 50057.02228033809, 21723.571029135113, -26956.516737522692, -3520.60091741096, -14315.420605590416, 22102.94718777504, 6624.095931541435, 0.036000000000000004, 0.918, 0.376, 192.0, 0.0, 0.0, 0.0, 0.0, 0.0, 0.0, 0.0, 0.0, 0.0, 1.6878047108645964E9, 0.0, 2023-06-26 13:38:30.864
149.0, 52397.98753237576, 50071.99794912314, 21756.316334762138, -26950.10178686402, -3433.7420384576367, -14280.127201095487, 22144.521432461912, 6632.254318267623, 0.036000000000000004, 0.918, 0.376, 192.0, 0.0, 0.0, 0.0, 0.0, 0.0, 0.0, 0.0, 0.0, 0.0, 1.6878047108702629E9, 0.0, 2023-06-26 13:38:30.870
150.0, 52439.29355612917, 50076.267132314104, 21745.07340730112, -27050.550526446168, -3382.4000814437964, -14412.04719687071, 22076.549777573324, 6534.666601975751, 0.036000000000000004, 0.918, 0.376, 192.0, 0.0, 0.0, 0.0, 0.0, 0.0, 0.0, 0.0, 0.0, 0.0, 1.687804710873625E9, 0.0, 2023-06-26 13:38:30.873
151.0, 52447.98838472228, 50061.738498418155, 21718.094851743565, -27071.471759256336, -3463.6263207943825, -14464.43968587395, 22020.670416435056, 6508.738578407595, 0.034, 0.922, 0.382, 192.0, 1.0, 16.0, 28.0, 208.0, 11.0, 240.0, 0.0, 0.0, 0.0, 1.6878047108766382E9, 0.0, 2023-06-26 13:38:30.876
152.0, 52404.80481443463, 50051.43434422426, 21718.608941866034, -26985.350487870037, -3523.8419203569797, -14342.46621638134, 22075.94628047303, 6600.82776556346, 0.034, 0.922, 0.382, 192.0, 0.0, 0.0, 0.0, 0.0, 0.0, 0.0, 0.0, 0.0, 0.0, 1.687804710879675E9, 0.0, 2023-06-26 13:38:30.879
153.0, 52399.59685797654, 50074.23312356867, 21757.948012107376, -26950.57117349758, -3438.860587937902, -14270.381840512973, 22143.023865583404, 6642.938452117259, 0.034, 0.922, 0.382, 192.0, 0.0, 0.0, 0.0, 0.0, 0.0, 0.0, 0.0, 0.0, 0.0, 1.6878047108936882E9, 0.0, 2023-06-26 13:38:30.893
154.0, 52443.85331199805, 50088.98527490917, 21757.38921849599, -27035.172526260918, -3370.8442295604027, -14383.45931571237, 22093.738269059453, 6553.576177784941, 0.034, 0.922, 0.382, 192.0, 0.0, 0.0, 0.0, 0.0, 0.0, 0.0, 0.0, 0.0, 0.0, 1.6878047108997283E9, 0.0, 2023-06-26 13:38:30.899
155.0, 52456.14677144847, 50068.26520779911, 21722.07346225661, -27081.954727405875, -3443.7779717180697, -14464.842017274144, 22023.442032747513, 6505.09524406138, 0.034, 0.922, 0.382, 192.0, 0.0, 0.0, 0.0, 0.0, 0.0, 0.0, 0.0, 0.0, 0.0, 1.6878047109027507E9, 0.0, 2023-06-26 13:38:30.902
156.0, 52410.482157526276, 50047.8133616225, 21713.78096506369, -27011.077345738096, -3522.9478505787674, -14366.51669341525, 22061.484701810445, 6584.1310124553465, 0.034, 0.922, 0.382, 192.0, 0.0, 0.0, 0.0, 0.0, 0.0, 0.0, 0.0, 0.0, 0.0, 1.687804710905758E9, 0.0, 2023-06-26 13:38:30.905
157.0, 52403.32959930058, 50074.47899275768, 21760.29494527518, -26946.033769373153, -3453.3668700893963, -14263.92218636539, 22137.346522491756, 6648.302870786532, 0.034, 0.922, 0.382, 192.0, 0.0, 0.0, 0.0, 0.0, 0.0, 0.0, 0.0, 0.0, 0.0, 1.6878047109148357E9, 0.0, 2023-06-26 13:38:30.914
158.0, 52448.05543995565, 50098.68593200278, 21778.422210028435, -27015.9276742849, -3361.0765172334336, -14345.193129204885, 22116.984083292973, 6576.307901895989, 0.034, 0.922, 0.382, 192.0, 0.0, 0.0, 0.0, 0.0, 0.0, 0.0, 0.0, 0.0, 0.0, 1.687804710969164E9, 0.0, 2023-06-26 13:38:30.969
159.0, 52461.48883837329, 50075.820097425, 21731.707064116843, -27094.806980467678, -3423.9743261306676, -14461.15397943902, 22035.288457308827, 6500.848412614872, 0.034, 0.922, 0.382, 192.0, 0.0, 0.0, 0.0, 0.0, 0.0, 0.0, 0.0, 0.0, 0.0, 1.687804710973142E9, 0.0, 2023-06-26 13:38:30.973
160.0, 52419.780483219685, 50052.06019306901, 21703.700328314346, -27041.051035052664, -3520.176234266309, -14390.053080326687, 22049.347704571213, 6560.371108099354, 0.034, 0.922, 0.382, 192.0, 0.0, 0.0, 0.0, 0.0, 0.0, 0.0, 0.0, 0.0, 0.0, 1.6878047109761498E9, 0.0, 2023-06-26 13:38:30.976
161.0, 52401.16148008841, 50071.68502470077, 21748.20265152486, -26955.0638741331, -3469.5942365639494, -14257.797808384636, 22147.024827840905, 6650.560396976519, 0.034, 0.922, 0.382, 192.0, 0.0, 0.0, 0.0, 0.0, 0.0, 0.0, 0.0, 0.0, 0.0, 1.6878047109791324E9, 0.0, 2023-06-26 13:38:30.979
162.0, 52426.977744934295, 50085.654864985336, 21768.07335234563, -27017.089964996572, -3374.912247051269, -14324.607172561547, 22129.702225888042, 6581.471154865165, 0.034, 0.916, 0.38, 192.0, 1.0, 16.0, 28.0, 160.0, 11.0, 224.0, 0.0, 0.0, 0.0, 1.687804710983136E9, 0.0, 2023-06-26 13:38:30.983
163.0, 52452.30227140216, 50073.58492297947, 21724.53215414669, -27107.726288762846, -3412.9772678586564, -14454.7613805248, 22027.711215938478, 6488.264380486534, 0.034, 0.916, 0.38, 192.0, 0.0, 0.0, 0.0, 0.0, 0.0, 0.0, 0.0, 0.0, 0.0, 1.687804710994201E9, 0.0, 2023-06-26 13:38:30.994
164.0, 52422.775616976694, 50052.931911102765, 21697.598302078048, -27063.425131252425, -3503.0995015024546, -14400.245475798307, 22039.758806199887, 6544.836645702916, 0.034, 0.916, 0.38, 192.0, 0.0, 0.0, 0.0, 0.0, 0.0, 0.0, 0.0, 0.0, 0.0, 1.6878047110002224E9, 0.0, 2023-06-26 13:38:31.000
165.0, 52398.34516028705, 50067.259379298615, 21738.166718264427, -26966.664429505403, -3479.607818079927, -14262.49167472025, 22135.558382935335, 6647.74407717515, 0.034, 0.916, 0.38, 192.0, 0.0, 0.0, 0.0, 0.0, 0.0, 0.0, 0.0, 0.0, 0.0, 1.6878047110394154E9, 0.0, 2023-06-26 13:38:31.039
166.0, 52419.154634374936, 50087.26419058612, 21764.921756377433, -26998.985051987776, -3377.482697663629, -14289.269064577707, 22136.81008062483, 6607.130957499857, 0.034, 0.916, 0.38, 192.0, 0.0, 0.0, 0.0, 0.0, 0.0, 0.0, 0.0, 0.0, 0.0, 1.6878047110434341E9, 0.0, 2023-06-26 13:38:31.043
167.0, 52444.34505037607, 50067.50524848762, 21729.44953792686, -27108.441544585414, -3401.711988653182, -14446.178310653962, 22029.275838050347, 6491.8630113438385, 0.034, 0.916, 0.38, 192.0, 0.0, 0.0, 0.0, 0.0, 0.0, 0.0, 0.0, 0.0, 0.0, 1.6878047110464656E9, 0.0, 2023-06-26 13:38:31.046
201.0, 52453.30809990264, 50068.39931826584, 21717.044319754164, -27073.25989881276, -3464.6768527837817, -14461.735124794857, 22015.238942532415, 6509.8785173748165, 0.034, 0.916, 0.38, 192.0, 0.0, 0.0, 0.0, 0.0, 0.0, 0.0, 0.0, 0.0, 0.0, 1.687804711049462E9, 0.0, 2023-06-26 13:38:31.049
169.0, 52404.4695382678, 50062.297292029536, 21734.59043915158, -26971.827682474577, -3498.249172955653, -14273.801657414635, 22117.69933911554, 6639.1386555598565, 0.034, 0.916, 0.38, 192.0, 0.0, 0.0, 0.0, 0.0, 0.0, 0.0, 0.0, 0.0, 0.0, 1.6878047110524697E9, 0.0, 2023-06-26 13:38:31.052
170.0, 52418.84170995256, 50086.258362085624, 21777.72930595032, -26978.153226155428, -3385.8198983454586, -14258.222491529286, 22161.374647781213, 6637.1940537922455, 0.034, 0.916, 0.38, 192.0, 0.0, 0.0, 0.0, 0.0, 0.0, 0.0, 0.0, 0.0, 0.0, 1.6878047111761408E9, 0.0, 2023-06-26 13:38:31.176
171.0, 52447.89897774446, 50075.26130381362, 21746.883898602, -27093.80115196719, -3379.2931889645088, -14415.131737605541, 22061.66351576609, 6518.238069801101, 0.034, 0.916, 0.38, 192.0, 0.0, 0.0, 0.0, 0.0, 0.0, 0.0, 0.0, 0.0, 0.0, 1.6878047111811385E9, 0.0, 2023-06-26 13:38:31.181
172.0, 52442.5792625641, 50054.116553558895, 21710.472906884304, -27095.991622923808, -3471.2706173980973, -14447.899394977021, 22024.894896137106, 6515.95819186666, 0.032, 0.91, 0.386, 192.0, 1.0, 0.0, 28.0, 112.0, 12.0, 16.0, 0.0, 0.0, 0.0, 1.6878047111891613E9, 0.0, 2023-06-26 13:38:31.189
246.0, 52455.94560574837, 50093.0756441445, 21754.12586380552, -27023.34845344406, -3398.3368752404303, -14417.94805740691, 22083.121190443184, 6532.923165908238, 0.032, 0.91, 0.386, 192.0, 0.0, 0.0, 0.0, 0.0, 0.0, 0.0, 0.0, 0.0, 0.0, 1.6878047111921697E9, 0.0, 2023-06-26 13:38:31.192
199.0, 52403.910744656416, 50077.474126514695, 21763.17832030992, -26948.91714440789, -3427.125922098866, -14272.147628324943, 22159.4300460136, 6641.507940472119, 0.032, 0.91, 0.386, 192.0, 0.0, 0.0, 0.0, 0.0, 0.0, 0.0, 0.0, 0.0, 0.0, 1.6878047112022574E9, 0.0, 2023-06-26 13:38:31.202
175.0, 52452.61519582453, 50086.52658301909, 21767.559262223156, -27061.838157396098, -3360.160095710766, -14376.954958075878, 22093.201827192526, 6546.490674792609, 0.032, 0.91, 0.386, 192.0, 0.0, 0.0, 0.0, 0.0, 0.0, 0.0, 0.0, 0.0, 0.0, 1.6878047112052352E9, 0.0, 2023-06-26 13:38:31.205
197.0, 52445.95437597685, 50064.44305949725, 21704.236770181273, -27076.769122692243, -3486.648617583349, -14459.499950349325, 22010.45566921898, 6514.304162776967, 0.032, 0.91, 0.386, 192.0, 0.0, 0.0, 0.0, 0.0, 0.0, 0.0, 0.0, 0.0, 0.0, 1.6878047112092497E9, 0.0, 2023-06-26 13:38:31.209
244.0, 52421.3227535871, 50083.28558007307, 21746.4815672018, -26918.80934462659, -3524.356010479452, -14316.001750946254, 22123.354330462735, 6631.784931634061, 0.034, 0.928, 0.368, 192.0, 1.0, 16.0, 29.0, 0.0, 11.0, 128.0, 0.0, 0.0, 0.0, 1.687804711221321E9, 0.0, 2023-06-26 13:38:31.221
195.0, 52413.499643027746, 50091.175745865796, 21770.822616913632, -26955.62266774448, -3404.1036253098996, -14265.531511966172, 22157.01605761243, 6644.324260273488, 0.034, 0.928, 0.368, 192.0, 0.0, 0.0, 0.0, 0.0, 0.0, 0.0, 0.0, 0.0, 0.0, 1.6878047112253711E9, 0.0, 2023-06-26 13:38:31.225
179.0, 52438.153617161945, 50081.96682715021, 21762.485416231804, -27045.744901388276, -3357.4778863761294, -14356.994850277288, 22105.04825175384, 6563.209779645179, 0.034, 0.928, 0.368, 192.0, 0.0, 0.0, 0.0, 0.0, 0.0, 0.0, 0.0, 0.0, 0.0, 1.6878047112283466E9, 0.0, 2023-06-26 13:38:31.228
193.0, 52434.68909677138, 50058.944530361245, 21703.856790525533, -27064.475663241825, -3495.7234258322032, -14428.408673811993, 22029.78992817282, 6535.1806920982235, 0.034, 0.928, 0.368, 192.0, 0.0, 0.0, 0.0, 0.0, 0.0, 0.0, 0.0, 0.0, 0.0, 1.6878047112343843E9, 0.0, 2023-06-26 13:38:31.234
240.0, 52422.19447162086, 50091.71218773272, 21758.35034350757, -26914.98719632473, -3500.953734034745, -14280.440125517862, 22145.43785398458, 6654.3378417894655, 0.034, 0.928, 0.368, 192.0, 0.0, 0.0, 0.0, 0.0, 0.0, 0.0, 0.0, 0.0, 0.0, 1.687804711237384E9, 0.0, 2023-06-26 13:38:31.237
238.0, 52467.21088495385, 50097.34482733546, 21750.057846314652, -27048.225945022816, -3420.3756952733634, -14454.33669738015, 22050.398236560613, 6510.593773197386, 0.034, 0.928, 0.368, 192.0, 0.0, 0.0, 0.0, 0.0, 0.0, 0.0, 0.0, 0.0, 0.0, 1.6878047112403991E9, 0.0, 2023-06-26 13:38:31.240
189.0, 52435.717277016316, 50063.414879252305, 21707.991863249765, -27047.086006055597, -3497.6903793442702, -14395.216333295863, 22053.661591251086, 6570.317634381966, 0.034, 0.928, 0.368, 192.0, 0.0, 0.0, 0.0, 0.0, 0.0, 0.0, 0.0, 0.0, 0.0, 1.6878047112444165E9, 0.0, 2023-06-26 13:38:31.244
236.0, 52406.3694365465, 50083.35263530644, 21755.17639579492, -26925.157240051896, -3493.085919986477, -14281.356547040528, 22156.56902272332, 6655.164856334312, 0.034, 0.928, 0.368, 192.0, 0.0, 0.0, 0.0, 0.0, 0.0, 0.0, 0.0, 0.0, 0.0, 1.687804711252457E9, 0.0, 2023-06-26 13:38:31.252
218.0, 52452.54814059116, 50074.30017880204, 21714.07153774161, -27053.009218336254, -3499.389111922874, -14440.880947218055, 22020.49160247941, 6523.356619281366, 0.034, 0.928, 0.368, 192.0, 0.0, 0.0, 0.0, 0.0, 0.0, 0.0, 0.0, 0.0, 0.0, 1.687804711256488E9, 0.0, 2023-06-26 13:38:31.256
234.0, 52459.94656800587, 50084.51492601811, 21738.01025605324, -27069.840081911098, -3439.285271082553, -14474.743840067846, 22027.465346749468, 6500.3343224924, 0.034, 0.928, 0.368, 192.0, 0.0, 0.0, 0.0, 0.0, 0.0, 0.0, 0.0, 0.0, 0.0, 1.6878047112886555E9, 0.0, 2023-06-26 13:38:31.288
204.0, 52453.397506880465, 50100.049388414554, 21782.423172285937, -27002.896607267456, -3354.8627322748584, -14348.03180075071, 22117.162897248614, 6577.380785629844, 0.034, 0.928, 0.368, 192.0, 0.0, 0.0, 0.0, 0.0, 0.0, 0.0, 0.0, 0.0, 0.0, 1.6878047112926524E9, 0.0, 2023-06-26 13:38:31.292
216.0, 52423.51322454372, 50095.57903952349, 21771.64963145848, -26967.513795794704, -3402.8519276204024, -14293.359433813028, 22143.6273626837, 6615.8928413263375, 0.034, 0.928, 0.368, 192.0, 0.0, 0.0, 0.0, 0.0, 0.0, 0.0, 0.0, 0.0, 0.0, 1.687804711298695E9, 0.0, 2023-06-26 13:38:31.298
230.0, 52456.37028889302, 50075.507173002625, 21722.162869234427, -27085.843930941097, -3465.839143495458, -14491.619407131602, 22010.813297130266, 6480.418918182721, 0.034, 0.928, 0.368, 192.0, 0.0, 0.0, 0.0, 0.0, 0.0, 0.0, 0.0, 0.0, 0.0, 1.687804711301691E9, 0.0, 2023-06-26 13:38:31.301
252.0, 52441.95341371935, 50082.078585872485, 21740.267782243227, -26950.749987453222, -3530.927423349312, -14354.670268853935, 22111.820830323795, 6619.8267483504715, 0.034, 0.928, 0.368, 192.0, 0.0, 0.0, 0.0, 0.0, 0.0, 0.0, 0.0, 0.0, 0.0, 1.6878047113047125E9, 0.0, 2023-06-26 13:38:31.304
211.0, 52405.90004991294, 50077.94351314825, 21753.857642872055, -26932.578019211058, -3472.9469982322453, -14254.936785094356, 22150.42229299811, 6666.474839028698, 0.034, 0.928, 0.368, 192.0, 0.0, 0.0, 0.0, 0.0, 0.0, 0.0, 0.0, 0.0, 0.0, 1.6878047113087256E9, 0.0, 2023-06-26 13:38:31.308
228.0, 52417.03121865168, 50098.84239421396, 21772.521349492235, -26921.93858885033, -3451.7575444886143, -14257.306070006618, 22177.49025553349, 6658.428211024787, 0.034, 0.928, 0.368, 192.0, 0.0, 0.0, 0.0, 0.0, 0.0, 0.0, 0.0, 0.0, 0.0, 1.6878047113117416E9, 0.0, 2023-06-26 13:38:31.311
250.0, 52461.801762795665, 50107.78309199609, 21782.244358330296, -26997.44278162036, -3385.5740291564503, -14388.51080995927, 22117.028786781884, 6567.769535514061, 0.034, 0.928, 0.368, 192.0, 0.0, 0.0, 0.0, 0.0, 0.0, 0.0, 0.0, 0.0, 0.0, 1.6878047113157692E9, 0.0, 2023-06-26 13:38:31.315
248.0, 52428.6764775129, 50075.507173002625, 21737.49616593077, -26941.09403384853, -3524.668934901826, -14332.02795172071, 22110.815001823306, 6626.2193472646895, 0.034, 0.928, 0.368, 192.0, 0.0, 0.0, 0.0, 0.0, 0.0, 0.0, 0.0, 0.0, 0.0, 1.687804711318788E9, 0.0, 2023-06-26 13:38:31.318
221.0, 52459.276015672214, 50097.25542035764, 21755.91400336194, -27047.421282222425, -3390.245543747609, -14414.215316082875, 22071.07360018177, 6527.446988516687, 0.034, 0.928, 0.368, 192.0, 0.0, 0.0, 0.0, 0.0, 0.0, 0.0, 0.0, 0.0, 0.0, 1.6878047113217876E9, 0.0, 2023-06-26 13:38:31.321
222.0, 52452.4810853578, 50071.34974853394, 21714.652683097447, -27069.08012259962, -3489.8449170404574, -14459.768171282789, 22019.26225653437, 6507.2410115290895, 0.034, 0.928, 0.368, 192.0, 0.0, 0.0, 0.0, 0.0, 0.0, 0.0, 0.0, 0.0, 0.0, 1.687804711325784E9, 0.0, 2023-06-26 13:38:31.325
253.0, 52421.61332626502, 50093.85795520043, 21774.8906344045, -26902.269053729662, -3466.3308818734745, -14259.29537526314, 22184.978089926015, 6674.9461501772585, 0.034, 0.928, 0.368, 192.0, 0.0, 0.0, 0.0, 0.0, 0.0, 0.0, 0.0, 0.0, 0.0, 1.687804711329826E9, 0.0, 2023-06-26 13:38:31.329
2.0, 52463.00875699625, 50120.523586335614, 21799.36579458306, -26940.132908836953, -3383.070633777456, -14327.825823763113, 22158.82654891331, 6613.680018625262, 0.034, 0.928, 0.368, 192.0, 0.0, 0.0, 0.0, 0.0, 0.0, 0.0, 0.0, 0.0, 0.0, 1.6878047113328595E9, 0.0, 2023-06-26 13:38:31.332
255.0, 52482.700643861375, 50095.60139126795, 21741.005389810252, -27038.905267584953, -3455.311471857008, -14470.049973732232, 22049.973553415963, 6514.2818110325115, 0.034, 0.928, 0.368, 192.0, 0.0, 0.0, 0.0, 0.0, 0.0, 0.0, 0.0, 0.0, 0.0, 1.6878047113358667E9, 0.0, 2023-06-26 13:38:31.335
0.0, 52440.85817824104, 50070.38862352236, 21719.704177344345, -26979.561386056113, -3543.243234544186, -14394.23285653983, 22072.548815315822, 6576.9784542296475, 0.034, 0.928, 0.368, 192.0, 0.0, 0.0, 0.0, 0.0, 0.0, 0.0, 0.0, 0.0, 0.0, 1.6878047113398912E9, 0.0, 2023-06-26 13:38:31.339
3.0, 52487.930952063914, 50102.82100472701, 21752.985924838296, -27035.932485572397, -3432.9820791461566, -14461.377496883571, 22064.390428589635, 6519.132139579313, 0.034, 0.928, 0.368, 192.0, 0.0, 0.0, 0.0, 0.0, 0.0, 0.0, 0.0, 0.0, 0.0, 1.6878047113428867E9, 0.0, 2023-06-26 13:38:31.342
7.0, 52476.77743158072, 50102.73159774919, 21755.466968472836, -27038.25706699575, -3426.097741853922, -14454.04612470223, 22057.863719208686, 6512.784244154006, 0.034, 0.928, 0.368, 192.0, 0.0, 0.0, 0.0, 0.0, 0.0, 0.0, 0.0, 0.0, 0.0, 1.6878047113459108E9, 0.0, 2023-06-26 13:38:31.345
5.0, 52422.48504429877, 50089.05233014254, 21758.8867853745, -26903.319585719062, -3507.569850393516, -14274.762782426213, 22156.56902272332, 6655.254263312133, 0.034, 0.928, 0.368, 192.0, 0.0, 0.0, 0.0, 0.0, 0.0, 0.0, 0.0, 0.0, 0.0, 1.6878047113499525E9, 0.0, 2023-06-26 13:38:31.349
8.0, 52455.76679179273, 50079.32932130448, 21723.25810471274, -27015.68180509589, -3519.88566158839, -14437.148205894018, 22042.68688472353, 6541.372125312344, 0.04, 0.922, 0.378, 192.0, 1.0, 64.0, 28.0, 208.0, 11.0, 208.0, 0.0, 0.0, 0.0, 1.6878047113529584E9, 0.0, 2023-06-26 13:38:31.352
22.0, 52416.53948027366, 50093.410920311326, 21772.566052981147, -26905.66651888687, -3473.349329632441, -14263.184578798364, 22184.039316658895, 6666.2513215841445, 0.04, 0.922, 0.378, 192.0, 0.0, 0.0, 0.0, 0.0, 0.0, 0.0, 0.0, 0.0, 0.0, 1.6878047113559513E9, 0.0, 2023-06-26 13:38:31.355
20.0, 52486.99217879679, 50102.03869367107, 21750.46017771485, -27039.285247240692, -3472.7234807876926, -14454.828435758167, 22043.960934157483, 6518.014552356548, 0.04, 0.922, 0.378, 192.0, 0.0, 0.0, 0.0, 0.0, 0.0, 0.0, 0.0, 0.0, 0.0, 1.687804711362995E9, 0.0, 2023-06-26 13:38:31.362
11.0, 52482.87945781702, 50116.70143803376, 21768.587442468102, -27022.834363321588, -3407.836366633936, -14422.776034209257, 22093.112420214704, 6533.884290919816, 0.04, 0.922, 0.378, 192.0, 0.0, 0.0, 0.0, 0.0, 0.0, 0.0, 0.0, 0.0, 0.0, 1.6878047113660188E9, 0.0, 2023-06-26 13:38:31.366
12.0, 52474.385794924, 50090.81811795451, 21736.24446824127, -27025.471869167315, -3492.9518095197454, -14443.831377486156, 22061.507053554902, 6531.783226941017, 0.04, 0.922, 0.378, 192.0, 0.0, 0.0, 0.0, 0.0, 0.0, 0.0, 0.0, 0.0, 0.0, 1.6878047113730435E9, 0.0, 2023-06-26 13:38:31.373
13.0, 52435.13613166048, 50091.175745865796, 21748.940259091887, -26922.475030717258, -3525.8982808468677, -14303.887105451478, 22144.029694083893, 6643.877225384382, 0.04, 0.922, 0.378, 192.0, 0.0, 0.0, 0.0, 0.0, 0.0, 0.0, 0.0, 0.0, 0.0, 1.687804711376135E9, 0.0, 2023-06-26 13:38:31.376
18.0, 52442.53455907519, 50117.595507811966, 21791.654442745978, -26895.764696093167, -3447.220140364187, -14243.872671588979, 22193.5388080524, 6672.196885609256, 0.046, 0.912, 0.386, 192.0, 1.0, 112.0, 28.0, 128.0, 12.0, 16.0, 0.0, 0.0, 0.0, 1.6878047113791113E9, 0.0, 2023-06-26 13:38:31.379
25.0, 52444.032125953694, 50081.85506842793, 21730.00833153824, -26980.38840060096, -3535.0177925846333, -14391.304778016183, 22083.4117631211, 6581.247637420612, 0.046, 0.912, 0.386, 192.0, 0.0, 0.0, 0.0, 0.0, 0.0, 0.0, 0.0, 0.0, 0.0, 1.6878047113833027E9, 0.0, 2023-06-26 13:38:31.383
16.0, 52479.77256533773, 50096.96484767972, 21737.786738608687, -27039.7322821298, -3486.4251001387956, -14449.53107232226, 22047.82778594825, 6529.793921684494, 0.046, 0.912, 0.386, 192.0, 0.0, 0.0, 0.0, 0.0, 0.0, 0.0, 0.0, 0.0, 0.0, 1.6878047113861256E9, 0.0, 2023-06-26 13:38:31.386
23.0, 52456.14677144847, 50111.98521995368, 21792.16853286845, -26971.67122026339, -3388.7926803580144, -14345.21548094934, 22149.90820287564, 6597.095024239425, 0.046, 0.912, 0.386, 192.0, 0.0, 0.0, 0.0, 0.0, 0.0, 0.0, 0.0, 0.0, 0.0, 1.687804711389127E9, 0.0, 2023-06-26 13:38:31.389
26.0, 52420.38398031998, 50097.814213969024, 21767.201634311874, -26896.83757982702, -3496.058701999033, -14262.938709609356, 22168.080171117803, 6663.36794654941, 0.046, 0.912, 0.386, 192.0, 0.0, 0.0, 0.0, 0.0, 0.0, 0.0, 0.0, 0.0, 0.0, 1.6878047113931336E9, 0.0, 2023-06-26 13:38:31.393
27.0, 52452.19051267988, 50119.04837120156, 21791.87796019053, -26949.76651069719, -3404.550660199006, -14321.813204504635, 22148.053008085848, 6602.191221975234, 0.046, 0.912, 0.386, 192.0, 0.0, 0.0, 0.0, 0.0, 0.0, 0.0, 0.0, 0.0, 0.0, 1.6878047113961563E9, 0.0, 2023-06-26 13:38:31.396
28.0, 52480.84544907158, 50106.5760977955, 21750.102549803563, -27041.810994364143, -3448.2036171202208, -14465.937252752454, 22050.957030171994, 6500.826060870417, 0.046, 0.912, 0.386, 192.0, 0.0, 0.0, 0.0, 0.0, 0.0, 0.0, 0.0, 0.0, 0.0, 1.6878047113991747E9, 0.0, 2023-06-26 13:38:31.399
29.0, 52456.59380633757, 50086.705396974736, 21726.96849429232, -26999.499142110246, -3541.991536854689, -14421.144356864019, 22059.920079698575, 6553.464419062665, 0.046, 0.912, 0.378, 192.0, 1.0, 112.0, 28.0, 128.0, 11.0, 208.0, 0.0, 0.0, 0.0, 1.687804711405214E9, 0.0, 2023-06-26 13:38:31.405
30.0, 52424.98843967777, 50095.19905986775, 21760.943145864385, -26905.71122237578, -3522.1655395228318, -14284.329329053084, 22147.51656621892, 6649.800437665038, 0.046, 0.912, 0.378, 192.0, 0.0, 0.0, 0.0, 0.0, 0.0, 0.0, 0.0, 0.0, 0.0, 1.6878047114102252E9, 0.0, 2023-06-26 13:38:31.410
31.0, 52444.590919565075, 50117.461397345236, 21787.20644559937, -26935.975484368264, -3421.090951095933, -14312.291361366673, 22146.980124351994, 6610.684884868251, 0.046, 0.912, 0.378, 192.0, 0.0, 0.0, 0.0, 0.0, 0.0, 0.0, 0.0, 0.0, 0.0, 1.6878047114142427E9, 0.0, 2023-06-26 13:38:31.414
32.0, 52490.97078930984, 50123.183443925795, 21775.9411663939, -27015.525342884703, -3410.8762038798577, -14438.9586971949, 22082.85296950972, 6526.0835321049135, 0.046, 0.912, 0.378, 192.0, 0.0, 0.0, 0.0, 0.0, 0.0, 0.0, 0.0, 0.0, 0.0, 1.6878047114172537E9, 0.0, 2023-06-26 13:38:31.417
33.0, 52468.32847217661, 50093.63443775588, 21736.62444789701, -27005.802334046642, -3510.9226120618123, -14433.102540147609, 22071.87826298216, 6544.590776513908, 0.046, 0.912, 0.378, 192.0, 0.0, 0.0, 0.0, 0.0, 0.0, 0.0, 0.0, 0.0, 0.0, 1.6878047114202683E9, 0.0, 2023-06-26 13:38:31.420
34.0, 52420.38398031998, 50086.63834174137, 21749.230831769804, -26917.24472251472, -3534.1013710619654, -14309.78796598768, 22146.28722027388, 6638.892786370849, 0.046, 0.912, 0.378, 192.0, 0.0, 0.0, 0.0, 0.0, 0.0, 0.0, 0.0, 0.0, 0.0, 1.6878047114242923E9, 0.0, 2023-06-26 13:38:31.424
35.0, 52434.107951415535, 50112.65577228735, 21791.69914623489, -26915.23306551374, -3426.1647970872878, -14289.045547133155, 22181.91590093564, 6635.517672958097, 0.046, 0.912, 0.378, 192.0, 0.0, 0.0, 0.0, 0.0, 0.0, 0.0, 0.0, 0.0, 0.0, 1.6878047114273002E9, 0.0, 2023-06-26 13:38:31.427
36.0, 52480.64428337148, 50117.61785955642, 21781.126771107527, -27008.193970703363, -3403.0977968094107, -14423.804214454201, 22101.13669647416, 6539.204006100179, 0.046, 0.912, 0.378, 192.0, 0.0, 0.0, 0.0, 0.0, 0.0, 0.0, 0.0, 0.0, 0.0, 1.6878047114303172E9, 0.0, 2023-06-26 13:38:31.430
37.0, 52474.318739690636, 50096.80838546853, 21740.15602352095, -27017.134668485483, -3501.512527646128, -14455.342525880638, 22049.75003597141, 6527.804616427972, 0.046, 0.912, 0.378, 192.0, 0.0, 0.0, 0.0, 0.0, 0.0, 0.0, 0.0, 0.0, 0.0, 1.6878047114343555E9, 0.0, 2023-06-26 13:38:31.434
38.0, 52434.599689793555, 50097.14366163536, 21750.907212603954, -26915.054251558096, -3539.734010664703, -14321.902611482456, 22130.506888688433, 6631.7402281451505, 0.046, 0.912, 0.378, 192.0, 0.0, 0.0, 0.0, 0.0, 0.0, 0.0, 0.0, 0.0, 0.0, 1.6878047114373438E9, 0.0, 2023-06-26 13:38:31.437
39.0, 52432.52097755921, 50116.276754889106, 21787.78759095521, -26891.361402435472, -3448.2930240980418, -14271.365317269006, 22192.488276063, 6655.075449356491, 0.042, 0.922, 0.374, 192.0, 1.0, 80.0, 28.0, 208.0, 11.0, 176.0, 0.0, 0.0, 0.0, 1.6878047114403803E9, 0.0, 2023-06-26 13:38:31.440
40.0, 52488.91442881995, 50138.74025806669, 21795.990681170308, -26975.33690635406, -3387.5633344129724, -14387.057946569676, 22132.160917778125, 6567.68012853624, 0.042, 0.922, 0.374, 192.0, 0.0, 0.0, 0.0, 0.0, 0.0, 0.0, 0.0, 0.0, 0.0, 1.687804711444379E9, 0.0, 2023-06-26 13:38:31.444
41.0, 52489.07089103114, 50114.175690910306, 21747.219174768827, -27016.73233708529, -3479.183134935276, -14462.070400961686, 22056.992001174927, 6525.189462326702, 0.042, 0.922, 0.374, 192.0, 0.0, 0.0, 0.0, 0.0, 0.0, 0.0, 0.0, 0.0, 0.0, 1.687804711447405E9, 0.0, 2023-06-26 13:38:31.447
42.0, 52438.444189839865, 50095.13200463438, 21742.078273544106, -26932.890943633432, -3548.495894491183, -14344.924908271421, 22109.22802796698, 6617.591573904941, 0.042, 0.922, 0.374, 192.0, 0.0, 0.0, 0.0, 0.0, 0.0, 0.0, 0.0, 0.0, 0.0, 1.6878047114504132E9, 0.0, 2023-06-26 13:38:31.450
43.0, 52430.33050660259, 50115.67325778881, 21789.106343878073, -26886.399315166393, -3465.190942906254, -14256.590814184048, 22194.030546430415, 6668.777068707594, 0.042, 0.922, 0.374, 192.0, 0.0, 0.0, 0.0, 0.0, 0.0, 0.0, 0.0, 0.0, 0.0, 1.687804711454438E9, 0.0, 2023-06-26 13:38:31.454
44.0, 52476.2856932027, 50132.30295566356, 21792.772029968743, -26975.403961587428, -3391.966628070668, -14370.852931839578, 22143.20267953905, 6575.950273984704, 0.042, 0.922, 0.374, 192.0, 0.0, 0.0, 0.0, 0.0, 0.0, 0.0, 0.0, 0.0, 0.0, 1.6878047114574506E9, 0.0, 2023-06-26 13:38:31.457
45.0, 52478.76673683724, 50100.474071559205, 21739.820747354122, -27045.87901185501, -3473.25992265462, -14475.503799379327, 22053.192204617528, 6509.185613296701, 0.042, 0.922, 0.374, 192.0, 0.0, 0.0, 0.0, 0.0, 0.0, 0.0, 0.0, 0.0, 0.0, 1.6878047114604647E9, 0.0, 2023-06-26 13:38:31.460
46.0, 52442.646317797466, 50083.19617309525, 21732.82465133961, -26968.743141739746, -3549.434667758306, -14378.363117976562, 22092.598330092234, 6587.975512501659, 0.042, 0.922, 0.374, 192.0, 0.0, 0.0, 0.0, 0.0, 0.0, 0.0, 0.0, 0.0, 0.0, 1.6878047114634893E9, 0.0, 2023-06-26 13:38:31.463
47.0, 52431.313983358625, 50108.654810029846, 21781.4396955299, -26894.37888793694, -3482.4911931146617, -14271.9688143693, 22181.044182901882, 6663.703222716239, 0.042, 0.922, 0.374, 192.0, 0.0, 0.0, 0.0, 0.0, 0.0, 0.0, 0.0, 0.0, 0.0, 1.6878047114674993E9, 0.0, 2023-06-26 13:38:31.467
48.0, 52456.95143424886, 50116.07558918901, 21790.849779945587, -26972.00649643022, -3398.9850758296343, -14364.058001525165, 22145.683723173588, 6585.516820611575, 0.042, 0.922, 0.374, 192.0, 0.0, 0.0, 0.0, 0.0, 0.0, 0.0, 0.0, 0.0, 0.0, 1.687804711470494E9, 0.0, 2023-06-26 13:38:31.470
49.0, 52472.53060013421, 50089.90169643184, 21738.993732809275, -27057.03253233821, -3470.6000650644382, -14493.407546688028, 22038.104777110195, 6489.851354342861, 0.042, 0.914, 0.368, 192.0, 1.0, 80.0, 28.0, 144.0, 11.0, 128.0, 0.0, 0.0, 0.0, 1.6878047114735224E9, 0.0, 2023-06-26 13:38:31.473
50.0, 52452.838713269084, 50082.45856552823, 21729.315427460126, -26986.445723348348, -3549.7475921806804, -14418.462147529382, 22059.13776864264, 6553.486770807121, 0.042, 0.914, 0.368, 192.0, 0.0, 0.0, 0.0, 0.0, 0.0, 0.0, 0.0, 0.0, 0.0, 1.6878047114775364E9, 0.0, 2023-06-26 13:38:31.477
51.0, 52421.389808820466, 50093.0756441445, 21764.40766625496, -26901.37498395145, -3513.604821396449, -14291.548942512149, 22153.57388896631, 6642.871396883893, 0.042, 0.914, 0.368, 192.0, 0.0, 0.0, 0.0, 0.0, 0.0, 0.0, 0.0, 0.0, 0.0, 1.68780471148055E9, 0.0, 2023-06-26 13:38:31.480
52.0, 52454.71625980333, 50120.21066191324, 21793.017899157752, -26943.15039433842, -3413.7595789145926, -14336.051265722665, 22151.38341800969, 6598.771405073572, 0.042, 0.914, 0.368, 192.0, 0.0, 0.0, 0.0, 0.0, 0.0, 0.0, 0.0, 0.0, 0.0, 1.6878047114835784E9, 0.0, 2023-06-26 13:38:31.483
53.0, 52488.80267009767, 50111.60524029795, 21766.911061633953, -27031.573895403613, -3439.0170501490893, -14475.079116234676, 22067.497321068924, 6506.682217917707, 0.042, 0.914, 0.368, 192.0, 0.0, 0.0, 0.0, 0.0, 0.0, 0.0, 0.0, 0.0, 0.0, 1.687804711487583E9, 0.0, 2023-06-26 13:38:31.487
54.0, 52468.931969276906, 50094.595562767456, 21743.933468333897, -26996.05697346413, -3528.5357866925942, -14441.819720485179, 22070.313640870292, 6548.9717184271485, 0.042, 0.914, 0.368, 192.0, 0.0, 0.0, 0.0, 0.0, 0.0, 0.0, 0.0, 0.0, 0.0, 1.6878047114906135E9, 0.0, 2023-06-26 13:38:31.490
55.0, 52441.39462010797, 50110.1300251639, 21778.80218968418, -26886.488722144215, -3517.181100509298, -14294.991111158266, 22167.700191462063, 6652.952033633236, 0.042, 0.914, 0.368, 192.0, 0.0, 0.0, 0.0, 0.0, 0.0, 0.0, 0.0, 0.0, 0.0, 1.6878047114946158E9, 0.0, 2023-06-26 13:38:31.494
56.0, 52460.885341272995, 50132.481769619204, 21813.380338356536, -26904.168952008364, -3414.1619103147877, -14298.723852482302, 22181.379459068714, 6625.302925742022, 0.042, 0.914, 0.368, 192.0, 0.0, 0.0, 0.0, 0.0, 0.0, 0.0, 0.0, 0.0, 0.0, 1.6878047114976244E9, 0.0, 2023-06-26 13:38:31.497
57.0, 52495.977580067825, 50127.229109672204, 21787.16174211046, -26999.76736304371, -3413.8489858924136, -14441.484444318348, 22092.37481264768, 6528.631630972819, 0.042, 0.914, 0.368, 192.0, 0.0, 0.0, 0.0, 0.0, 0.0, 0.0, 0.0, 0.0, 0.0, 1.6878047115006368E9, 0.0, 2023-06-26 13:38:31.500
58.0, 52474.36344317954, 50098.48476630268, 21744.179337522906, -26994.4699996078, -3515.549423164061, -14450.201624655918, 22064.345725100724, 6535.6500787317855, 0.042, 0.914, 0.368, 192.0, 0.0, 0.0, 0.0, 0.0, 0.0, 0.0, 0.0, 0.0, 0.0, 1.6878047115036604E9, 0.0, 2023-06-26 13:38:31.503
59.0, 52436.18666364988, 50101.301086104046, 21762.97715460982, -26894.915329803865, -3531.6873826607925, -14310.614980532526, 22149.77409240891, 6640.546815460541, 0.044, 0.92, 0.37, 192.0, 1.0, 96.0, 28.0, 192.0, 11.0, 144.0, 0.0, 0.0, 0.0, 1.6878047115076807E9, 0.0, 2023-06-26 13:38:31.507
60.0, 52441.461675341336, 50121.46235960274, 21795.007204414273, -26894.200073981297, -3434.5914047469387, -14284.977529642289, 22189.00140392797, 6640.233891038167, 0.044, 0.92, 0.37, 192.0, 0.0, 0.0, 0.0, 0.0, 0.0, 0.0, 0.0, 0.0, 0.0, 1.6878047115107117E9, 0.0, 2023-06-26 13:38:31.510
61.0, 52477.89501880348, 50119.85303400196, 21771.627279714023, -27001.644909577957, -3424.6895819532374, -14434.443644814926, 22096.621644094186, 6529.77156994004, 0.044, 0.92, 0.37, 192.0, 0.0, 0.0, 0.0, 0.0, 0.0, 0.0, 0.0, 0.0, 0.0, 1.687804711513724E9, 0.0, 2023-06-26 13:38:31.513
62.0, 52482.544181650184, 50104.69855126126, 21747.10741604655, -27004.908264268433, -3507.8827748158906, -14463.925595751476, 22051.13584412764, 6524.295392548489, 0.044, 0.92, 0.37, 192.0, 0.0, 0.0, 0.0, 0.0, 0.0, 0.0, 0.0, 0.0, 0.0, 1.687804711516734E9, 0.0, 2023-06-26 13:38:31.516
63.0, 52441.1263991745, 50102.61983902691, 21754.192919038884, -26908.16991426586, -3545.590167711993, -14334.151367443965, 22126.081243286284, 6627.024010065081, 0.044, 0.92, 0.37, 192.0, 0.0, 0.0, 0.0, 0.0, 0.0, 0.0, 0.0, 0.0, 0.0, 1.6878047115207353E9, 0.0, 2023-06-26 13:38:31.520
64.0, 52441.41697185242, 50129.03960097308, 21797.711765493368, -26874.374076649437, -3448.0695066534886, -14271.387669013462, 22196.042203431392, 6662.116248859912, 0.044, 0.92, 0.37, 192.0, 0.0, 0.0, 0.0, 0.0, 0.0, 0.0, 0.0, 0.0, 0.0, 1.6878047115237515E9, 0.0, 2023-06-26 13:38:31.523
65.0, 52487.57332415263, 50141.35541216796, 21800.17045738345, -26964.451606804327, -3393.3077327379865, -14391.394184994006, 22140.542821948868, 6569.200047159201, 0.044, 0.92, 0.37, 192.0, 0.0, 0.0, 0.0, 0.0, 0.0, 0.0, 0.0, 0.0, 0.0, 1.687804711574005E9, 0.0, 2023-06-26 13:38:31.574
66.0, 52492.20013525488, 50119.29424039057, 21754.818767883633, -27009.646834092957, -3475.0704139554996, -14463.38915388455, 22071.52063507088, 6531.62676472983, 0.044, 0.92, 0.37, 192.0, 0.0, 0.0, 0.0, 0.0, 0.0, 0.0, 0.0, 0.0, 0.0, 1.6878047115780256E9, 0.0, 2023-06-26 13:38:31.578
67.0, 52451.98934697978, 50108.431292585294, 21753.231794027306, -26923.503210962204, -3537.5882431969935, -14347.495358883782, 22125.410690952624, 6625.794664120039, 0.044, 0.92, 0.37, 192.0, 0.0, 0.0, 0.0, 0.0, 0.0, 0.0, 0.0, 0.0, 0.0, 1.6878047115810184E9, 0.0, 2023-06-26 13:38:31.581
68.0, 52436.38782934998, 50122.5799468255, 21799.276387605238, -26871.93773650381, -3460.027689937078, -14253.685087404858, 22208.492125093, 6679.4612025572305, 0.044, 0.92, 0.37, 192.0, 0.0, 0.0, 0.0, 0.0, 0.0, 0.0, 0.0, 0.0, 0.0, 1.6878047115840557E9, 0.0, 2023-06-26 13:38:31.584
69.0, 52459.65599532795, 50121.03767645809, 21787.36290781056, -26975.62747903198, -3403.924811354257, -14377.469048198349, 22144.633191184188, 6572.597512316408, 0.044, 0.92, 0.37, 192.0, 0.0, 0.0, 0.0, 0.0, 0.0, 0.0, 0.0, 0.0, 0.0, 1.6878047115871217E9, 0.0, 2023-06-26 13:38:31.587
70.0, 52481.918332805435, 50106.53139430659, 21753.343552749582, -27035.910133827943, -3465.8838469843686, -14480.510590137315, 22063.69752451152, 6512.985409854104, 0.046, 0.918, 0.376, 192.0, 1.0, 112.0, 28.0, 176.0, 11.0, 192.0, 0.0, 0.0, 0.0, 1.6878047115911555E9, 0.0, 2023-06-26 13:38:31.591
71.0, 52448.010736466735, 50092.24862959965, 21740.87127934352, -26957.209641600806, -3543.667917688837, -14384.17457153494, 22100.309681929313, 6593.697559082218, 0.046, 0.918, 0.376, 192.0, 0.0, 0.0, 0.0, 0.0, 0.0, 0.0, 0.0, 0.0, 0.0, 1.6878047115941293E9, 0.0, 2023-06-26 13:38:31.594
72.0, 52431.64925952545, 50114.935650221785, 21785.865340932054, -26878.442094140304, -3484.994588493656, -14258.133084551464, 22196.01985168694, 6675.773164722105, 0.046, 0.918, 0.376, 192.0, 0.0, 0.0, 0.0, 0.0, 0.0, 0.0, 0.0, 0.0, 0.0, 1.687804711597124E9, 0.0, 2023-06-26 13:38:31.597
73.0, 52477.939722292394, 50146.317499437035, 21818.141259925516, -26931.594542455023, -3387.943314068713, -14322.707274282846, 22176.417371799635, 6616.742207615639, 0.046, 0.918, 0.376, 192.0, 0.0, 0.0, 0.0, 0.0, 0.0, 0.0, 0.0, 0.0, 0.0, 1.687804711600125E9, 0.0, 2023-06-26 13:38:31.600
74.0, 52499.10682429157, 50128.90549050635, 21771.761390180756, -27025.20364823385, -3443.5321025290614, -14460.95281373892, 22074.60517580571, 6525.278869304522, 0.046, 0.918, 0.376, 192.0, 0.0, 0.0, 0.0, 0.0, 0.0, 0.0, 0.0, 0.0, 0.0, 1.6878047116101696E9, 0.0, 2023-06-26 13:38:31.610
75.0, 52475.68219610241, 50118.02019095662, 21755.578727195112, -26968.698438250834, -3521.3608767224405, -14398.971426364355, 22092.03953648085, 6583.594570588419, 0.046, 0.918, 0.376, 192.0, 0.0, 0.0, 0.0, 0.0, 0.0, 0.0, 0.0, 0.0, 0.0, 1.6878047116172123E9, 0.0, 2023-06-26 13:38:31.617
76.0, 52444.389753864976, 50126.759723038645, 21792.324995079638, -26887.27103320015, -3493.7117688312255, -14265.509160221716, 22177.49025553349, 6666.340728561965, 0.046, 0.918, 0.376, 192.0, 0.0, 0.0, 0.0, 0.0, 0.0, 0.0, 0.0, 0.0, 0.0, 1.6878047116212213E9, 0.0, 2023-06-26 13:38:31.621
77.0, 52468.015547754236, 50145.60224361447, 21815.660216290977, -26936.981312868753, -3400.996732830612, -14305.496431052261, 22170.114179863238, 6618.30682972751, 0.046, 0.918, 0.376, 192.0, 0.0, 0.0, 0.0, 0.0, 0.0, 0.0, 0.0, 0.0, 0.0, 1.6878047116694727E9, 0.0, 2023-06-26 13:38:31.669
78.0, 52502.43723421541, 50140.170769711825, 21788.45814328887, -27029.718700613823, -3418.67696269476, -14445.507758320304, 22093.000661492428, 6527.24582281659, 0.046, 0.918, 0.376, 192.0, 0.0, 0.0, 0.0, 0.0, 0.0, 0.0, 0.0, 0.0, 0.0, 1.6878047117016087E9, 0.0, 2023-06-26 13:38:31.701
79.0, 52489.22735324232, 50127.00559222765, 21766.59813721158, -26995.67699380839, -3503.12185324691, -14411.443699770416, 22090.765487046898, 6567.948349469704, 0.046, 0.918, 0.376, 192.0, 0.0, 0.0, 0.0, 0.0, 0.0, 0.0, 0.0, 0.0, 0.0, 1.687804711704621E9, 0.0, 2023-06-26 13:38:31.704
80.0, 52446.60257656605, 50125.75389453815, 21786.98292815482, -26906.80645785409, -3504.55236489205, -14280.082497606576, 22168.706019962552, 6659.6799087142845, 0.046, 0.912, 0.37, 192.0, 1.0, 112.0, 28.0, 128.0, 11.0, 144.0, 0.0, 0.0, 0.0, 1.687804711748837E9, 0.0, 2023-06-26 13:38:31.748
81.0, 52462.7852395517, 50149.84907506098, 21823.7515477838, -26924.441984229325, -3405.7129509106817, -14285.804544187135, 22186.63211901571, 6635.920004358292, 0.046, 0.912, 0.37, 192.0, 0.0, 0.0, 0.0, 0.0, 0.0, 0.0, 0.0, 0.0, 0.0, 1.6878047117528605E9, 0.0, 2023-06-26 13:38:31.752
82.0, 52502.616048171054, 50147.61390061545, 21804.439640574416, -27019.16867723092, -3392.9501048267016, -14417.791595195724, 22113.586618135767, 6538.846378188894, 0.046, 0.912, 0.37, 192.0, 0.0, 0.0, 0.0, 0.0, 0.0, 0.0, 0.0, 0.0, 0.0, 1.6878047117558846E9, 0.0, 2023-06-26 13:38:31.755
83.0, 52483.86293457305, 50119.45070260176, 21760.630221442014, -27024.510744155737, -3493.152975219843, -14430.28622034624, 22077.689716540543, 6547.116523637357, 0.046, 0.912, 0.37, 192.0, 0.0, 0.0, 0.0, 0.0, 0.0, 0.0, 0.0, 0.0, 0.0, 1.687804711759873E9, 0.0, 2023-06-26 13:38:31.759
84.0, 52443.540387575675, 50118.73544677919, 21776.857587916566, -26932.980350611255, -3517.31521097603, -14296.041643147666, 22149.416464497623, 6644.793646907049, 0.046, 0.912, 0.37, 192.0, 0.0, 0.0, 0.0, 0.0, 0.0, 0.0, 0.0, 0.0, 0.0, 1.6878047117629309E9, 0.0, 2023-06-26 13:38:31.762
95.0, 52495.32937947862, 50127.653792816855, 21777.59519548359, -27060.27353528423, -3437.318317570486, -14432.499043047315, 22053.303963339804, 6524.094226848391, 0.046, 0.912, 0.37, 192.0, 0.0, 0.0, 0.0, 0.0, 0.0, 0.0, 0.0, 0.0, 0.0, 1.6878047117659132E9, 0.0, 2023-06-26 13:38:31.765
86.0, 52499.95619058087, 50152.79950532908, 21812.84389648961, -27015.234770206782, -3381.103680265389, -14382.788763378712, 22115.48651641447, 6560.035831932525, 0.046, 0.912, 0.37, 192.0, 0.0, 0.0, 0.0, 0.0, 0.0, 0.0, 0.0, 0.0, 0.0, 1.6878047117699144E9, 0.0, 2023-06-26 13:38:31.769
87.0, 52489.16029800896, 50119.607164812944, 21761.21136679785, -27048.91884910093, -3477.9761407346896, -14432.968429680877, 22060.568280287778, 6533.504311264076, 0.046, 0.912, 0.37, 192.0, 0.0, 0.0, 0.0, 0.0, 0.0, 0.0, 0.0, 0.0, 0.0, 1.6878047117729611E9, 0.0, 2023-06-26 13:38:31.772
93.0, 52435.96314620533, 50127.56438583903, 21804.752564996787, -26916.775335881157, -3453.992718934145, -14229.38874118194, 22180.15011312367, 6668.620606496407, 0.046, 0.912, 0.37, 192.0, 0.0, 0.0, 0.0, 0.0, 0.0, 0.0, 0.0, 0.0, 0.0, 1.6878047117769833E9, 0.0, 2023-06-26 13:38:31.776
89.0, 52445.507341087745, 50139.00847900015, 21816.50958258028, -26912.126173034452, -3432.579747745961, -14229.411092926395, 22195.371651097736, 6673.314472832021, 0.046, 0.912, 0.37, 192.0, 0.0, 0.0, 0.0, 0.0, 0.0, 0.0, 0.0, 0.0, 0.0, 1.6878047117800071E9, 0.0, 2023-06-26 13:38:31.780
90.0, 52474.654015857464, 50134.940461509286, 21802.65150101799, -27017.15702022994, -3388.7703286135593, -14361.487550912805, 22115.531219903376, 6563.880331978838, 0.042, 0.914, 0.37, 192.0, 1.0, 80.0, 28.0, 144.0, 11.0, 144.0, 0.0, 0.0, 0.0, 1.6878047117830017E9, 0.0, 2023-06-26 13:38:31.783
128.0, 52501.96784758185, 50135.92393826532, 21796.01303291476, -27036.312465228137, -3408.708084667693, -14403.553533977692, 22079.254338652416, 6533.0125728860585, 0.042, 0.914, 0.37, 192.0, 0.0, 0.0, 0.0, 0.0, 0.0, 0.0, 0.0, 0.0, 0.0, 1.6878047117870176E9, 0.0, 2023-06-26 13:38:31.787
96.0, 52475.212809468845, 50125.217452671226, 21776.87993966102, -26981.595394801545, -3507.5251469046057, -14339.672248324425, 22097.292196427847, 6604.828727820961, 0.042, 0.914, 0.37, 192.0, 0.0, 0.0, 0.0, 0.0, 0.0, 0.0, 0.0, 0.0, 0.0, 1.6878047117900553E9, 0.0, 2023-06-26 13:38:31.790
97.0, 52450.31296614563, 50137.48856037719, 21807.770050498253, -26909.84629510001, -3465.213294650709, -14227.53354639215, 22172.706982220054, 6673.873266443404, 0.042, 0.914, 0.37, 192.0, 0.0, 0.0, 0.0, 0.0, 0.0, 0.0, 0.0, 0.0, 0.0, 1.687804711793127E9, 0.0, 2023-06-26 13:38:31.793
125.0, 52477.62679787002, 50111.1805571533, 21766.285212789204, -26999.543845599157, -3505.2899724590748, -14364.952071303376, 22086.183379433558, 6583.661625821785, 0.042, 0.914, 0.37, 192.0, 0.0, 0.0, 0.0, 0.0, 0.0, 0.0, 0.0, 0.0, 0.0, 1.6878047117961433E9, 0.0, 2023-06-26 13:38:31.796
99.0, 52506.54995519519, 50140.50604587866, 21789.06164038916, -27061.525232973723, -3414.452482992707, -14436.723522749367, 22072.459408338, 6519.646229701785, 0.042, 0.914, 0.37, 192.0, 0.0, 0.0, 0.0, 0.0, 0.0, 0.0, 0.0, 0.0, 0.0, 1.68780471180013E9, 0.0, 2023-06-26 13:38:31.800
114.0, 52446.93785273288, 50134.582833598004, 21833.429853132948, -26893.104838502986, -3421.6944481962264, -14204.511249603183, 22210.25791290497, 6689.899467217859, 0.042, 0.914, 0.37, 192.0, 0.0, 0.0, 0.0, 0.0, 0.0, 0.0, 0.0, 0.0, 0.0, 1.687804711803131E9, 0.0, 2023-06-26 13:38:31.803
140.0, 52463.58990235208, 50118.44487410127, 21809.40172784349, -26991.608976317522, -3388.233886746632, -14337.682943067903, 22133.882002101185, 6585.360358400388, 0.042, 0.914, 0.37, 192.0, 0.0, 0.0, 0.0, 0.0, 0.0, 0.0, 0.0, 0.0, 0.0, 1.6878047118071337E9, 0.0, 2023-06-26 13:38:31.807
119.0, 52482.208905483356, 50142.94238602429, 21822.16457392747, -26972.364124341504, -3374.6887296067157, -14306.725776997302, 22148.969429608518, 6603.8005475760165, 0.042, 0.914, 0.37, 192.0, 0.0, 0.0, 0.0, 0.0, 0.0, 0.0, 0.0, 0.0, 0.0, 1.6878047118101344E9, 0.0, 2023-06-26 13:38:31.810
138.0, 52437.818340995116, 50089.566420265015, 21765.435846499902, -26947.061949618095, -3530.659202415848, -14304.758823485236, 22124.315455474312, 6637.1940537922455, 0.042, 0.914, 0.37, 192.0, 0.0, 0.0, 0.0, 0.0, 0.0, 0.0, 0.0, 0.0, 0.0, 1.6878047118141575E9, 0.0, 2023-06-26 13:38:31.814
104.0, 52484.57819039562, 50119.607164812944, 21767.603965712067, -27029.942218058375, -3494.3376176759743, -14404.268789800262, 22074.493417083435, 6557.1301051533355, 0.042, 0.914, 0.37, 192.0, 0.0, 0.0, 0.0, 0.0, 0.0, 0.0, 0.0, 0.0, 0.0, 1.687804711817186E9, 0.0, 2023-06-26 13:38:31.817
136.0, 52476.79978332517, 50128.74902829517, 21816.576637813647, -26999.029755476688, -3381.0142732875674, -14356.234890965807, 22126.595333408754, 6570.9881867156255, 0.042, 0.914, 0.37, 192.0, 0.0, 0.0, 0.0, 0.0, 0.0, 0.0, 0.0, 0.0, 0.0, 1.6878047118201911E9, 0.0, 2023-06-26 13:38:31.820
108.0, 52486.120460763035, 50117.77432176761, 21764.050038343674, -27030.478659925302, -3484.368739648907, -14412.985970137832, 22070.42539959257, 6550.469285305654, 0.042, 0.914, 0.37, 192.0, 0.0, 0.0, 0.0, 0.0, 0.0, 0.0, 0.0, 0.0, 0.0, 1.687804711824212E9, 0.0, 2023-06-26 13:38:31.824
109.0, 52450.98351847929, 50120.00949621314, 21784.434829286914, -26923.927894106855, -3503.6806468582927, -14266.425581744383, 22154.020923855416, 6658.875245913893, 0.042, 0.914, 0.37, 192.0, 0.0, 0.0, 0.0, 0.0, 0.0, 0.0, 0.0, 0.0, 0.0, 1.6878047118272097E9, 0.0, 2023-06-26 13:38:31.827
134.0, 52436.499588072256, 50100.85405121494, 21784.814808942654, -26923.99494934022, -3517.3375627204855, -14268.325480023084, 22146.46603422952, 6658.987004636169, 0.042, 0.914, 0.37, 192.0, 0.0, 0.0, 0.0, 0.0, 0.0, 0.0, 0.0, 0.0, 0.0, 1.687804711830228E9, 0.0, 2023-06-26 13:38:31.830
129.0, 52490.590809654095, 50119.96479272423, 21767.983945367807, -27012.239636449773, -3501.937210790779, -14388.689623914914, 22063.742228000432, 6562.852151733894, 0.042, 0.914, 0.37, 192.0, 0.0, 0.0, 0.0, 0.0, 0.0, 0.0, 0.0, 0.0, 0.0, 1.6878047118342564E9, 0.0, 2023-06-26 13:38:31.834
132.0, 52488.489745675295, 50134.515778364635, 21805.289006863717, -27016.620578363014, -3395.9452385837126, -14373.959824318867, 22101.13669647416, 6556.660718519774, 0.042, 0.914, 0.37, 192.0, 0.0, 0.0, 0.0, 0.0, 0.0, 0.0, 0.0, 0.0, 0.0, 1.6878047118372736E9, 0.0, 2023-06-26 13:38:31.837
141.0, 52477.82796357012, 50097.63540001338, 21768.341573279093, -27046.97424733332, -3460.295910870542, -14430.867365702077, 22062.110550655194, 6530.844453673894, 0.046, 0.924, 0.362, 192.0, 1.0, 112.0, 28.0, 224.0, 11.0, 80.0, 0.0, 0.0, 0.0, 1.6878047118402684E9, 0.0, 2023-06-26 13:38:31.840
142.0, 52447.250777155255, 50091.28750458807, 21770.062657602153, -26964.451606804327, -3530.4803884602056, -14332.519690098727, 22109.675062856088, 6615.132882014857, 0.046, 0.924, 0.362, 192.0, 0.0, 0.0, 0.0, 0.0, 0.0, 0.0, 0.0, 0.0, 0.0, 1.6878047118443315E9, 0.0, 2023-06-26 13:38:31.844
143.0, 52429.056457168634, 50109.88415597488, 21804.439640574416, -26898.424553683348, -3467.359062118419, -14223.353770179006, 22189.20256962807, 6679.438850812776, 0.046, 0.924, 0.362, 192.0, 0.0, 0.0, 0.0, 0.0, 0.0, 0.0, 0.0, 0.0, 0.0, 1.6878047118473368E9, 0.0, 2023-06-26 13:38:31.847
144.0, 52457.77844879371, 50119.607164812944, 21810.184038899428, -26972.54293829715, -3388.4574041911847, -14305.16115488543, 22144.946115606563, 6600.201916718712, 0.046, 0.924, 0.362, 192.0, 0.0, 0.0, 0.0, 0.0, 0.0, 0.0, 0.0, 0.0, 0.0, 1.6878047118503437E9, 0.0, 2023-06-26 13:38:31.850
145.0, 52478.61027462605, 50103.6256675274, 21766.59813721158, -27053.92563985892, -3447.801285720025, -14434.220127370374, 22048.967724915474, 6515.265287788545, 0.046, 0.924, 0.362, 192.0, 0.0, 0.0, 0.0, 0.0, 0.0, 0.0, 0.0, 0.0, 0.0, 1.6878047118543541E9, 0.0, 2023-06-26 13:38:31.854
146.0, 52451.2293876683, 50091.77924296609, 21747.576802680112, -26992.30188039564, -3534.3472402509738, -14365.846141081589, 22071.386524604146, 6577.045509463014, 0.046, 0.924, 0.362, 192.0, 0.0, 0.0, 0.0, 0.0, 0.0, 0.0, 0.0, 0.0, 0.0, 1.6878047118573632E9, 0.0, 2023-06-26 13:38:31.857
147.0, 52431.112817658526, 50110.889984475376, 21789.4416200449, -26906.404126453894, -3492.9518095197454, -14231.422749927373, 22168.14722635117, 6670.609911752929, 0.046, 0.924, 0.362, 192.0, 0.0, 0.0, 0.0, 0.0, 0.0, 0.0, 0.0, 0.0, 0.0, 1.687804711860368E9, 0.0, 2023-06-26 13:38:31.860
148.0, 52463.07581222962, 50135.409848142845, 21818.45418434789, -26951.822871187076, -3397.487508951129, -14281.334195296073, 22163.29689780437, 6618.642105894341, 0.046, 0.924, 0.362, 192.0, 0.0, 0.0, 0.0, 0.0, 0.0, 0.0, 0.0, 0.0, 0.0, 1.6878047118644037E9, 0.0, 2023-06-26 13:38:31.864
149.0, 52495.709359134366, 50129.39722888437, 21787.385259555016, -27035.373691961016, -3427.9529366437123, -14413.522412004759, 22071.498283326422, 6529.346886795389, 0.046, 0.924, 0.362, 192.0, 0.0, 0.0, 0.0, 0.0, 0.0, 0.0, 0.0, 0.0, 0.0, 1.6878047118674269E9, 0.0, 2023-06-26 13:38:31.867
150.0, 52464.662786085944, 50098.998856425154, 21752.896517860478, -27011.077345738096, -3528.60284192596, -14394.590484451115, 22065.17273964557, 6559.968776699159, 0.046, 0.924, 0.362, 192.0, 0.0, 0.0, 0.0, 0.0, 0.0, 0.0, 0.0, 0.0, 0.0, 1.6878047118714464E9, 0.0, 2023-06-26 13:38:31.871
151.0, 52435.20318689385, 50108.855975729944, 21786.82646594363, -26915.61304516948, -3516.7787691091025, -14252.165168781898, 22159.25123205796, 6663.36794654941, 0.046, 0.924, 0.362, 192.0, 0.0, 0.0, 0.0, 0.0, 0.0, 0.0, 0.0, 0.0, 0.0, 1.687804711874461E9, 0.0, 2023-06-26 13:38:31.874
152.0, 52470.183666966404, 50148.66443260485, 21840.202431702906, -26916.12713529195, -3396.191107772721, -14250.444084458839, 22191.884778962707, 6656.193036579256, 0.044, 0.926, 0.36, 192.0, 1.0, 96.0, 28.0, 240.0, 11.0, 64.0, 0.0, 0.0, 0.0, 1.687804711877464E9, 0.0, 2023-06-26 13:38:31.877
153.0, 52500.58203942562, 50136.6838975768, 21810.899294722, -27018.520476641712, -3402.8519276204024, -14396.244513540807, 22093.157123703615, 6547.608262015375, 0.044, 0.926, 0.36, 192.0, 0.0, 0.0, 0.0, 0.0, 0.0, 0.0, 0.0, 0.0, 0.0, 1.687804711880464E9, 0.0, 2023-06-26 13:38:31.880
154.0, 52490.456699187365, 50117.68491478979, 21777.706954205867, -27005.40000264645, -3498.8750218004016, -14389.024900081742, 22075.901576984117, 6566.2496168911, 0.044, 0.926, 0.36, 192.0, 0.0, 0.0, 0.0, 0.0, 0.0, 0.0, 0.0, 0.0, 0.0, 1.6878047118844972E9, 0.0, 2023-06-26 13:38:31.884
155.0, 52449.75417253425, 50117.48374908969, 21797.756468982276, -26906.38177470944, -3509.425045183307, -14248.030096057666, 22163.319249548826, 6667.3689088069095, 0.044, 0.926, 0.36, 192.0, 0.0, 0.0, 0.0, 0.0, 0.0, 0.0, 0.0, 0.0, 0.0, 1.6878047118881001E9, 0.0, 2023-06-26 13:38:31.888
156.0, 52451.18468417939, 50135.007516742655, 21826.567867585167, -26915.791859125122, -3419.3698667728745, -14237.569479652582, 22189.649604517177, 6651.275652799089, 0.044, 0.926, 0.36, 192.0, 0.0, 0.0, 0.0, 0.0, 0.0, 0.0, 0.0, 0.0, 0.0, 1.6878047118905294E9, 0.0, 2023-06-26 13:38:31.890
157.0, 52495.57524866763, 50141.75774356815, 21811.547495311203, -27008.886874781478, -3399.610924674383, -14375.03270805272, 22099.37090866219, 6550.782209728028, 0.044, 0.926, 0.36, 192.0, 0.0, 0.0, 0.0, 0.0, 0.0, 0.0, 0.0, 0.0, 0.0, 1.6878047118945932E9, 0.0, 2023-06-26 13:38:31.894
158.0, 52493.049501544185, 50124.25632765965, 21779.718611206845, -27019.59336037557, -3481.418309380807, -14404.112327589075, 22059.808320976295, 6551.810389972972, 0.044, 0.926, 0.36, 192.0, 0.0, 0.0, 0.0, 0.0, 0.0, 0.0, 0.0, 0.0, 0.0, 1.6878047118975685E9, 0.0, 2023-06-26 13:38:31.897
159.0, 52451.81053302414, 50122.758760781144, 21792.682622990924, -26916.931798092344, -3518.477501687706, -14269.420715501396, 22138.508813203433, 6654.31549004501, 0.044, 0.926, 0.36, 192.0, 0.0, 0.0, 0.0, 0.0, 0.0, 0.0, 0.0, 0.0, 0.0, 1.687804711900576E9, 0.0, 2023-06-26 13:38:31.900
160.0, 52450.111800445535, 50144.35054592497, 21836.55909735669, -26884.9464517768, -3427.1929773322317, -14208.065176971577, 22203.39592735719, 6681.137583391379, 0.044, 0.926, 0.36, 192.0, 0.0, 0.0, 0.0, 0.0, 0.0, 0.0, 0.0, 0.0, 0.0, 1.6878047119046035E9, 0.0, 2023-06-26 13:38:31.904
161.0, 52488.91442881995, 50151.279586706114, 21830.03238797574, -26975.068685420596, -3381.7295291101373, -14333.257297665752, 22131.75858637793, 6581.784079287539, 0.044, 0.926, 0.36, 192.0, 0.0, 0.0, 0.0, 0.0, 0.0, 0.0, 0.0, 0.0, 0.0, 1.687804711907634E9, 0.0, 2023-06-26 13:38:31.907
162.0, 52495.39643471199, 50128.234938172696, 21787.60877699957, -27011.837305049576, -3464.118059172399, -14404.335845033627, 22060.99296343243, 6544.501369536087, 0.046, 0.928, 0.354, 192.0, 1.0, 112.0, 29.0, 0.0, 11.0, 16.0, 0.0, 0.0, 0.0, 1.6878047119116328E9, 0.0, 2023-06-26 13:38:31.911
163.0, 52457.51022786024, 50116.6790862893, 21787.720535721844, -26926.721862163766, -3526.2112052692423, -14290.766631456214, 22127.8246793538, 6638.2669375261, 0.046, 0.928, 0.354, 192.0, 0.0, 0.0, 0.0, 0.0, 0.0, 0.0, 0.0, 0.0, 0.0, 1.6878047119146295E9, 0.0, 2023-06-26 13:38:31.914
164.0, 52450.69294580138, 50140.461342389746, 21833.631018833046, -26872.83180628202, -3446.616643263894, -14200.33147339004, 22205.564046569354, 6694.593333553474, 0.046, 0.928, 0.354, 192.0, 0.0, 0.0, 0.0, 0.0, 0.0, 0.0, 0.0, 0.0, 0.0, 1.6878047119176593E9, 0.0, 2023-06-26 13:38:31.917
165.0, 52480.733690349305, 50142.29418543508, 21831.79817578771, -26962.61876375899, -3381.751880854593, -14317.365207358029, 22147.069531329817, 6602.191221975234, 0.046, 0.928, 0.354, 192.0, 0.0, 0.0, 0.0, 0.0, 0.0, 0.0, 0.0, 0.0, 0.0, 1.6878047119206743E9, 0.0, 2023-06-26 13:38:31.920
166.0, 52489.964960809346, 50119.003667712655, 21780.5903292406, -27026.92473255691, -3456.9431492022454, -14420.384397552538, 22058.08723665324, 6531.604412985374, 0.046, 0.928, 0.354, 192.0, 0.0, 0.0, 0.0, 0.0, 0.0, 0.0, 0.0, 0.0, 0.0, 1.6878047119247277E9, 0.0, 2023-06-26 13:38:31.924
167.0, 52454.47039061432, 50107.91720246282, 21773.951861137375, -26958.640153245946, -3527.082923302999, -14328.831652263601, 22109.13862098916, 6607.3097714555, 0.046, 0.928, 0.354, 192.0, 0.0, 0.0, 0.0, 0.0, 0.0, 0.0, 0.0, 0.0, 0.0, 1.6878047119277043E9, 0.0, 2023-06-26 13:38:31.927
168.0, 52436.85721598354, 50128.145531194874, 21815.99549245781, -26886.98046052223, -3466.1073644289213, -14209.473336872261, 22199.05968893286, 6685.652635771351, 0.046, 0.928, 0.354, 192.0, 0.0, 0.0, 0.0, 0.0, 0.0, 0.0, 0.0, 0.0, 0.0, 1.6878047119307294E9, 0.0, 2023-06-26 13:38:31.930
169.0, 52466.830905298106, 50141.95890926825, 21829.473594364357, -26954.37097005498, -3380.187258742721, -14291.370128556506, 22170.96354615254, 6612.920059313782, 0.046, 0.928, 0.354, 192.0, 0.0, 0.0, 0.0, 0.0, 0.0, 0.0, 0.0, 0.0, 0.0, 1.6878047119347353E9, 0.0, 2023-06-26 13:38:31.934
170.0, 52476.17393448042, 50109.99591469717, 21772.320183792137, -27050.058788068152, -3445.8790356968684, -14431.716731991379, 22062.64699252212, 6516.494633733587, 0.046, 0.928, 0.354, 192.0, 0.0, 0.0, 0.0, 0.0, 0.0, 0.0, 0.0, 0.0, 0.0, 1.687804711937766E9, 0.0, 2023-06-26 13:38:31.937
171.0, 52451.98934697978, 50094.930838934284, 21756.696314417877, -26993.888854251963, -3530.279222760108, -14365.51086491476, 22084.819923021787, 6575.503239095598, 0.046, 0.928, 0.354, 192.0, 0.0, 0.0, 0.0, 0.0, 0.0, 0.0, 0.0, 0.0, 0.0, 1.6878047119417806E9, 0.0, 2023-06-26 13:38:31.941
172.0, 52430.84459672506, 50114.46626358823, 21798.44937306039, -26903.386640952427, -3492.6165333529157, -14232.33917145004, 22181.960604424552, 6669.827600696994, 0.046, 0.92, 0.354, 192.0, 1.0, 112.0, 28.0, 192.0, 11.0, 16.0, 0.0, 0.0, 0.0, 1.687804711944785E9, 0.0, 2023-06-26 13:38:31.944
173.0, 52454.04570746967, 50133.55465335306, 21817.8506872476, -26948.738330452245, -3404.5283084545504, -14279.948387139844, 22168.81777868483, 6620.653762895318, 0.046, 0.92, 0.354, 192.0, 0.0, 0.0, 0.0, 0.0, 0.0, 0.0, 0.0, 0.0, 0.0, 1.6878047119477985E9, 0.0, 2023-06-26 13:38:31.947
174.0, 52487.95330380837, 50127.60908932795, 21782.51257926376, -27036.603037906058, -3437.3630210593965, -14417.366912051071, 22072.437056593546, 6528.586927483908, 0.046, 0.92, 0.354, 192.0, 0.0, 0.0, 0.0, 0.0, 0.0, 0.0, 0.0, 0.0, 0.0, 1.6878047119518263E9, 0.0, 2023-06-26 13:38:31.951
175.0, 52469.46841114383, 50107.09018791797, 21755.10934056155, -27002.6730898229, -3528.8710628594235, -14387.683795414425, 22074.091085683238, 6566.517837824565, 0.046, 0.92, 0.354, 192.0, 0.0, 0.0, 0.0, 0.0, 0.0, 0.0, 0.0, 0.0, 0.0, 1.6878047119548278E9, 0.0, 2023-06-26 13:38:31.954
176.0, 52448.99421322277, 50126.31268814954, 21801.735079495324, -26890.400277423894, -3505.2676207146196, -14234.663752873392, 22181.222996857527, 6681.852839213949, 0.046, 0.92, 0.354, 192.0, 0.0, 0.0, 0.0, 0.0, 0.0, 0.0, 0.0, 0.0, 0.0, 1.6878047119578538E9, 0.0, 2023-06-26 13:38:31.957
177.0, 52465.713318075344, 50148.61972911593, 21833.22868743285, -26912.41674571237, -3408.9539538567014, -14241.212813998798, 22196.600997042777, 6655.969519134703, 0.046, 0.92, 0.354, 192.0, 0.0, 0.0, 0.0, 0.0, 0.0, 0.0, 0.0, 0.0, 0.0, 1.6878047119618807E9, 0.0, 2023-06-26 13:38:31.961
178.0, 52490.389643954, 50132.16884519683, 21792.92849217993, -27018.989863275274, -3421.6720964517713, -14395.506905973782, 22091.592501591746, 6542.668526490752, 0.046, 0.92, 0.354, 192.0, 0.0, 0.0, 0.0, 0.0, 0.0, 0.0, 0.0, 0.0, 0.0, 1.687804711964873E9, 0.0, 2023-06-26 13:38:31.964
179.0, 52483.30414096167, 50115.360333366436, 21767.559262223156, -26998.96270024332, -3505.0664550145216, -14395.126926318042, 22073.867568238686, 6564.662643034773, 0.046, 0.92, 0.354, 192.0, 0.0, 0.0, 0.0, 0.0, 0.0, 0.0, 0.0, 0.0, 0.0, 1.6878047119678955E9, 0.0, 2023-06-26 13:38:31.967
180.0, 52453.97865223631, 50126.402095127356, 21802.40563182898, -26883.672402342847, -3512.5319376625944, -14239.9611163093, 22169.19775834057, 6684.244475870666, 0.046, 0.92, 0.354, 192.0, 0.0, 0.0, 0.0, 0.0, 0.0, 0.0, 0.0, 0.0, 0.0, 1.6878047119709003E9, 0.0, 2023-06-26 13:38:31.970
181.0, 52449.39654462296, 50140.86367378994, 21832.133451954538, -26885.37113492145, -3422.186186574243, -14219.732787577248, 22204.24529364649, 6678.634188012385, 0.046, 0.92, 0.354, 192.0, 0.0, 0.0, 0.0, 0.0, 0.0, 0.0, 0.0, 0.0, 0.0, 1.687804711974949E9, 0.0, 2023-06-26 13:38:31.974
182.0, 52476.889190302994, 50131.1853684408, 21803.344405096104, -26995.9228629974, -3402.1813752867433, -14366.337879459606, 22111.172629734592, 6562.8297999894385, 0.044, 0.918, 0.354, 192.0, 1.0, 96.0, 28.0, 176.0, 11.0, 16.0, 0.0, 0.0, 0.0, 1.6878047119779391E9, 0.0, 2023-06-26 13:38:31.977
183.0, 52477.447983914375, 50109.79474899707, 21766.084047089105, -27011.502028882747, -3490.247248440653, -14401.56422872117, 22065.664478023587, 6555.029041174536, 0.044, 0.918, 0.354, 192.0, 0.0, 0.0, 0.0, 0.0, 0.0, 0.0, 0.0, 0.0, 0.0, 1.687804711980957E9, 0.0, 2023-06-26 13:38:31.980
184.0, 52441.95341371935, 50107.29135361807, 21778.489265261804, -26918.56347543758, -3531.195644282776, -14277.735564438768, 22143.113272561226, 6656.193036579256, 0.044, 0.918, 0.354, 192.0, 0.0, 0.0, 0.0, 0.0, 0.0, 0.0, 0.0, 0.0, 0.0, 1.687804711984954E9, 0.0, 2023-06-26 13:38:31.984
185.0, 52440.85817824104, 50132.839397530486, 21819.70588203739, -26883.31477443156, -3442.973308917679, -14213.630761340948, 22202.457154090065, 6686.2114293827335, 0.044, 0.918, 0.354, 192.0, 0.0, 0.0, 0.0, 0.0, 0.0, 0.0, 0.0, 0.0, 0.0, 1.6878047119879637E9, 0.0, 2023-06-26 13:38:31.987
186.0, 52480.37606243802, 50140.595452856476, 21815.436698846424, -26972.118255152494, -3388.993846058112, -14328.965762730333, 22133.837298612274, 6587.170849701268, 0.044, 0.918, 0.354, 192.0, 0.0, 0.0, 0.0, 0.0, 0.0, 0.0, 0.0, 0.0, 0.0, 1.6878047119909923E9, 0.0, 2023-06-26 13:38:31.990
187.0, 52483.99704503978, 50113.41573159883, 21765.815826155642, -27024.421337177915, -3478.6243413238935, -14420.13852836353, 22053.482777295445, 6533.146683352791, 0.044, 0.918, 0.354, 192.0, 0.0, 0.0, 0.0, 0.0, 0.0, 0.0, 0.0, 0.0, 0.0, 1.687804711994012E9, 0.0, 2023-06-26 13:38:31.994
188.0, 52443.80860850914, 50100.54112679257, 21762.6865819319, -26940.736405937245, -3540.1586938093537, -14315.442957334872, 22117.967560049005, 6623.000696063125, 0.044, 0.918, 0.354, 192.0, 0.0, 0.0, 0.0, 0.0, 0.0, 0.0, 0.0, 0.0, 0.0, 1.687804711998045E9, 0.0, 2023-06-26 13:38:31.998
189.0, 52436.05255318315, 50125.64213581588, 21810.02757668824, -26875.670477827847, -3457.0102044356117, -14210.166240950375, 22207.083965192316, 6688.111327661434, 0.044, 0.918, 0.354, 192.0, 0.0, 0.0, 0.0, 0.0, 0.0, 0.0, 0.0, 0.0, 0.0, 1.687804712001141E9, 0.0, 2023-06-26 13:38:32.001
190.0, 52466.36151866455, 50133.91228126434, 21810.45225983289, -26960.271830591184, -3392.212497259676, -14315.64412303497, 22152.076322087803, 6595.239829449633, 0.044, 0.918, 0.354, 192.0, 0.0, 0.0, 0.0, 0.0, 0.0, 0.0, 0.0, 0.0, 0.0, 1.687804712004135E9, 0.0, 2023-06-26 13:38:32.004
191.0, 52487.461565430356, 50117.170824667315, 21777.59519548359, -27024.220171477817, -3452.2492828666313, -14424.273601087762, 22064.770408245375, 6527.514043750053, 0.044, 0.918, 0.354, 192.0, 0.0, 0.0, 0.0, 0.0, 0.0, 0.0, 0.0, 0.0, 0.0, 1.6878047120083168E9, 0.0, 2023-06-26 13:38:32.008
192.0, 52449.50830334525, 50100.675237259304, 21760.607869697556, -26959.824795702076, -3534.5931094399825, -14343.472044881826, 22101.94135927455, 6603.39821617582, 0.042, 0.918, 0.356, 192.0, 1.0, 80.0, 28.0, 176.0, 11.0, 32.0, 0.0, 0.0, 0.0, 1.6878047120111225E9, 0.0, 2023-06-26 13:38:32.011
193.0, 52436.87956772799, 50126.51385384963, 21809.491134821314, -26874.59759409399, -3481.9323995032787, -14221.09624398902, 22195.706927264564, 6683.953903192748, 0.042, 0.918, 0.356, 192.0, 0.0, 0.0, 0.0, 0.0, 0.0, 0.0, 0.0, 0.0, 0.0, 1.6878047120141315E9, 0.0, 2023-06-26 13:38:32.014
194.0, 52470.13896347749, 50145.71400233675, 21828.75833854179, -26935.819022157077, -3392.212497259676, -14290.409003544928, 22173.757514209454, 6615.02112329258, 0.042, 0.918, 0.356, 192.0, 0.0, 0.0, 0.0, 0.0, 0.0, 0.0, 0.0, 0.0, 0.0, 1.6878047120181394E9, 0.0, 2023-06-26 13:38:32.018
195.0, 52487.21569624134, 50120.56828982452, 21785.77593395423, -27022.29792145466, -3439.128808871366, -14429.638019757036, 22078.427324107568, 6529.928032151227, 0.042, 0.918, 0.356, 192.0, 0.0, 0.0, 0.0, 0.0, 0.0, 0.0, 0.0, 0.0, 0.0, 1.68780471202113E9, 0.0, 2023-06-26 13:38:32.021
196.0, 52453.263396413735, 50094.10382438944, 21752.67300041592, -26987.96564197131, -3539.5328449646054, -14389.471934970848, 22077.17562641807, 6567.389555858321, 0.042, 0.918, 0.356, 192.0, 0.0, 0.0, 0.0, 0.0, 0.0, 0.0, 0.0, 0.0, 0.0, 1.687804712024159E9, 0.0, 2023-06-26 13:38:32.024
197.0, 52435.00202119375, 50116.76849326712, 21801.690376006412, -26885.61700411046, -3509.2462312276643, -14244.38676171145, 22174.696287476574, 6669.849952441448, 0.042, 0.918, 0.356, 192.0, 0.0, 0.0, 0.0, 0.0, 0.0, 0.0, 0.0, 0.0, 0.0, 1.6878047120271795E9, 0.0, 2023-06-26 13:38:32.027
198.0, 52462.13703896249, 50141.62363310142, 21834.7039025669, -26907.27584448765, -3405.869413121869, -14268.504293978727, 22185.738049237498, 6634.936527602259, 0.042, 0.918, 0.356, 192.0, 0.0, 0.0, 0.0, 0.0, 0.0, 0.0, 0.0, 0.0, 0.0, 1.687804712031184E9, 0.0, 2023-06-26 13:38:32.031
199.0, 52500.738501636806, 50136.21451094324, 21805.177248141437, -27005.511761368725, -3424.130788341855, -14409.879077658545, 22089.223216679482, 6537.929956666227, 0.042, 0.918, 0.356, 192.0, 0.0, 0.0, 0.0, 0.0, 0.0, 0.0, 0.0, 0.0, 0.0, 1.6878047120342004E9, 0.0, 2023-06-26 13:38:32.034
200.0, 52487.39451019699, 50119.45070260176, 21778.15398909497, -26977.750894755234, -3517.985763309689, -14393.383490250528, 22076.393315362136, 6569.714137281673, 0.042, 0.918, 0.356, 192.0, 0.0, 0.0, 0.0, 0.0, 0.0, 0.0, 0.0, 0.0, 0.0, 1.6878047120372326E9, 0.0, 2023-06-26 13:38:32.037
201.0, 52451.13998069048, 50124.099865448465, 21806.607759786577, -26872.094198714996, -3519.88566158839, -14251.91929959289, 22161.06172335884, 6665.580769250485, 0.042, 0.918, 0.356, 192.0, 0.0, 0.0, 0.0, 0.0, 0.0, 0.0, 0.0, 0.0, 0.0, 1.68780471204125E9, 0.0, 2023-06-26 13:38:32.041
202.0, 52464.64043434148, 50145.57989187001, 21837.60962934609, -26886.242852955205, -3423.43788426374, -14250.77936062567, 22186.520360293434, 6647.095876585946, 0.042, 0.918, 0.356, 192.0, 0.0, 0.0, 0.0, 0.0, 0.0, 0.0, 0.0, 0.0, 0.0, 1.68780471204426E9, 0.0, 2023-06-26 13:38:32.044
203.0, 52501.498460948285, 50142.1824267128, 21812.598027300603, -26985.998688459244, -3416.7994161605143, -14392.109440816575, 22103.438926153056, 6549.642270760807, 0.042, 0.924, 0.354, 192.0, 1.0, 80.0, 28.0, 224.0, 11.0, 16.0, 0.0, 0.0, 0.0, 1.6878047120472596E9, 0.0, 2023-06-26 13:38:32.047
204.0, 52498.34686498009, 50126.960888738744, 21781.64086123, -26977.86265347751, -3506.7875393375803, -14401.117193832064, 22067.854948980206, 6558.359451098377, 0.042, 0.924, 0.354, 192.0, 0.0, 0.0, 0.0, 0.0, 0.0, 0.0, 0.0, 0.0, 0.0, 1.6878047120512955E9, 0.0, 2023-06-26 13:38:32.051
205.0, 52457.39846913797, 50123.98810672619, 21798.807000971676, -26881.146655219396, -3533.564929195038, -14265.084477077065, 22147.203641796546, 6661.780972693083, 0.042, 0.924, 0.354, 192.0, 0.0, 0.0, 0.0, 0.0, 0.0, 0.0, 0.0, 0.0, 0.0, 1.6878047120543075E9, 0.0, 2023-06-26 13:38:32.054
206.0, 52457.599634838065, 50146.049278503575, 21830.501774609304, -26865.20986142276, -3442.325108328475, -14228.315857448086, 22200.289034877904, 6669.067641385513, 0.042, 0.924, 0.354, 192.0, 0.0, 0.0, 0.0, 0.0, 0.0, 0.0, 0.0, 0.0, 0.0, 1.687804712057306E9, 0.0, 2023-06-26 13:38:32.057
207.0, 52486.746309607784, 50142.74122032419, 21811.011053444276, -26966.932650438866, -3415.8159394044806, -14367.343707960095, 22119.286312971868, 6558.96294819867, 0.042, 0.924, 0.354, 192.0, 0.0, 0.0, 0.0, 0.0, 0.0, 0.0, 0.0, 0.0, 0.0, 1.6878047120613358E9, 0.0, 2023-06-26 13:38:32.061
208.0, 52491.19430675439, 50123.09403694797, 21768.967422123842, -26992.413639117916, -3506.809891082036, -14419.892659174522, 22066.290326868337, 6537.840549688405, 0.042, 0.924, 0.354, 192.0, 0.0, 0.0, 0.0, 0.0, 0.0, 0.0, 0.0, 0.0, 0.0, 1.6878047120643442E9, 0.0, 2023-06-26 13:38:32.064
209.0, 52461.82411454012, 50126.91618524983, 21780.232701329318, -26892.12136174695, -3552.5639119820494, -14287.011538387722, 22136.273638757903, 6645.128923073879, 0.042, 0.924, 0.354, 192.0, 0.0, 0.0, 0.0, 0.0, 0.0, 0.0, 0.0, 0.0, 0.0, 1.6878047120673602E9, 0.0, 2023-06-26 13:38:32.067
210.0, 52461.95822500685, 50154.7888105856, 21829.428890875446, -26843.528669301115, -3458.060736425011, -14199.772679778658, 22205.809915758364, 6690.055929429046, 0.042, 0.924, 0.354, 192.0, 0.0, 0.0, 0.0, 0.0, 0.0, 0.0, 0.0, 0.0, 0.0, 1.6878047120713885E9, 0.0, 2023-06-26 13:38:32.071
211.0, 52490.47905093182, 50155.16879024134, 21821.091690193618, -26941.384606526448, -3404.5953636879167, -14321.813204504635, 22146.421330740613, 6586.813221789983, 0.042, 0.924, 0.354, 192.0, 0.0, 0.0, 0.0, 0.0, 0.0, 0.0, 0.0, 0.0, 0.0, 1.687804712074401E9, 0.0, 2023-06-26 13:38:32.074
212.0, 52498.32451323563, 50129.486635862195, 21776.67877396092, -26999.20856943233, -3484.1899256932647, -14417.501022517805, 22074.113437427695, 6530.822101929439, 0.042, 0.924, 0.354, 192.0, 0.0, 0.0, 0.0, 0.0, 0.0, 0.0, 0.0, 0.0, 0.0, 1.6878047120774193E9, 0.0, 2023-06-26 13:38:32.077
213.0, 52463.32168141862, 50119.71892353522, 21771.694334947388, -26914.18253352434, -3553.8379614160017, -14312.291361366673, 22121.23091473948, 6620.340838472944, 0.046, 0.922, 0.358, 192.0, 1.0, 112.0, 28.0, 208.0, 11.0, 48.0, 0.0, 0.0, 0.0, 1.687804712081438E9, 0.0, 2023-06-26 13:38:32.081
214.0, 52441.104047430046, 50134.15815045335, 21807.50182956479, -26862.30413464357, -3482.0441582255553, -14212.691988073826, 22199.68553777761, 6683.819792726015, 0.046, 0.922, 0.358, 192.0, 0.0, 0.0, 0.0, 0.0, 0.0, 0.0, 0.0, 0.0, 0.0, 1.6878047120844436E9, 0.0, 2023-06-26 13:38:32.084
215.0, 52463.76871630773, 50137.15328421036, 21808.37354759855, -26949.028903130165, -3414.005448103601, -14325.814166762135, 22147.024827840905, 6589.54013461353, 0.046, 0.922, 0.358, 192.0, 0.0, 0.0, 0.0, 0.0, 0.0, 0.0, 0.0, 0.0, 0.0, 1.6878047120874586E9, 0.0, 2023-06-26 13:38:32.087
216.0, 52483.2370857283, 50117.14847292286, 21765.435846499902, -27022.610845877036, -3479.540762846561, -14439.830415228656, 22051.538175527832, 6514.661790688252, 0.046, 0.922, 0.358, 192.0, 0.0, 0.0, 0.0, 0.0, 0.0, 0.0, 0.0, 0.0, 0.0, 1.6878047120904684E9, 0.0, 2023-06-26 13:38:32.090
217.0, 52458.650166827465, 50109.23595538568, 21753.656477171957, -26956.695551478333, -3556.0731358615326, -14353.239757208796, 22088.820885279285, 6586.120317711869, 0.046, 0.922, 0.358, 192.0, 0.0, 0.0, 0.0, 0.0, 0.0, 0.0, 0.0, 0.0, 0.0, 1.6878047120944943E9, 0.0, 2023-06-26 13:38:32.094
218.0, 52444.4791608428, 50131.81121728554, 21802.629149273533, -26869.12141670244, -3500.0373125120777, -14229.09816850402, 22194.544636552888, 6678.455374056742, 0.046, 0.922, 0.358, 192.0, 0.0, 0.0, 0.0, 0.0, 0.0, 0.0, 0.0, 0.0, 0.0, 1.6878047120975115E9, 0.0, 2023-06-26 13:38:32.097
219.0, 52463.545198863176, 50139.23199644471, 21816.308416880183, -26933.494440733724, -3410.9209073687684, -14296.935712925877, 22174.562177009844, 6608.0250272780695, 0.046, 0.922, 0.358, 192.0, 0.0, 0.0, 0.0, 0.0, 0.0, 0.0, 0.0, 0.0, 0.0, 1.6878047121005344E9, 0.0, 2023-06-26 13:38:32.100
220.0, 52491.19430675439, 50126.35739163845, 21779.60685248457, -27020.085098753585, -3450.192922376743, -14434.220127370374, 22076.438018851044, 6519.690933190695, 0.046, 0.922, 0.358, 192.0, 0.0, 0.0, 0.0, 0.0, 0.0, 0.0, 0.0, 0.0, 0.0, 1.6878047121045587E9, 0.0, 2023-06-26 13:38:32.104
221.0, 52471.70358558936, 50114.75683626614, 21760.429055741915, -26971.067723163098, -3539.3316792645073, -14382.721708145345, 22090.541969602345, 6577.850172263405, 0.046, 0.922, 0.358, 192.0, 0.0, 0.0, 0.0, 0.0, 0.0, 0.0, 0.0, 0.0, 0.0, 1.6878047121075523E9, 0.0, 2023-06-26 13:38:32.107
222.0, 52441.39462010797, 50128.212586428235, 21797.667062004457, -26874.865815027457, -3515.258850486142, -14244.811444856101, 22183.39111606969, 6670.296987330555, 0.046, 0.922, 0.358, 192.0, 0.0, 0.0, 0.0, 0.0, 0.0, 0.0, 0.0, 0.0, 0.0, 1.687804712111594E9, 0.0, 2023-06-26 13:38:32.111
223.0, 52456.839675526586, 50146.339851181496, 21821.717539038367, -26912.170876523363, -3421.0462476070225, -14275.925073137889, 22186.408601571155, 6632.567242689996, 0.044, 0.92, 0.356, 192.0, 1.0, 96.0, 28.0, 192.0, 11.0, 32.0, 0.0, 0.0, 0.0, 1.687804712114598E9, 0.0, 2023-06-26 13:38:32.114
224.0, 52492.31189397716, 50142.405944157355, 21794.761335225267, -27003.231883434284, -3432.1327128568546, -14418.171574851463, 22093.447696381536, 6535.404209542777, 0.044, 0.92, 0.356, 192.0, 0.0, 0.0, 0.0, 0.0, 0.0, 0.0, 0.0, 0.0, 0.0, 1.6878047121176107E9, 0.0, 2023-06-26 13:38:32.117
225.0, 52476.97859728082, 50120.948269480265, 21761.703105175868, -26981.617746546002, -3524.735990135192, -14407.42038576846, 22073.487588582946, 6556.593663286408, 0.044, 0.92, 0.356, 192.0, 0.0, 0.0, 0.0, 0.0, 0.0, 0.0, 0.0, 0.0, 0.0, 1.6878047121216457E9, 0.0, 2023-06-26 13:38:32.121
226.0, 52449.19537892287, 50133.48759811969, 21799.7457742388, -26868.56262309106, -3523.283126745597, -14257.015497328699, 22171.20941534155, 6669.17940010779, 0.044, 0.92, 0.356, 192.0, 0.0, 0.0, 0.0, 0.0, 0.0, 0.0, 0.0, 0.0, 0.0, 1.6878047121247883E9, 0.0, 2023-06-26 13:38:32.124
227.0, 52460.259492428246, 50153.15713324036, 21831.574658343157, -26875.804588294577, -3427.8411779214357, -14251.405209470417, 22198.143267410192, 6654.918987145304, 0.044, 0.92, 0.356, 192.0, 0.0, 0.0, 0.0, 0.0, 0.0, 0.0, 0.0, 0.0, 0.0, 1.6878047121276658E9, 0.0, 2023-06-26 13:38:32.127
228.0, 52486.76866135224, 50138.293223177585, 21803.88084696303, -26983.33883086906, -3419.280459795053, -14400.916028131966, 22100.264978440402, 6542.780285213028, 0.044, 0.92, 0.356, 192.0, 0.0, 0.0, 0.0, 0.0, 0.0, 0.0, 0.0, 0.0, 0.0, 1.6878047121316805E9, 0.0, 2023-06-26 13:38:32.131
229.0, 52477.42563216992, 50112.45460658725, 21770.442637257893, -26987.786828015665, -3507.3686846934183, -14418.752720207302, 22061.909384955095, 6542.981450913126, 0.044, 0.92, 0.356, 192.0, 0.0, 0.0, 0.0, 0.0, 0.0, 0.0, 0.0, 0.0, 0.0, 1.6878047121347027E9, 0.0, 2023-06-26 13:38:32.134
230.0, 52439.94175671837, 50110.532356564094, 21781.394992040994, -26898.245739727707, -3542.7514961661695, -14288.464401777317, 22142.3756649942, 6641.9549753612255, 0.044, 0.92, 0.356, 192.0, 0.0, 0.0, 0.0, 0.0, 0.0, 0.0, 0.0, 0.0, 0.0, 1.687804712138723E9, 0.0, 2023-06-26 13:38:32.138
231.0, 52442.19928290836, 50134.76164755364, 21818.83416400363, -26874.821111538546, -3452.2492828666313, -14240.430502942861, 22199.81964824434, 6661.490400015164, 0.044, 0.92, 0.356, 192.0, 0.0, 0.0, 0.0, 0.0, 0.0, 0.0, 0.0, 0.0, 0.0, 1.6878047121417255E9, 0.0, 2023-06-26 13:38:32.141
232.0, 52479.34788219308, 50140.170769711825, 21816.17430641345, -26965.122159137984, -3407.501090467106, -14361.196978234886, 22130.372778221703, 6569.043584948014, 0.044, 0.92, 0.356, 192.0, 0.0, 0.0, 0.0, 0.0, 0.0, 0.0, 0.0, 0.0, 0.0, 1.687804712144754E9, 0.0, 2023-06-26 13:38:32.144
233.0, 52483.8405828286, 50120.4788828467, 21781.46204727436, -26993.73239204078, -3486.693321072259, -14421.501984775305, 22075.432190350555, 6545.149570125291, 0.04, 0.928, 0.356, 192.0, 1.0, 64.0, 29.0, 0.0, 11.0, 32.0, 0.0, 0.0, 0.0, 1.6878047121487648E9, 0.0, 2023-06-26 13:38:32.148
234.0, 52445.55204457665, 50112.074626931506, 21783.987794397806, -26901.576149651548, -3544.0702490890326, -14300.10966063853, 22136.295990502356, 6642.849045139438, 0.04, 0.928, 0.356, 192.0, 0.0, 0.0, 0.0, 0.0, 0.0, 0.0, 0.0, 0.0, 0.0, 1.6878047121518135E9, 0.0, 2023-06-26 13:38:32.151
235.0, 52444.389753864976, 50138.74025806669, 21833.47455662186, -26850.569468804537, -3452.53985554455, -14211.507345617694, 22221.16556419916, 6694.70509227575, 0.04, 0.928, 0.356, 192.0, 0.0, 0.0, 0.0, 0.0, 0.0, 0.0, 0.0, 0.0, 0.0, 1.6878047121548347E9, 0.0, 2023-06-26 13:38:32.154
236.0, 52472.66471060094, 50139.16494121134, 21821.874001249555, -26950.817042686587, -3400.996732830612, -14332.743207543279, 22157.753665179454, 6589.8307072914495, 0.04, 0.928, 0.356, 192.0, 0.0, 0.0, 0.0, 0.0, 0.0, 0.0, 0.0, 0.0, 0.0, 1.6878047121578195E9, 0.0, 2023-06-26 13:38:32.157
237.0, 52486.52279216323, 50119.6295165574, 21781.283233318714, -27006.785810802678, -3477.126774445388, -14428.766301723279, 22076.773295017876, 6532.364372296855, 0.04, 0.928, 0.356, 192.0, 0.0, 0.0, 0.0, 0.0, 0.0, 0.0, 0.0, 0.0, 0.0, 1.6878047121618433E9, 0.0, 2023-06-26 13:38:32.161
238.0, 52461.08650697309, 50116.09794093346, 21780.433867029413, -26923.212638284283, -3544.4055252558624, -14324.651876050459, 22126.70709213103, 6621.369018717888, 0.04, 0.928, 0.356, 192.0, 0.0, 0.0, 0.0, 0.0, 0.0, 0.0, 0.0, 0.0, 0.0, 1.6878047121648622E9, 0.0, 2023-06-26 13:38:32.164
239.0, 52444.099181187055, 50130.470112618226, 21822.298684394205, -26859.6889805423, -3483.608780337427, -14220.604505611003, 22215.935255996617, 6687.284313116588, 0.04, 0.928, 0.356, 192.0, 0.0, 0.0, 0.0, 0.0, 0.0, 0.0, 0.0, 0.0, 0.0, 1.6878047121688745E9, 0.0, 2023-06-26 13:38:32.168
240.0, 52476.21863796934, 50144.4846563917, 21833.765129299776, -26927.794745897623, -3400.3038287524973, -14309.698559009857, 22178.071400889326, 6605.566335387985, 0.04, 0.928, 0.356, 192.0, 0.0, 0.0, 0.0, 0.0, 0.0, 0.0, 0.0, 0.0, 0.0, 1.6878047121718972E9, 0.0, 2023-06-26 13:38:32.171
241.0, 52489.62968464252, 50122.08820844749, 21783.07137287514, -27012.798430061153, -3463.0675271829996, -14440.724485006867, 22080.08135319726, 6522.52960473652, 0.04, 0.928, 0.356, 192.0, 0.0, 0.0, 0.0, 0.0, 0.0, 0.0, 0.0, 0.0, 0.0, 1.6878047121749086E9, 0.0, 2023-06-26 13:38:32.174
242.0, 52452.92812024691, 50098.663580258326, 21756.852776629064, -26963.535185281657, -3558.308310307063, -14376.932606331422, 22096.219312693993, 6578.319558896967, 0.04, 0.928, 0.356, 192.0, 0.0, 0.0, 0.0, 0.0, 0.0, 0.0, 0.0, 0.0, 0.0, 1.687804712178926E9, 0.0, 2023-06-26 13:38:32.178
243.0, 52429.61525078002, 50114.9803537107, 21796.21419861486, -26882.063076742063, -3521.0479523000663, -14256.814331628602, 22182.00530791346, 6659.724612203195, 0.04, 0.928, 0.356, 192.0, 0.0, 0.0, 0.0, 0.0, 0.0, 0.0, 0.0, 0.0, 0.0, 1.6878047121819496E9, 0.0, 2023-06-26 13:38:32.181
244.0, 52459.18660869439, 50137.041525488086, 21821.27050414926, -26925.961902852287, -3420.7556749291034, -14310.346759599062, 22175.791522954885, 6607.801509833516, 0.04, 0.922, 0.358, 192.0, 1.0, 64.0, 28.0, 208.0, 11.0, 48.0, 0.0, 0.0, 0.0, 1.6878047121849597E9, 0.0, 2023-06-26 13:38:32.184
245.0, 52487.238047985804, 50123.00462997015, 21790.98389041232, -27012.35139517205, -3444.87320719638, -14438.7575314948, 22087.300966656323, 6521.479072747121, 0.04, 0.922, 0.358, 192.0, 0.0, 0.0, 0.0, 0.0, 0.0, 0.0, 0.0, 0.0, 0.0, 1.6878047121879683E9, 0.0, 2023-06-26 13:38:32.187
246.0, 52461.175913950916, 50100.92110644831, 21762.55247146517, -26979.583737800567, -3535.2413100291865, -14403.08414734413, 22090.273748668882, 6566.495486080109, 0.04, 0.922, 0.358, 192.0, 0.0, 0.0, 0.0, 0.0, 0.0, 0.0, 0.0, 0.0, 0.0, 1.6878047121919985E9, 0.0, 2023-06-26 13:38:32.191
247.0, 52427.84946296805, 50110.21943214172, 21791.69914623489, -26879.336163918517, -3522.456112200751, -14266.693802677848, 22183.167598625136, 6667.100687873446, 0.04, 0.922, 0.358, 192.0, 0.0, 0.0, 0.0, 0.0, 0.0, 0.0, 0.0, 0.0, 0.0, 1.6878047121950397E9, 0.0, 2023-06-26 13:38:32.195
248.0, 52449.46359985633, 50134.62753708691, 21823.483326850335, -26899.251568228196, -3423.39318077483, -14271.745296924746, 22194.119953408237, 6640.211539293711, 0.04, 0.922, 0.358, 192.0, 0.0, 0.0, 0.0, 0.0, 0.0, 0.0, 0.0, 0.0, 0.0, 1.6878047121990075E9, 0.0, 2023-06-26 13:38:32.199
249.0, 52487.81919334164, 50130.09013296248, 21798.27055910475, -26989.19498791635, -3430.0763523669666, -14411.220182325862, 22107.350481432735, 6544.031982902526, 0.04, 0.922, 0.358, 192.0, 0.0, 0.0, 0.0, 0.0, 0.0, 0.0, 0.0, 0.0, 0.0, 1.6878047122020128E9, 0.0, 2023-06-26 13:38:32.202
250.0, 52467.881437287506, 50101.63636227088, 21758.037419085198, -26985.86457799251, -3534.41429548434, -14426.173499366463, 22079.388449119146, 6546.736543981618, 0.04, 0.922, 0.358, 192.0, 0.0, 0.0, 0.0, 0.0, 0.0, 0.0, 0.0, 0.0, 0.0, 1.687804712205058E9, 0.0, 2023-06-26 13:38:32.205
251.0, 52446.42376261041, 50119.271888646115, 21795.990681170308, -26871.334239403517, -3531.665030916337, -14274.561616726116, 22186.14038063769, 6666.184266350779, 0.04, 0.922, 0.358, 192.0, 0.0, 0.0, 0.0, 0.0, 0.0, 0.0, 0.0, 0.0, 0.0, 1.687804712209126E9, 0.0, 2023-06-26 13:38:32.209
252.0, 52452.346974891065, 50138.33792666649, 21827.93132399694, -26873.7929312936, -3433.160893101799, -14252.902776348923, 22223.870125278252, 6662.6750424712955, 0.04, 0.922, 0.358, 192.0, 0.0, 0.0, 0.0, 0.0, 0.0, 0.0, 0.0, 0.0, 0.0, 1.6878047122121224E9, 0.0, 2023-06-26 13:38:32.212
253.0, 52480.06313801565, 50127.094999205474, 21797.667062004457, -26984.05408669163, -3428.6905442107377, -14400.580751965137, 22121.81206009532, 6547.407096315276, 0.04, 0.922, 0.358, 192.0, 0.0, 0.0, 0.0, 0.0, 0.0, 0.0, 0.0, 0.0, 0.0, 1.6878047122151203E9, 0.0, 2023-06-26 13:38:32.215
254.0, 52472.977635023315, 50101.85987971543, 21757.098645818074, -27000.90730201093, -3526.8594058584463, -14440.277450117763, 22071.677097282067, 6533.660773475262, 0.038, 0.924, 0.366, 192.0, 1.0, 48.0, 28.0, 224.0, 11.0, 112.0, 0.0, 0.0, 0.0, 1.687804712219132E9, 0.0, 2023-06-26 13:38:32.219
255.0, 52442.13222767499, 50107.98425769619, 21773.281308803715, -26900.905597317887, -3564.790316199102, -14303.529477540193, 22148.701208675055, 6635.852949124926, 0.038, 0.924, 0.366, 192.0, 0.0, 0.0, 0.0, 0.0, 0.0, 0.0, 0.0, 0.0, 0.0, 1.687804712222116E9, 0.0, 2023-06-26 13:38:32.222
0.0, 52449.28478590069, 50141.78009531261, 21822.008111716284, -26865.9921724787, -3466.8896754848574, -14239.379970953461, 22204.334700624313, 6668.151219862845, 0.038, 0.924, 0.366, 192.0, 0.0, 0.0, 0.0, 0.0, 0.0, 0.0, 0.0, 0.0, 0.0, 1.6878047122261412E9, 0.0, 2023-06-26 13:38:32.226
1.0, 52487.64037938599, 50146.83158955951, 21814.721443023856, -26964.89864169343, -3419.7274946841594, -14372.596367907092, 22137.838260869776, 6566.987224458126, 0.038, 0.924, 0.366, 192.0, 0.0, 0.0, 0.0, 0.0, 0.0, 0.0, 0.0, 0.0, 0.0, 1.68780471222915E9, 0.0, 2023-06-26 13:38:32.229
2.0, 52499.01741731375, 50128.74902829517, 21777.97517513933, -27005.042374735163, -3498.830318311491, -14444.300764119716, 22082.875321254174, 6531.470302518643, 0.038, 0.924, 0.366, 192.0, 0.0, 0.0, 0.0, 0.0, 0.0, 0.0, 0.0, 0.0, 0.0, 1.6878047122321856E9, 0.0, 2023-06-26 13:38:32.232
3.0, 52468.6861000879, 50127.56438583903, 21784.613643242556, -26905.219483997764, -3553.2344643157085, -14319.175698658908, 22143.4261969836, 6625.861719353405, 0.038, 0.924, 0.366, 192.0, 0.0, 0.0, 0.0, 0.0, 0.0, 0.0, 0.0, 0.0, 0.0, 1.6878047122361999E9, 0.0, 2023-06-26 13:38:32.236
4.0, 52453.553969091656, 50143.054144746566, 21819.951751226396, -26862.12532068793, -3482.9829314926783, -14235.468415673784, 22204.11118317976, 6668.821772196505, 0.038, 0.924, 0.366, 192.0, 0.0, 0.0, 0.0, 0.0, 0.0, 0.0, 0.0, 0.0, 0.0, 1.6878047122392144E9, 0.0, 2023-06-26 13:38:32.239
5.0, 52475.92806529142, 50138.96377551124, 21806.98773944232, -26958.081359634565, -3433.540872757539, -14354.737324087302, 22132.80911836733, 6568.976529714648, 0.038, 0.924, 0.366, 192.0, 0.0, 0.0, 0.0, 0.0, 0.0, 0.0, 0.0, 0.0, 0.0, 1.6878047122432287E9, 0.0, 2023-06-26 13:38:32.243
6.0, 52491.88721083251, 50121.082379946994, 21773.303660548172, -27012.73137482779, -3491.7224635747034, -14451.252156645318, 22065.396257090124, 6518.014552356548, 0.038, 0.924, 0.366, 192.0, 0.0, 0.0, 0.0, 0.0, 0.0, 0.0, 0.0, 0.0, 0.0, 1.687804712246256E9, 0.0, 2023-06-26 13:38:32.246
7.0, 52471.70358558936, 50124.14456893737, 21778.533968750715, -26926.632455185947, -3551.89335964839, -14346.578937361115, 22122.41555719561, 6611.288381968544, 0.038, 0.924, 0.366, 192.0, 0.0, 0.0, 0.0, 0.0, 0.0, 0.0, 0.0, 0.0, 0.0, 1.6878047122502573E9, 0.0, 2023-06-26 13:38:32.250
8.0, 52432.52097755921, 50120.6800485468, 21800.863361461565, -26874.70935281627, -3506.116987003921, -14253.238052515753, 22197.91974996564, 6663.9043884163375, 0.04, 0.924, 0.366, 192.0, 1.0, 64.0, 28.0, 224.0, 11.0, 112.0, 0.0, 0.0, 0.0, 1.6878047122532759E9, 0.0, 2023-06-26 13:38:32.253
9.0, 52458.85133252756, 50130.805388785055, 21809.669948776955, -26943.99976062772, -3425.5836517314497, -14332.229117420808, 22164.280374560403, 6588.7131200686845, 0.04, 0.924, 0.366, 192.0, 0.0, 0.0, 0.0, 0.0, 0.0, 0.0, 0.0, 0.0, 0.0, 1.6878047122573075E9, 0.0, 2023-06-26 13:38:32.257
10.0, 52489.87555383153, 50121.68587704729, 21779.02570712873, -27016.888799296477, -3472.1423354318545, -14450.313383378194, 22076.84035025124, 6513.074816831925, 0.04, 0.924, 0.366, 192.0, 0.0, 0.0, 0.0, 0.0, 0.0, 0.0, 0.0, 0.0, 0.0, 1.687804712262327E9, 0.0, 2023-06-26 13:38:32.262
11.0, 52448.6812888004, 50089.49936503165, 21750.102549803563, -26974.934574953866, -3567.383118555918, -14396.356272263083, 22083.836446265752, 6560.862846477372, 0.04, 0.924, 0.366, 192.0, 0.0, 0.0, 0.0, 0.0, 0.0, 0.0, 0.0, 0.0, 0.0, 1.6878047122653377E9, 0.0, 2023-06-26 13:38:32.265
12.0, 52430.41991358041, 50109.906507719345, 21797.60000677109, -26876.966879006253, -3522.992554067678, -14257.730753151269, 22189.49314230599, 6665.133734361379, 0.04, 0.924, 0.366, 192.0, 0.0, 0.0, 0.0, 0.0, 0.0, 0.0, 0.0, 0.0, 0.0, 1.6878047122693572E9, 0.0, 2023-06-26 13:38:32.269
13.0, 52453.129285947005, 50127.89966200587, 21820.577600071145, -26922.56443769508, -3424.1978435752208, -14305.496431052261, 22190.54367429539, 6616.518690171086, 0.04, 0.924, 0.366, 192.0, 0.0, 0.0, 0.0, 0.0, 0.0, 0.0, 0.0, 0.0, 0.0, 1.6878047122743795E9, 0.0, 2023-06-26 13:38:32.274
