%OpenBCI Raw EEG Data
%Number of channels = 8
%Sample Rate = 250 Hz
%Board = OpenBCI_GUI$BoardCytonSerial
Sample Index, EXG Channel 0, EXG Channel 1, EXG Channel 2, EXG Channel 3, EXG Channel 4, EXG Channel 5, EXG Channel 6, EXG Channel 7, Accel Channel 0, Accel Channel 1, Accel Channel 2, Other, Other, Other, Other, Other, Other, Other, Analog Channel 0, Analog Channel 1, Analog Channel 2, Timestamp, Other, Timestamp (Formatted)
137.0, -52879.46645968753, -30773.18886198865, 187500.0, 187500.0, 187500.0, 187500.0, 187500.0, 187500.0, 0.0, 0.0, 0.0, 192.0, 0.0, 0.0, 0.0, 0.0, 0.0, 0.0, 0.0, 0.0, 0.0, 1.6820969285654655E9, 0.0, 2023-04-21 12:08:48.565
138.0, -52903.60634369926, -30761.90123103872, 187500.0, 187500.0, 187500.0, 187500.0, 187500.0, 187500.0, 0.0, 0.0, 0.0, 192.0, 0.0, 0.0, 0.0, 0.0, 0.0, 0.0, 0.0, 0.0, 0.0, 1.682096928565486E9, 0.0, 2023-04-21 12:08:48.565
139.0, -52902.913439621145, -30733.13453592474, 187500.0, 187500.0, 187500.0, 187500.0, 187500.0, 187500.0, 0.036000000000000004, 0.982, 0.038, 192.0, 1.0, 32.0, 30.0, 176.0, 1.0, 48.0, 0.0, 0.0, 0.0, 1.6820969285654955E9, 0.0, 2023-04-21 12:08:48.565
140.0, -52898.06311107435, -30713.688518248622, 187500.0, 187500.0, 187500.0, 187500.0, 187500.0, 187500.0, 0.036000000000000004, 0.982, 0.038, 192.0, 0.0, 0.0, 0.0, 0.0, 0.0, 0.0, 0.0, 0.0, 0.0, 1.682096928565508E9, 0.0, 2023-04-21 12:08:48.565
141.0, -52888.6306749142, -30726.518419565968, 187500.0, 187500.0, 187500.0, 187500.0, 187500.0, 187500.0, 0.036000000000000004, 0.982, 0.038, 192.0, 0.0, 0.0, 0.0, 0.0, 0.0, 0.0, 0.0, 0.0, 0.0, 1.6820969285655184E9, 0.0, 2023-04-21 12:08:48.565
142.0, -52917.397370028186, -30726.18314339914, 187500.0, 187500.0, 187500.0, 187500.0, 187500.0, 187500.0, 0.036000000000000004, 0.982, 0.038, 192.0, 0.0, 0.0, 0.0, 0.0, 0.0, 0.0, 0.0, 0.0, 0.0, 1.682096928565528E9, 0.0, 2023-04-21 12:08:48.565
143.0, -52907.96493386805, -30706.088925133816, 187500.0, 187500.0, 187500.0, 187500.0, 187500.0, 187500.0, 0.036000000000000004, 0.982, 0.038, 192.0, 0.0, 0.0, 0.0, 0.0, 0.0, 0.0, 0.0, 0.0, 0.0, 1.6820969285655377E9, 0.0, 2023-04-21 12:08:48.565
144.0, -52900.36534075324, -30710.715736236067, 187500.0, 187500.0, 187500.0, 187500.0, 187500.0, 187500.0, 0.036000000000000004, 0.982, 0.038, 192.0, 0.0, 0.0, 0.0, 0.0, 0.0, 0.0, 0.0, 0.0, 0.0, 1.6820969285655475E9, 0.0, 2023-04-21 12:08:48.565
145.0, -52865.36250893623, -30705.84305594481, 187500.0, 187500.0, 187500.0, 187500.0, 187500.0, 187500.0, 0.036000000000000004, 0.982, 0.038, 192.0, 0.0, 0.0, 0.0, 0.0, 0.0, 0.0, 0.0, 0.0, 0.0, 1.6820969285655572E9, 0.0, 2023-04-21 12:08:48.565
146.0, -52865.720136847514, -30668.292125259894, 187500.0, 187500.0, 187500.0, 187500.0, 187500.0, 187500.0, 0.036000000000000004, 0.982, 0.038, 192.0, 0.0, 0.0, 0.0, 0.0, 0.0, 0.0, 0.0, 0.0, 0.0, 1.682096928565567E9, 0.0, 2023-04-21 12:08:48.565
147.0, -52902.75697740996, -30644.95690404855, 187500.0, 187500.0, 187500.0, 187500.0, 187500.0, 187500.0, 0.036000000000000004, 0.982, 0.038, 192.0, 0.0, 0.0, 0.0, 0.0, 0.0, 0.0, 0.0, 0.0, 0.0, 1.6820969285655766E9, 0.0, 2023-04-21 12:08:48.565
148.0, -52916.57035548334, -30659.418482711135, 187500.0, 187500.0, 187500.0, 187500.0, 187500.0, 187500.0, 0.036000000000000004, 0.982, 0.038, 192.0, 0.0, 0.0, 0.0, 0.0, 0.0, 0.0, 0.0, 0.0, 0.0, 1.6820969285655863E9, 0.0, 2023-04-21 12:08:48.565
149.0, -52892.162250538146, -30670.6390584277, 187500.0, 187500.0, 187500.0, 187500.0, 187500.0, 187500.0, 0.034, 0.974, 0.032, 192.0, 1.0, 16.0, 30.0, 112.0, 1.0, 0.0, 0.0, 0.0, 0.0, 1.6820969285655959E9, 0.0, 2023-04-21 12:08:48.565
150.0, -52901.460576231555, -30652.422386696624, 187500.0, 187500.0, 187500.0, 187500.0, 187500.0, 187500.0, 0.034, 0.974, 0.032, 192.0, 0.0, 0.0, 0.0, 0.0, 0.0, 0.0, 0.0, 0.0, 0.0, 1.682096928565606E9, 0.0, 2023-04-21 12:08:48.565
151.0, -52905.21566930004, -30620.9287787591, 187500.0, 187500.0, 187500.0, 187500.0, 187500.0, 187500.0, 0.034, 0.974, 0.032, 192.0, 0.0, 0.0, 0.0, 0.0, 0.0, 0.0, 0.0, 0.0, 0.0, 1.682096928565616E9, 0.0, 2023-04-21 12:08:48.565
152.0, -52914.20107057108, -30639.123098745717, 187500.0, 187500.0, 187500.0, 187500.0, 187500.0, 187500.0, 0.034, 0.974, 0.032, 192.0, 0.0, 0.0, 0.0, 0.0, 0.0, 0.0, 0.0, 0.0, 0.0, 1.6820969285656257E9, 0.0, 2023-04-21 12:08:48.565
153.0, -52912.99407637049, -30650.902468073666, 187500.0, 187500.0, 187500.0, 187500.0, 187500.0, 187500.0, 0.034, 0.974, 0.032, 192.0, 0.0, 0.0, 0.0, 0.0, 0.0, 0.0, 0.0, 0.0, 0.0, 1.68209692856578E9, 0.0, 2023-04-21 12:08:48.565
154.0, -52893.95039009457, -30626.67317708411, 187500.0, 187500.0, 187500.0, 187500.0, 187500.0, 187500.0, 0.034, 0.974, 0.032, 192.0, 0.0, 0.0, 0.0, 0.0, 0.0, 0.0, 0.0, 0.0, 0.0, 1.6820969285657904E9, 0.0, 2023-04-21 12:08:48.565
155.0, -52889.0330063144, -30602.734458772477, 187500.0, 187500.0, 187500.0, 187500.0, 187500.0, 187500.0, 0.034, 0.974, 0.032, 192.0, 0.0, 0.0, 0.0, 0.0, 0.0, 0.0, 0.0, 0.0, 0.0, 1.6820969285658E9, 0.0, 2023-04-21 12:08:48.565
156.0, -52900.79002389789, -30620.749964803454, 187500.0, 187500.0, 187500.0, 187500.0, 187500.0, 187500.0, 0.034, 0.974, 0.032, 192.0, 0.0, 0.0, 0.0, 0.0, 0.0, 0.0, 0.0, 0.0, 0.0, 1.6820969285658095E9, 0.0, 2023-04-21 12:08:48.565
157.0, -52912.41293101465, -30619.699432814057, 187500.0, 187500.0, 187500.0, 187500.0, 187500.0, 187500.0, 0.034, 0.974, 0.032, 192.0, 0.0, 0.0, 0.0, 0.0, 0.0, 0.0, 0.0, 0.0, 0.0, 1.6820969285658193E9, 0.0, 2023-04-21 12:08:48.565
158.0, -52905.72975942252, -30605.72959252949, 187500.0, 187500.0, 187500.0, 187500.0, 187500.0, 187500.0, 0.034, 0.974, 0.032, 192.0, 0.0, 0.0, 0.0, 0.0, 0.0, 0.0, 0.0, 0.0, 0.0, 1.682096928565829E9, 0.0, 2023-04-21 12:08:48.565
159.0, -52937.312774337865, -30603.315604128315, 187500.0, 187500.0, 187500.0, 187500.0, 187500.0, 187500.0, 0.036000000000000004, 0.974, 0.026000000000000002, 192.0, 1.0, 32.0, 30.0, 112.0, 0.0, 208.0, 0.0, 0.0, 0.0, 1.682096928565841E9, 0.0, 2023-04-21 12:08:48.565
160.0, -52958.7480972705, -30602.220368650007, 187500.0, 187500.0, 187500.0, 187500.0, 187500.0, 187500.0, 0.036000000000000004, 0.974, 0.026000000000000002, 192.0, 0.0, 0.0, 0.0, 0.0, 0.0, 0.0, 0.0, 0.0, 0.0, 1.682096928565852E9, 0.0, 2023-04-21 12:08:48.565
161.0, -52950.321489610855, -30604.9249297291, 187500.0, 187500.0, 187500.0, 187500.0, 187500.0, 187500.0, 0.036000000000000004, 0.974, 0.026000000000000002, 192.0, 0.0, 0.0, 0.0, 0.0, 0.0, 0.0, 0.0, 0.0, 0.0, 1.682096928565862E9, 0.0, 2023-04-21 12:08:48.565
162.0, -52934.49645453649, -30614.714993800524, 187500.0, 187500.0, 187500.0, 187500.0, 187500.0, 187500.0, 0.036000000000000004, 0.974, 0.026000000000000002, 192.0, 0.0, 0.0, 0.0, 0.0, 0.0, 0.0, 0.0, 0.0, 0.0, 1.6820969285658717E9, 0.0, 2023-04-21 12:08:48.565
163.0, -52966.57120782986, -30601.259243638426, 187500.0, 187500.0, 187500.0, 187500.0, 187500.0, 187500.0, 0.036000000000000004, 0.974, 0.026000000000000002, 192.0, 0.0, 0.0, 0.0, 0.0, 0.0, 0.0, 0.0, 0.0, 0.0, 1.6820969285658815E9, 0.0, 2023-04-21 12:08:48.565
164.0, -52986.531315628454, -30599.515807570915, 187500.0, 187500.0, 187500.0, 187500.0, 187500.0, 187500.0, 0.036000000000000004, 0.974, 0.026000000000000002, 192.0, 0.0, 0.0, 0.0, 0.0, 0.0, 0.0, 0.0, 0.0, 0.0, 1.6820969285658913E9, 0.0, 2023-04-21 12:08:48.565
165.0, -52968.13582994173, -30605.886054740677, 187500.0, 187500.0, 187500.0, 187500.0, 187500.0, 187500.0, 0.036000000000000004, 0.974, 0.026000000000000002, 192.0, 0.0, 0.0, 0.0, 0.0, 0.0, 0.0, 0.0, 0.0, 0.0, 1.682096928565901E9, 0.0, 2023-04-21 12:08:48.565
166.0, -52938.18449237162, -30601.460409338524, 187500.0, 187500.0, 187500.0, 187500.0, 187500.0, 187500.0, 0.036000000000000004, 0.974, 0.026000000000000002, 192.0, 0.0, 0.0, 0.0, 0.0, 0.0, 0.0, 0.0, 0.0, 0.0, 1.6820969285659108E9, 0.0, 2023-04-21 12:08:48.565
167.0, -52973.99198698902, -30593.480836567982, 187500.0, 187500.0, 187500.0, 187500.0, 187500.0, 187500.0, 0.036000000000000004, 0.974, 0.026000000000000002, 192.0, 0.0, 0.0, 0.0, 0.0, 0.0, 0.0, 0.0, 0.0, 0.0, 1.6820969285659204E9, 0.0, 2023-04-21 12:08:48.565
168.0, -52997.10369075581, -30581.29913583984, 187500.0, 187500.0, 187500.0, 187500.0, 187500.0, 187500.0, 0.036000000000000004, 0.974, 0.026000000000000002, 192.0, 0.0, 0.0, 0.0, 0.0, 0.0, 0.0, 0.0, 0.0, 0.0, 1.682096928565977E9, 0.0, 2023-04-21 12:08:48.565
169.0, -52999.51767915698, -30594.307851112826, 187500.0, 187500.0, 187500.0, 187500.0, 187500.0, 187500.0, 0.036000000000000004, 0.974, 0.026000000000000002, 192.0, 0.0, 0.0, 0.0, 0.0, 0.0, 0.0, 0.0, 0.0, 0.0, 1.682096928565987E9, 0.0, 2023-04-21 12:08:48.565
170.0, -52973.455545122095, -30596.38656334717, 187500.0, 187500.0, 187500.0, 187500.0, 187500.0, 187500.0, 0.038, 0.978, 0.016, 192.0, 1.0, 48.0, 30.0, 144.0, 0.0, 128.0, 0.0, 0.0, 0.0, 1.682096928565997E9, 0.0, 2023-04-21 12:08:48.565
171.0, -52999.07064426788, -30572.00081014643, 187500.0, 187500.0, 187500.0, 187500.0, 187500.0, 187500.0, 0.038, 0.978, 0.016, 192.0, 0.0, 0.0, 0.0, 0.0, 0.0, 0.0, 0.0, 0.0, 0.0, 1.6820969285660071E9, 0.0, 2023-04-21 12:08:48.566
172.0, -53023.07641781288, -30562.255449563916, 187500.0, 187500.0, 187500.0, 187500.0, 187500.0, 187500.0, 0.038, 0.978, 0.016, 192.0, 0.0, 0.0, 0.0, 0.0, 0.0, 0.0, 0.0, 0.0, 0.0, 1.682096928566017E9, 0.0, 2023-04-21 12:08:48.566
173.0, -53008.972467061576, -30562.635429219656, 187500.0, 187500.0, 187500.0, 187500.0, 187500.0, 187500.0, 0.038, 0.978, 0.016, 192.0, 0.0, 0.0, 0.0, 0.0, 0.0, 0.0, 0.0, 0.0, 0.0, 1.6820969285660267E9, 0.0, 2023-04-21 12:08:48.566
174.0, -52974.662539322686, -30559.305019295814, 187500.0, 187500.0, 187500.0, 187500.0, 187500.0, 187500.0, 0.038, 0.978, 0.016, 192.0, 0.0, 0.0, 0.0, 0.0, 0.0, 0.0, 0.0, 0.0, 0.0, 1.6820969285660365E9, 0.0, 2023-04-21 12:08:48.566
175.0, -52990.48757439704, -30556.935734383555, 187500.0, 187500.0, 187500.0, 187500.0, 187500.0, 187500.0, 0.038, 0.978, 0.016, 192.0, 0.0, 0.0, 0.0, 0.0, 0.0, 0.0, 0.0, 0.0, 0.0, 1.682096928566046E9, 0.0, 2023-04-21 12:08:48.566
176.0, -53032.017115595, -30558.410949517605, 187500.0, 187500.0, 187500.0, 187500.0, 187500.0, 187500.0, 0.038, 0.978, 0.016, 192.0, 0.0, 0.0, 0.0, 0.0, 0.0, 0.0, 0.0, 0.0, 0.0, 1.6820969285660567E9, 0.0, 2023-04-21 12:08:48.566
177.0, -53034.900490629734, -30569.34095255625, 187500.0, 187500.0, 187500.0, 187500.0, 187500.0, 187500.0, 0.038, 0.978, 0.016, 192.0, 0.0, 0.0, 0.0, 0.0, 0.0, 0.0, 0.0, 0.0, 0.0, 1.6820969285660665E9, 0.0, 2023-04-21 12:08:48.566
178.0, -53024.8645573693, -30588.85402546573, 187500.0, 187500.0, 187500.0, 187500.0, 187500.0, 187500.0, 0.038, 0.978, 0.016, 192.0, 0.0, 0.0, 0.0, 0.0, 0.0, 0.0, 0.0, 0.0, 0.0, 1.6820969285660765E9, 0.0, 2023-04-21 12:08:48.566
179.0, -53019.56719393339, -30577.43228404907, 187500.0, 187500.0, 187500.0, 187500.0, 187500.0, 187500.0, 0.038, 0.978, 0.016, 192.0, 0.0, 0.0, 0.0, 0.0, 0.0, 0.0, 0.0, 0.0, 0.0, 1.6820969285660865E9, 0.0, 2023-04-21 12:08:48.566
180.0, -53046.94808089115, -30557.092196594742, 187500.0, 187500.0, 187500.0, 187500.0, 187500.0, 187500.0, 0.056, 0.99, 0.01, 192.0, 1.0, 192.0, 30.0, 240.0, 0.0, 80.0, 0.0, 0.0, 0.0, 1.6820969285660994E9, 0.0, 2023-04-21 12:08:48.566
181.0, -53064.4271450552, -30569.676228723078, 187500.0, 187500.0, 187500.0, 187500.0, 187500.0, 187500.0, 0.056, 0.99, 0.01, 192.0, 0.0, 0.0, 0.0, 0.0, 0.0, 0.0, 0.0, 0.0, 0.0, 1.6820969285661108E9, 0.0, 2023-04-21 12:08:48.566
182.0, -53056.872255429305, -30584.495435296947, 187500.0, 187500.0, 187500.0, 187500.0, 187500.0, 187500.0, 0.056, 0.99, 0.01, 192.0, 0.0, 0.0, 0.0, 0.0, 0.0, 0.0, 0.0, 0.0, 0.0, 1.6820969285661204E9, 0.0, 2023-04-21 12:08:48.566
183.0, -53043.59531922285, -30584.696600997046, 187500.0, 187500.0, 187500.0, 187500.0, 187500.0, 187500.0, 0.056, 0.99, 0.01, 192.0, 0.0, 0.0, 0.0, 0.0, 0.0, 0.0, 0.0, 0.0, 0.0, 1.6820969285661466E9, 0.0, 2023-04-21 12:08:48.566
184.0, -53092.90326749126, -30581.790874217855, 187500.0, 187500.0, 187500.0, 187500.0, 187500.0, 187500.0, 0.056, 0.99, 0.01, 192.0, 0.0, 0.0, 0.0, 0.0, 0.0, 0.0, 0.0, 0.0, 0.0, 1.6820969285661564E9, 0.0, 2023-04-21 12:08:48.566
185.0, -53102.73803505159, -30571.084388623764, 187500.0, 187500.0, 187500.0, 187500.0, 187500.0, 187500.0, 0.056, 0.99, 0.01, 192.0, 0.0, 0.0, 0.0, 0.0, 0.0, 0.0, 0.0, 0.0, 0.0, 1.682096928566166E9, 0.0, 2023-04-21 12:08:48.566
186.0, -53086.24244764358, -30575.6664962371, 187500.0, 187500.0, 187500.0, 187500.0, 187500.0, 187500.0, 0.056, 0.99, 0.01, 192.0, 0.0, 0.0, 0.0, 0.0, 0.0, 0.0, 0.0, 0.0, 0.0, 1.682096928566176E9, 0.0, 2023-04-21 12:08:48.566
187.0, -53082.39794759726, -30599.068772681807, 187500.0, 187500.0, 187500.0, 187500.0, 187500.0, 187500.0, 0.056, 0.99, 0.01, 192.0, 0.0, 0.0, 0.0, 0.0, 0.0, 0.0, 0.0, 0.0, 0.0, 1.6820969285661857E9, 0.0, 2023-04-21 12:08:48.566
188.0, -53119.211270715154, -30586.104760897728, 187500.0, 187500.0, 187500.0, 187500.0, 187500.0, 187500.0, 0.056, 0.99, 0.01, 192.0, 0.0, 0.0, 0.0, 0.0, 0.0, 0.0, 0.0, 0.0, 0.0, 1.682096928566196E9, 0.0, 2023-04-21 12:08:48.566
189.0, -53140.57953841443, -30583.221385862995, 187500.0, 187500.0, 187500.0, 187500.0, 187500.0, 187500.0, 0.056, 0.99, 0.01, 192.0, 0.0, 0.0, 0.0, 0.0, 0.0, 0.0, 0.0, 0.0, 0.0, 1.6820969285662055E9, 0.0, 2023-04-21 12:08:48.566
190.0, -53135.66215463426, -30594.039630179363, 187500.0, 187500.0, 187500.0, 187500.0, 187500.0, 187500.0, 0.052000000000000005, 1.008, 0.014, 192.0, 1.0, 160.0, 31.0, 128.0, 0.0, 112.0, 0.0, 0.0, 0.0, 1.6820969285662155E9, 0.0, 2023-04-21 12:08:48.566
191.0, -53110.85171828887, -30596.63243253618, 187500.0, 187500.0, 187500.0, 187500.0, 187500.0, 187500.0, 0.052000000000000005, 1.008, 0.014, 192.0, 0.0, 0.0, 0.0, 0.0, 0.0, 0.0, 0.0, 0.0, 0.0, 1.6820969285662265E9, 0.0, 2023-04-21 12:08:48.566
192.0, -53139.68546863621, -30581.388542817658, 187500.0, 187500.0, 187500.0, 187500.0, 187500.0, 187500.0, 0.052000000000000005, 1.008, 0.014, 192.0, 0.0, 0.0, 0.0, 0.0, 0.0, 0.0, 0.0, 0.0, 0.0, 1.682096928566236E9, 0.0, 2023-04-21 12:08:48.566
193.0, -53163.80300090349, -30578.102836382728, 187500.0, 187500.0, 187500.0, 187500.0, 187500.0, 187500.0, 0.052000000000000005, 1.008, 0.014, 192.0, 0.0, 0.0, 0.0, 0.0, 0.0, 0.0, 0.0, 0.0, 0.0, 1.6820969285662453E9, 0.0, 2023-04-21 12:08:48.566
194.0, -53175.224742320155, -30598.53233081488, 187500.0, 187500.0, 187500.0, 187500.0, 187500.0, 187500.0, 0.052000000000000005, 1.008, 0.014, 192.0, 0.0, 0.0, 0.0, 0.0, 0.0, 0.0, 0.0, 0.0, 0.0, 1.6820969285662549E9, 0.0, 2023-04-21 12:08:48.566
195.0, -53139.99839305859, -30594.307851112826, 187500.0, 187500.0, 187500.0, 187500.0, 187500.0, 187500.0, 0.052000000000000005, 1.008, 0.014, 192.0, 0.0, 0.0, 0.0, 0.0, 0.0, 0.0, 0.0, 0.0, 0.0, 1.6820969285662644E9, 0.0, 2023-04-21 12:08:48.566
196.0, -53159.31030026797, -30585.925946942087, 187500.0, 187500.0, 187500.0, 187500.0, 187500.0, 187500.0, 0.052000000000000005, 1.008, 0.014, 192.0, 0.0, 0.0, 0.0, 0.0, 0.0, 0.0, 0.0, 0.0, 0.0, 1.6820969285662744E9, 0.0, 2023-04-21 12:08:48.566
197.0, -53204.57258278997, -30580.941507928554, 187500.0, 187500.0, 187500.0, 187500.0, 187500.0, 187500.0, 0.052000000000000005, 1.008, 0.014, 192.0, 0.0, 0.0, 0.0, 0.0, 0.0, 0.0, 0.0, 0.0, 0.0, 1.682096928566284E9, 0.0, 2023-04-21 12:08:48.566
198.0, -53229.69594355774, -30605.707240785032, 187500.0, 187500.0, 187500.0, 187500.0, 187500.0, 187500.0, 0.052000000000000005, 1.008, 0.014, 192.0, 0.0, 0.0, 0.0, 0.0, 0.0, 0.0, 0.0, 0.0, 0.0, 1.6820969285663383E9, 0.0, 2023-04-21 12:08:48.566
199.0, -53189.01576864908, -30597.012412191918, 187500.0, 187500.0, 187500.0, 187500.0, 187500.0, 187500.0, 0.052000000000000005, 1.008, 0.014, 192.0, 0.0, 0.0, 0.0, 0.0, 0.0, 0.0, 0.0, 0.0, 0.0, 1.6820969285663488E9, 0.0, 2023-04-21 12:08:48.566
200.0, -53188.16640235978, -30576.76173171541, 187500.0, 187500.0, 187500.0, 187500.0, 187500.0, 187500.0, 0.052000000000000005, 1.012, 0.02, 192.0, 1.0, 160.0, 31.0, 160.0, 0.0, 160.0, 0.0, 0.0, 0.0, 1.6820969285663588E9, 0.0, 2023-04-21 12:08:48.566
201.0, -53221.67166729828, -30572.537252013357, 187500.0, 187500.0, 187500.0, 187500.0, 187500.0, 187500.0, 0.052000000000000005, 1.012, 0.02, 192.0, 0.0, 0.0, 0.0, 0.0, 0.0, 0.0, 0.0, 0.0, 0.0, 1.682096928566373E9, 0.0, 2023-04-21 12:08:48.566
202.0, -53219.43649285275, -30572.29138282435, 187500.0, 187500.0, 187500.0, 187500.0, 187500.0, 187500.0, 0.052000000000000005, 1.012, 0.02, 192.0, 0.0, 0.0, 0.0, 0.0, 0.0, 0.0, 0.0, 0.0, 0.0, 1.682096928566384E9, 0.0, 2023-04-21 12:08:48.566
203.0, -53203.54440254503, -30586.082409153274, 187500.0, 187500.0, 187500.0, 187500.0, 187500.0, 187500.0, 0.052000000000000005, 1.012, 0.02, 192.0, 0.0, 0.0, 0.0, 0.0, 0.0, 0.0, 0.0, 0.0, 0.0, 1.6820969285663936E9, 0.0, 2023-04-21 12:08:48.566
204.0, -53199.63284726535, -30566.167004843595, 187500.0, 187500.0, 187500.0, 187500.0, 187500.0, 187500.0, 0.052000000000000005, 1.012, 0.02, 192.0, 0.0, 0.0, 0.0, 0.0, 0.0, 0.0, 0.0, 0.0, 0.0, 1.682096928566404E9, 0.0, 2023-04-21 12:08:48.566
205.0, -53247.577339121985, -30561.361379785703, 187500.0, 187500.0, 187500.0, 187500.0, 187500.0, 187500.0, 0.052000000000000005, 1.012, 0.02, 192.0, 0.0, 0.0, 0.0, 0.0, 0.0, 0.0, 0.0, 0.0, 0.0, 1.6820969285664136E9, 0.0, 2023-04-21 12:08:48.566
206.0, -53262.68711837377, -30571.911403168608, 187500.0, 187500.0, 187500.0, 187500.0, 187500.0, 187500.0, 0.052000000000000005, 1.012, 0.02, 192.0, 0.0, 0.0, 0.0, 0.0, 0.0, 0.0, 0.0, 0.0, 0.0, 1.6820969285664234E9, 0.0, 2023-04-21 12:08:48.566
207.0, -53253.724068847194, -30587.80349347633, 187500.0, 187500.0, 187500.0, 187500.0, 187500.0, 187500.0, 0.052000000000000005, 1.012, 0.02, 192.0, 0.0, 0.0, 0.0, 0.0, 0.0, 0.0, 0.0, 0.0, 0.0, 1.6820969285664332E9, 0.0, 2023-04-21 12:08:48.566
208.0, -53261.346013706454, -30606.40014486315, 187500.0, 187500.0, 187500.0, 187500.0, 187500.0, 187500.0, 0.052000000000000005, 1.012, 0.02, 192.0, 0.0, 0.0, 0.0, 0.0, 0.0, 0.0, 0.0, 0.0, 0.0, 1.6820969285664427E9, 0.0, 2023-04-21 12:08:48.566
209.0, -53281.17201103831, -30575.08535088126, 187500.0, 187500.0, 187500.0, 187500.0, 187500.0, 187500.0, 0.052000000000000005, 1.012, 0.02, 192.0, 0.0, 0.0, 0.0, 0.0, 0.0, 0.0, 0.0, 0.0, 0.0, 1.6820969285664525E9, 0.0, 2023-04-21 12:08:48.566
210.0, -53285.01651108462, -30559.729702440465, 187500.0, 187500.0, 187500.0, 187500.0, 187500.0, 187500.0, 0.046, 0.994, 0.03, 192.0, 1.0, 112.0, 31.0, 16.0, 0.0, 240.0, 0.0, 0.0, 0.0, 1.6820969285664628E9, 0.0, 2023-04-21 12:08:48.566
211.0, -53269.102069032444, -30565.09412110974, 187500.0, 187500.0, 187500.0, 187500.0, 187500.0, 187500.0, 0.046, 0.994, 0.03, 192.0, 0.0, 0.0, 0.0, 0.0, 0.0, 0.0, 0.0, 0.0, 0.0, 1.6820969285664732E9, 0.0, 2023-04-21 12:08:48.566
212.0, -53255.17693223678, -30571.397313046138, 187500.0, 187500.0, 187500.0, 187500.0, 187500.0, 187500.0, 0.046, 0.994, 0.03, 192.0, 0.0, 0.0, 0.0, 0.0, 0.0, 0.0, 0.0, 0.0, 0.0, 1.6820969285664833E9, 0.0, 2023-04-21 12:08:48.566
213.0, -53288.324569264005, -30556.75692042791, 187500.0, 187500.0, 187500.0, 187500.0, 187500.0, 187500.0, 0.046, 0.994, 0.03, 192.0, 0.0, 0.0, 0.0, 0.0, 0.0, 0.0, 0.0, 0.0, 0.0, 1.6820969285665057E9, 0.0, 2023-04-21 12:08:48.566
214.0, -53303.2331828157, -30546.76569065639, 187500.0, 187500.0, 187500.0, 187500.0, 187500.0, 187500.0, 0.046, 0.994, 0.03, 192.0, 0.0, 0.0, 0.0, 0.0, 0.0, 0.0, 0.0, 0.0, 0.0, 1.6820969285665154E9, 0.0, 2023-04-21 12:08:48.566
215.0, -53296.90763913484, -30553.89589713763, 187500.0, 187500.0, 187500.0, 187500.0, 187500.0, 187500.0, 0.046, 0.994, 0.03, 192.0, 0.0, 0.0, 0.0, 0.0, 0.0, 0.0, 0.0, 0.0, 0.0, 1.6820969285665255E9, 0.0, 2023-04-21 12:08:48.566
216.0, -53278.71331914823, -30562.300153052827, 187500.0, 187500.0, 187500.0, 187500.0, 187500.0, 187500.0, 0.046, 0.994, 0.03, 192.0, 0.0, 0.0, 0.0, 0.0, 0.0, 0.0, 0.0, 0.0, 0.0, 1.6820969285665352E9, 0.0, 2023-04-21 12:08:48.566
217.0, -53297.26526704613, -30540.79777488682, 187500.0, 187500.0, 187500.0, 187500.0, 187500.0, 187500.0, 0.046, 0.994, 0.03, 192.0, 0.0, 0.0, 0.0, 0.0, 0.0, 0.0, 0.0, 0.0, 0.0, 1.6820969285665448E9, 0.0, 2023-04-21 12:08:48.566
218.0, -53323.17093886983, -30531.09711779322, 187500.0, 187500.0, 187500.0, 187500.0, 187500.0, 187500.0, 0.046, 0.994, 0.03, 192.0, 0.0, 0.0, 0.0, 0.0, 0.0, 0.0, 0.0, 0.0, 0.0, 1.6820969285665548E9, 0.0, 2023-04-21 12:08:48.566
219.0, -53328.535357539105, -30542.943542354533, 187500.0, 187500.0, 187500.0, 187500.0, 187500.0, 187500.0, 0.046, 0.994, 0.03, 192.0, 0.0, 0.0, 0.0, 0.0, 0.0, 0.0, 0.0, 0.0, 0.0, 1.6820969285665643E9, 0.0, 2023-04-21 12:08:48.566
220.0, -53301.91442989284, -30551.727777925465, 187500.0, 187500.0, 187500.0, 187500.0, 187500.0, 187500.0, 0.046, 0.994, 0.03, 192.0, 0.0, 0.0, 0.0, 0.0, 0.0, 0.0, 0.0, 0.0, 0.0, 1.682096928566574E9, 0.0, 2023-04-21 12:08:48.566
221.0, -53307.25649681765, -30531.208876515495, 187500.0, 187500.0, 187500.0, 187500.0, 187500.0, 187500.0, 0.05, 0.982, 0.036000000000000004, 192.0, 1.0, 144.0, 30.0, 176.0, 1.0, 32.0, 0.0, 0.0, 0.0, 1.6820969285665836E9, 0.0, 2023-04-21 12:08:48.566
222.0, -53344.13687516891, -30533.913437594587, 187500.0, 187500.0, 187500.0, 187500.0, 187500.0, 187500.0, 0.05, 0.982, 0.036000000000000004, 192.0, 0.0, 0.0, 0.0, 0.0, 0.0, 0.0, 0.0, 0.0, 0.0, 1.682096928566594E9, 0.0, 2023-04-21 12:08:48.566
223.0, -53374.93757902832, -30558.43330126206, 187500.0, 187500.0, 187500.0, 187500.0, 187500.0, 187500.0, 0.05, 0.982, 0.036000000000000004, 192.0, 0.0, 0.0, 0.0, 0.0, 0.0, 0.0, 0.0, 0.0, 0.0, 1.6820969285666058E9, 0.0, 2023-04-21 12:08:48.566
224.0, -53350.70828803877, -30562.724836197478, 187500.0, 187500.0, 187500.0, 187500.0, 187500.0, 187500.0, 0.05, 0.982, 0.036000000000000004, 192.0, 0.0, 0.0, 0.0, 0.0, 0.0, 0.0, 0.0, 0.0, 0.0, 1.6820969285666156E9, 0.0, 2023-04-21 12:08:48.566
225.0, -53349.25542464917, -30548.017388345885, 187500.0, 187500.0, 187500.0, 187500.0, 187500.0, 187500.0, 0.05, 0.982, 0.036000000000000004, 192.0, 0.0, 0.0, 0.0, 0.0, 0.0, 0.0, 0.0, 0.0, 0.0, 1.682096928566625E9, 0.0, 2023-04-21 12:08:48.566
226.0, -53388.05805302359, -30544.195240044028, 187500.0, 187500.0, 187500.0, 187500.0, 187500.0, 187500.0, 0.05, 0.982, 0.036000000000000004, 192.0, 0.0, 0.0, 0.0, 0.0, 0.0, 0.0, 0.0, 0.0, 0.0, 1.6820969285666351E9, 0.0, 2023-04-21 12:08:48.566
227.0, -53402.832556108544, -30558.723873939976, 187500.0, 187500.0, 187500.0, 187500.0, 187500.0, 187500.0, 0.05, 0.982, 0.036000000000000004, 192.0, 0.0, 0.0, 0.0, 0.0, 0.0, 0.0, 0.0, 0.0, 0.0, 1.682096928566645E9, 0.0, 2023-04-21 12:08:48.566
228.0, -53372.12125922695, -30556.220478560983, 187500.0, 187500.0, 187500.0, 187500.0, 187500.0, 187500.0, 0.05, 0.982, 0.036000000000000004, 192.0, 0.0, 0.0, 0.0, 0.0, 0.0, 0.0, 0.0, 0.0, 0.0, 1.6820969285666547E9, 0.0, 2023-04-21 12:08:48.566
229.0, -53359.2466544207, -30541.960065598498, 187500.0, 187500.0, 187500.0, 187500.0, 187500.0, 187500.0, 0.05, 0.982, 0.036000000000000004, 192.0, 0.0, 0.0, 0.0, 0.0, 0.0, 0.0, 0.0, 0.0, 0.0, 1.682096928566676E9, 0.0, 2023-04-21 12:08:48.566
230.0, -53407.77229163317, -30542.697673165523, 187500.0, 187500.0, 187500.0, 187500.0, 187500.0, 187500.0, 0.05, 0.982, 0.036000000000000004, 192.0, 0.0, 0.0, 0.0, 0.0, 0.0, 0.0, 0.0, 0.0, 0.0, 1.682096928566686E9, 0.0, 2023-04-21 12:08:48.566
231.0, -53408.86752711148, -30533.19818177202, 187500.0, 187500.0, 187500.0, 187500.0, 187500.0, 187500.0, 0.058, 0.986, 0.032, 192.0, 1.0, 208.0, 30.0, 208.0, 1.0, 0.0, 0.0, 0.0, 0.0, 1.6820969285666957E9, 0.0, 2023-04-21 12:08:48.566
232.0, -53400.105643284995, -30550.833708147256, 187500.0, 187500.0, 187500.0, 187500.0, 187500.0, 187500.0, 0.058, 0.986, 0.032, 192.0, 0.0, 0.0, 0.0, 0.0, 0.0, 0.0, 0.0, 0.0, 0.0, 1.6820969285667057E9, 0.0, 2023-04-21 12:08:48.566
233.0, -53390.09206176902, -30558.27683905087, 187500.0, 187500.0, 187500.0, 187500.0, 187500.0, 187500.0, 0.058, 0.986, 0.032, 192.0, 0.0, 0.0, 0.0, 0.0, 0.0, 0.0, 0.0, 0.0, 0.0, 1.6820969285667157E9, 0.0, 2023-04-21 12:08:48.566
234.0, -53416.958858604296, -30538.71906265248, 187500.0, 187500.0, 187500.0, 187500.0, 187500.0, 187500.0, 0.058, 0.986, 0.032, 192.0, 0.0, 0.0, 0.0, 0.0, 0.0, 0.0, 0.0, 0.0, 0.0, 1.6820969285667253E9, 0.0, 2023-04-21 12:08:48.566
235.0, -53432.49332100074, -30537.7579376409, 187500.0, 187500.0, 187500.0, 187500.0, 187500.0, 187500.0, 0.058, 0.986, 0.032, 192.0, 0.0, 0.0, 0.0, 0.0, 0.0, 0.0, 0.0, 0.0, 0.0, 1.6820969285667353E9, 0.0, 2023-04-21 12:08:48.566
236.0, -53437.36600129199, -30558.589763473246, 187500.0, 187500.0, 187500.0, 187500.0, 187500.0, 187500.0, 0.058, 0.986, 0.032, 192.0, 0.0, 0.0, 0.0, 0.0, 0.0, 0.0, 0.0, 0.0, 0.0, 1.6820969285667448E9, 0.0, 2023-04-21 12:08:48.566
237.0, -53424.62550695247, -30567.888089166652, 187500.0, 187500.0, 187500.0, 187500.0, 187500.0, 187500.0, 0.058, 0.986, 0.032, 192.0, 0.0, 0.0, 0.0, 0.0, 0.0, 0.0, 0.0, 0.0, 0.0, 1.6820969285667543E9, 0.0, 2023-04-21 12:08:48.566
238.0, -53463.69635626035, -30559.327371040272, 187500.0, 187500.0, 187500.0, 187500.0, 187500.0, 187500.0, 0.058, 0.986, 0.032, 192.0, 0.0, 0.0, 0.0, 0.0, 0.0, 0.0, 0.0, 0.0, 0.0, 1.682096928566764E9, 0.0, 2023-04-21 12:08:48.566
239.0, -53474.6710627879, -30543.636446432647, 187500.0, 187500.0, 187500.0, 187500.0, 187500.0, 187500.0, 0.058, 0.986, 0.032, 192.0, 0.0, 0.0, 0.0, 0.0, 0.0, 0.0, 0.0, 0.0, 0.0, 1.6820969285667737E9, 0.0, 2023-04-21 12:08:48.566
240.0, -53467.25028362874, -30544.150536555117, 187500.0, 187500.0, 187500.0, 187500.0, 187500.0, 187500.0, 0.058, 0.986, 0.032, 192.0, 0.0, 0.0, 0.0, 0.0, 0.0, 0.0, 0.0, 0.0, 0.0, 1.6820969285667832E9, 0.0, 2023-04-21 12:08:48.566
241.0, -53448.497170030736, -30552.7112546815, 187500.0, 187500.0, 187500.0, 187500.0, 187500.0, 187500.0, 0.062, 0.976, 0.028, 192.0, 1.0, 240.0, 30.0, 128.0, 0.0, 224.0, 0.0, 0.0, 0.0, 1.682096928566793E9, 0.0, 2023-04-21 12:08:48.566
242.0, -53460.74592599225, -30527.543190424825, 187500.0, 187500.0, 187500.0, 187500.0, 187500.0, 187500.0, 0.062, 0.976, 0.028, 192.0, 0.0, 0.0, 0.0, 0.0, 0.0, 0.0, 0.0, 0.0, 0.0, 1.6820969285668032E9, 0.0, 2023-04-21 12:08:48.566
243.0, -53495.14526070896, -30528.549018925314, 187500.0, 187500.0, 187500.0, 187500.0, 187500.0, 187500.0, 0.062, 0.976, 0.028, 192.0, 0.0, 0.0, 0.0, 0.0, 0.0, 0.0, 0.0, 0.0, 0.0, 1.682096928566813E9, 0.0, 2023-04-21 12:08:48.566
244.0, -53495.25701943124, -30539.411966730593, 187500.0, 187500.0, 187500.0, 187500.0, 187500.0, 187500.0, 0.062, 0.976, 0.028, 192.0, 0.0, 0.0, 0.0, 0.0, 0.0, 0.0, 0.0, 0.0, 0.0, 1.6820969285668342E9, 0.0, 2023-04-21 12:08:48.566
245.0, -53466.51267606171, -30549.067920335285, 187500.0, 187500.0, 187500.0, 187500.0, 187500.0, 187500.0, 0.062, 0.976, 0.028, 192.0, 0.0, 0.0, 0.0, 0.0, 0.0, 0.0, 0.0, 0.0, 0.0, 1.6820969285668445E9, 0.0, 2023-04-21 12:08:48.566
246.0, -53458.868379458, -30540.708367909, 187500.0, 187500.0, 187500.0, 187500.0, 187500.0, 187500.0, 0.062, 0.976, 0.028, 192.0, 0.0, 0.0, 0.0, 0.0, 0.0, 0.0, 0.0, 0.0, 0.0, 1.682096928566854E9, 0.0, 2023-04-21 12:08:48.566
247.0, -53493.98296999728, -30540.775423142368, 187500.0, 187500.0, 187500.0, 187500.0, 187500.0, 187500.0, 0.062, 0.976, 0.028, 192.0, 0.0, 0.0, 0.0, 0.0, 0.0, 0.0, 0.0, 0.0, 0.0, 1.6820969285668635E9, 0.0, 2023-04-21 12:08:48.566
248.0, -53518.614592387035, -30551.6607226921, 187500.0, 187500.0, 187500.0, 187500.0, 187500.0, 187500.0, 0.062, 0.976, 0.028, 192.0, 0.0, 0.0, 0.0, 0.0, 0.0, 0.0, 0.0, 0.0, 0.0, 1.6820969285668733E9, 0.0, 2023-04-21 12:08:48.566
249.0, -53497.358083410036, -30546.542173211838, 187500.0, 187500.0, 187500.0, 187500.0, 187500.0, 187500.0, 0.062, 0.976, 0.028, 192.0, 0.0, 0.0, 0.0, 0.0, 0.0, 0.0, 0.0, 0.0, 0.0, 1.6820969285668836E9, 0.0, 2023-04-21 12:08:48.566
250.0, -53519.39690344297, -30550.297266280326, 187500.0, 187500.0, 187500.0, 187500.0, 187500.0, 187500.0, 0.062, 0.976, 0.028, 192.0, 0.0, 0.0, 0.0, 0.0, 0.0, 0.0, 0.0, 0.0, 0.0, 1.682096928566893E9, 0.0, 2023-04-21 12:08:48.566
251.0, -53559.585339973615, -30544.128184810663, 187500.0, 187500.0, 187500.0, 187500.0, 187500.0, 187500.0, 0.066, 0.994, 0.02, 192.0, 2.0, 16.0, 31.0, 16.0, 0.0, 160.0, 0.0, 0.0, 0.0, 1.682096928566903E9, 0.0, 2023-04-21 12:08:48.566
252.0, -53556.05376434967, -30539.94840859752, 187500.0, 187500.0, 187500.0, 187500.0, 187500.0, 187500.0, 0.066, 0.994, 0.02, 192.0, 0.0, 0.0, 0.0, 0.0, 0.0, 0.0, 0.0, 0.0, 0.0, 1.6820969285669136E9, 0.0, 2023-04-21 12:08:48.566
253.0, -53539.82639787512, -30550.52078372488, 187500.0, 187500.0, 187500.0, 187500.0, 187500.0, 187500.0, 0.066, 0.994, 0.02, 192.0, 0.0, 0.0, 0.0, 0.0, 0.0, 0.0, 0.0, 0.0, 0.0, 1.6820969285669236E9, 0.0, 2023-04-21 12:08:48.566
254.0, -53533.97024082783, -30543.725853410466, 187500.0, 187500.0, 187500.0, 187500.0, 187500.0, 187500.0, 0.066, 0.994, 0.02, 192.0, 0.0, 0.0, 0.0, 0.0, 0.0, 0.0, 0.0, 0.0, 0.0, 1.6820969285669332E9, 0.0, 2023-04-21 12:08:48.566
255.0, -53583.971093174354, -30544.932847611053, 187500.0, 187500.0, 187500.0, 187500.0, 187500.0, 187500.0, 0.066, 0.994, 0.02, 192.0, 0.0, 0.0, 0.0, 0.0, 0.0, 0.0, 0.0, 0.0, 0.0, 1.682096928566943E9, 0.0, 2023-04-21 12:08:48.566
0.0, -53595.929276457944, -30540.95423709801, 187500.0, 187500.0, 187500.0, 187500.0, 187500.0, 187500.0, 0.066, 0.994, 0.02, 192.0, 0.0, 0.0, 0.0, 0.0, 0.0, 0.0, 0.0, 0.0, 0.0, 1.6820969285669527E9, 0.0, 2023-04-21 12:08:48.566
1.0, -53579.0984128831, -30540.12722255316, 187500.0, 187500.0, 187500.0, 187500.0, 187500.0, 187500.0, 0.066, 0.994, 0.02, 192.0, 0.0, 0.0, 0.0, 0.0, 0.0, 0.0, 0.0, 0.0, 0.0, 1.6820969285669625E9, 0.0, 2023-04-21 12:08:48.566
2.0, -53557.551331228184, -30530.203048015006, 187500.0, 187500.0, 187500.0, 187500.0, 187500.0, 187500.0, 0.066, 0.994, 0.02, 192.0, 0.0, 0.0, 0.0, 0.0, 0.0, 0.0, 0.0, 0.0, 0.0, 1.682096928566972E9, 0.0, 2023-04-21 12:08:48.566
3.0, -53594.99050319082, -30517.50725716439, 187500.0, 187500.0, 187500.0, 187500.0, 187500.0, 187500.0, 0.066, 0.994, 0.02, 192.0, 0.0, 0.0, 0.0, 0.0, 0.0, 0.0, 0.0, 0.0, 0.0, 1.6820969285670197E9, 0.0, 2023-04-21 12:08:48.567
4.0, -53613.52009934427, -30516.14380075262, 187500.0, 187500.0, 187500.0, 187500.0, 187500.0, 187500.0, 0.066, 0.994, 0.02, 192.0, 0.0, 0.0, 0.0, 0.0, 0.0, 0.0, 0.0, 0.0, 0.0, 1.6820969285670297E9, 0.0, 2023-04-21 12:08:48.567
0.0, 0.0, 0.0, 0.0, 0.0, 0.0, 0.0, 0.0, 0.0, 0.066, 0.99, 0.002, 192.0, 2.0, 16.0, 30.0, 240.0, 0.0, 16.0, 0.0, 0.0, 0.0, 1.6820969286288552E9, 0.0, 2023-04-21 12:08:48.628
1.0, -53791.57409567524, -35393.07092345606, 187500.0, 187500.0, 187500.0, 187500.0, 187500.0, 187500.0, 0.066, 0.99, 0.002, 192.0, 0.0, 0.0, 0.0, 0.0, 0.0, 0.0, 0.0, 0.0, 0.0, 1.6820969287344434E9, 0.0, 2023-04-21 12:08:48.734
2.0, -53645.95248054892, -35372.06028366808, 187500.0, 187500.0, 187500.0, 187500.0, 187500.0, 187500.0, 0.066, 0.99, 0.002, 192.0, 0.0, 0.0, 0.0, 0.0, 0.0, 0.0, 0.0, 0.0, 0.0, 1.6820969287344725E9, 0.0, 2023-04-21 12:08:48.734
3.0, -53664.54913193573, -35458.42742424338, 187500.0, 187500.0, 187500.0, 187500.0, 187500.0, 187500.0, 0.066, 0.99, 0.002, 192.0, 0.0, 0.0, 0.0, 0.0, 0.0, 0.0, 0.0, 0.0, 0.0, 1.6820969287344851E9, 0.0, 2023-04-21 12:08:48.734
4.0, -53792.6469794091, -35460.66259868891, 187500.0, 187500.0, 187500.0, 187500.0, 187500.0, 187500.0, 0.066, 0.99, 0.002, 192.0, 0.0, 0.0, 0.0, 0.0, 0.0, 0.0, 0.0, 0.0, 0.0, 1.6820969287345057E9, 0.0, 2023-04-21 12:08:48.734
5.0, -53804.0016655924, -35402.726877060755, 187500.0, 187500.0, 187500.0, 187500.0, 187500.0, 187500.0, 0.066, 0.99, 0.002, 192.0, 0.0, 0.0, 0.0, 0.0, 0.0, 0.0, 0.0, 0.0, 0.0, 1.6820969287345169E9, 0.0, 2023-04-21 12:08:48.734
6.0, -53661.308128989716, -35366.65116150989, 187500.0, 187500.0, 187500.0, 187500.0, 187500.0, 187500.0, 0.066, 0.99, 0.002, 192.0, 0.0, 0.0, 0.0, 0.0, 0.0, 0.0, 0.0, 0.0, 0.0, 1.6820969287345276E9, 0.0, 2023-04-21 12:08:48.734
7.0, -53642.7114776029, -35450.626665428485, 187500.0, 187500.0, 187500.0, 187500.0, 187500.0, 187500.0, 0.066, 0.99, 0.002, 192.0, 0.0, 0.0, 0.0, 0.0, 0.0, 0.0, 0.0, 0.0, 0.0, 1.682096928734539E9, 0.0, 2023-04-21 12:08:48.734
8.0, -53768.17181923054, -35468.999799370744, 187500.0, 187500.0, 187500.0, 187500.0, 187500.0, 187500.0, 0.068, 0.986, 0.0, 192.0, 2.0, 32.0, 30.0, 208.0, 0.0, 0.0, 0.0, 0.0, 0.0, 1.68209692873455E9, 0.0, 2023-04-21 12:08:48.734
9.0, -53820.81017742278, -35417.38962142344, 187500.0, 187500.0, 187500.0, 187500.0, 187500.0, 187500.0, 0.068, 0.986, 0.0, 192.0, 0.0, 0.0, 0.0, 0.0, 0.0, 0.0, 0.0, 0.0, 0.0, 1.6820969287345617E9, 0.0, 2023-04-21 12:08:48.734
10.0, -53701.25069633135, -35381.22449889476, 187500.0, 187500.0, 187500.0, 187500.0, 187500.0, 187500.0, 0.068, 0.986, 0.0, 192.0, 0.0, 0.0, 0.0, 0.0, 0.0, 0.0, 0.0, 0.0, 0.0, 1.682096928734573E9, 0.0, 2023-04-21 12:08:48.734
11.0, -53642.08562875815, -35445.0163775702, 187500.0, 187500.0, 187500.0, 187500.0, 187500.0, 187500.0, 0.068, 0.986, 0.0, 192.0, 0.0, 0.0, 0.0, 0.0, 0.0, 0.0, 0.0, 0.0, 0.0, 1.6820969287345836E9, 0.0, 2023-04-21 12:08:48.734
12.0, -53749.59751958818, -35478.05225587514, 187500.0, 187500.0, 187500.0, 187500.0, 187500.0, 187500.0, 0.068, 0.986, 0.0, 192.0, 0.0, 0.0, 0.0, 0.0, 0.0, 0.0, 0.0, 0.0, 0.0, 1.6820969287345943E9, 0.0, 2023-04-21 12:08:48.734
13.0, -53828.11919785967, -35430.0630605296, 187500.0, 187500.0, 187500.0, 187500.0, 187500.0, 187500.0, 0.068, 0.986, 0.0, 192.0, 0.0, 0.0, 0.0, 0.0, 0.0, 0.0, 0.0, 0.0, 0.0, 1.6820969287346053E9, 0.0, 2023-04-21 12:08:48.734
14.0, -53727.04460943277, -35380.33042911654, 187500.0, 187500.0, 187500.0, 187500.0, 187500.0, 187500.0, 0.068, 0.986, 0.0, 192.0, 0.0, 0.0, 0.0, 0.0, 0.0, 0.0, 0.0, 0.0, 0.0, 1.6820969287346687E9, 0.0, 2023-04-21 12:08:48.734
15.0, -53633.30139318722, -35421.50234240322, 187500.0, 187500.0, 187500.0, 187500.0, 187500.0, 187500.0, 0.068, 0.986, 0.0, 192.0, 0.0, 0.0, 0.0, 0.0, 0.0, 0.0, 0.0, 0.0, 0.0, 1.6820969287346802E9, 0.0, 2023-04-21 12:08:48.734
16.0, -53725.50233906536, -35482.500253021746, 187500.0, 187500.0, 187500.0, 187500.0, 187500.0, 187500.0, 0.068, 0.986, 0.0, 192.0, 0.0, 0.0, 0.0, 0.0, 0.0, 0.0, 0.0, 0.0, 0.0, 1.6820969287346911E9, 0.0, 2023-04-21 12:08:48.734
17.0, -53820.56430823378, -35437.59559841104, 187500.0, 187500.0, 187500.0, 187500.0, 187500.0, 187500.0, 0.068, 0.986, 0.0, 192.0, 0.0, 0.0, 0.0, 0.0, 0.0, 0.0, 0.0, 0.0, 0.0, 1.682096928734702E9, 0.0, 2023-04-21 12:08:48.734
18.0, -53756.101877224675, -35387.72885653125, 187500.0, 187500.0, 187500.0, 187500.0, 187500.0, 187500.0, 0.068, 0.988, -0.006, 192.0, 2.0, 32.0, 30.0, 224.0, 255.0, 208.0, 0.0, 0.0, 0.0, 1.682096928734713E9, 0.0, 2023-04-21 12:08:48.734
19.0, -53636.1624164775, -35409.164179463885, 187500.0, 187500.0, 187500.0, 187500.0, 187500.0, 187500.0, 0.068, 0.988, -0.006, 192.0, 0.0, 0.0, 0.0, 0.0, 0.0, 0.0, 0.0, 0.0, 0.0, 1.6820969287347252E9, 0.0, 2023-04-21 12:08:48.734
20.0, -53702.81531844322, -35481.78499719918, 187500.0, 187500.0, 187500.0, 187500.0, 187500.0, 187500.0, 0.068, 0.988, -0.006, 192.0, 0.0, 0.0, 0.0, 0.0, 0.0, 0.0, 0.0, 0.0, 0.0, 1.6820969287347364E9, 0.0, 2023-04-21 12:08:48.734
21.0, -53830.28731707184, -35462.517793478706, 187500.0, 187500.0, 187500.0, 187500.0, 187500.0, 187500.0, 0.068, 0.988, -0.006, 192.0, 0.0, 0.0, 0.0, 0.0, 0.0, 0.0, 0.0, 0.0, 0.0, 1.6820969287347472E9, 0.0, 2023-04-21 12:08:48.734
22.0, -53791.35057823069, -35408.67244108587, 187500.0, 187500.0, 187500.0, 187500.0, 187500.0, 187500.0, 0.068, 0.988, -0.006, 192.0, 0.0, 0.0, 0.0, 0.0, 0.0, 0.0, 0.0, 0.0, 0.0, 1.682096929123636E9, 0.0, 2023-04-21 12:08:49.123
23.0, -53650.601643395625, -35402.23513868274, 187500.0, 187500.0, 187500.0, 187500.0, 187500.0, 187500.0, 0.068, 0.988, -0.006, 192.0, 0.0, 0.0, 0.0, 0.0, 0.0, 0.0, 0.0, 0.0, 0.0, 1.682096929123669E9, 0.0, 2023-04-21 12:08:49.123
24.0, -53693.85226891664, -35491.798578715156, 187500.0, 187500.0, 187500.0, 187500.0, 187500.0, 187500.0, 0.068, 0.988, -0.006, 192.0, 0.0, 0.0, 0.0, 0.0, 0.0, 0.0, 0.0, 0.0, 0.0, 1.68209692912369E9, 0.0, 2023-04-21 12:08:49.123
25.0, -53812.584735463235, -35467.39047376996, 187500.0, 187500.0, 187500.0, 187500.0, 187500.0, 187500.0, 0.068, 0.988, -0.006, 192.0, 0.0, 0.0, 0.0, 0.0, 0.0, 0.0, 0.0, 0.0, 0.0, 1.682096929123709E9, 0.0, 2023-04-21 12:08:49.123
26.0, -53811.668313940565, -35414.685060344345, 187500.0, 187500.0, 187500.0, 187500.0, 187500.0, 187500.0, 0.068, 0.988, -0.006, 192.0, 0.0, 0.0, 0.0, 0.0, 0.0, 0.0, 0.0, 0.0, 0.0, 1.6820969291237333E9, 0.0, 2023-04-21 12:08:49.123
27.0, -53653.44031494145, -35378.542289560115, 187500.0, 187500.0, 187500.0, 187500.0, 187500.0, 187500.0, 0.068, 0.988, -0.006, 192.0, 0.0, 0.0, 0.0, 0.0, 0.0, 0.0, 0.0, 0.0, 0.0, 1.6820969291237516E9, 0.0, 2023-04-21 12:08:49.123
28.0, -53659.7658586223, -35467.815156914614, 187500.0, 187500.0, 187500.0, 187500.0, 187500.0, 187500.0, 0.07, 0.986, -0.012, 192.0, 2.0, 48.0, 30.0, 208.0, 255.0, 160.0, 0.0, 0.0, 0.0, 1.6820969291237636E9, 0.0, 2023-04-21 12:08:49.123
29.0, -53773.558589644264, -35459.29914227714, 187500.0, 187500.0, 187500.0, 187500.0, 187500.0, 187500.0, 0.07, 0.986, -0.012, 192.0, 0.0, 0.0, 0.0, 0.0, 0.0, 0.0, 0.0, 0.0, 0.0, 1.682096929123836E9, 0.0, 2023-04-21 12:08:49.123
30.0, -53789.718900885455, -35392.42272286686, 187500.0, 187500.0, 187500.0, 187500.0, 187500.0, 187500.0, 0.07, 0.986, -0.012, 192.0, 0.0, 0.0, 0.0, 0.0, 0.0, 0.0, 0.0, 0.0, 0.0, 1.6820969291238484E9, 0.0, 2023-04-21 12:08:49.123
31.0, -53669.04183257125, -35369.869812711455, 187500.0, 187500.0, 187500.0, 187500.0, 187500.0, 187500.0, 0.07, 0.986, -0.012, 192.0, 0.0, 0.0, 0.0, 0.0, 0.0, 0.0, 0.0, 0.0, 0.0, 1.68209692912386E9, 0.0, 2023-04-21 12:08:49.123
32.0, -53652.45683818541, -35459.567363210605, 187500.0, 187500.0, 187500.0, 187500.0, 187500.0, 187500.0, 0.07, 0.986, -0.012, 192.0, 0.0, 0.0, 0.0, 0.0, 0.0, 0.0, 0.0, 0.0, 0.0, 1.6820969291238723E9, 0.0, 2023-04-21 12:08:49.123
33.0, -53769.26705470885, -35482.03086638819, 187500.0, 187500.0, 187500.0, 187500.0, 187500.0, 187500.0, 0.07, 0.986, -0.012, 192.0, 0.0, 0.0, 0.0, 0.0, 0.0, 0.0, 0.0, 0.0, 0.0, 1.682096929123884E9, 0.0, 2023-04-21 12:08:49.123
34.0, -53830.30966881629, -35430.66655762989, 187500.0, 187500.0, 187500.0, 187500.0, 187500.0, 187500.0, 0.07, 0.986, -0.012, 192.0, 0.0, 0.0, 0.0, 0.0, 0.0, 0.0, 0.0, 0.0, 0.0, 1.682096929123896E9, 0.0, 2023-04-21 12:08:49.123
35.0, -53720.56260354073, -35391.416894366375, 187500.0, 187500.0, 187500.0, 187500.0, 187500.0, 187500.0, 0.07, 0.986, -0.012, 192.0, 0.0, 0.0, 0.0, 0.0, 0.0, 0.0, 0.0, 0.0, 0.0, 1.6820969291239078E9, 0.0, 2023-04-21 12:08:49.123
36.0, -53656.30133823173, -35454.69468291935, 187500.0, 187500.0, 187500.0, 187500.0, 187500.0, 187500.0, 0.07, 0.986, -0.012, 192.0, 0.0, 0.0, 0.0, 0.0, 0.0, 0.0, 0.0, 0.0, 0.0, 1.6820969291239197E9, 0.0, 2023-04-21 12:08:49.123
37.0, -53751.07273472223, -35492.04444790417, 187500.0, 187500.0, 187500.0, 187500.0, 187500.0, 187500.0, 0.07, 0.986, -0.012, 192.0, 0.0, 0.0, 0.0, 0.0, 0.0, 0.0, 0.0, 0.0, 0.0, 1.6820969291239316E9, 0.0, 2023-04-21 12:08:49.123
38.0, -53846.626442268665, -35455.54404920865, 187500.0, 187500.0, 187500.0, 187500.0, 187500.0, 187500.0, 0.07, 0.986, -0.012, 192.0, 0.0, 0.0, 0.0, 0.0, 0.0, 0.0, 0.0, 0.0, 0.0, 1.682096929123943E9, 0.0, 2023-04-21 12:08:49.123
39.0, -53769.19999947548, -35409.67826958636, 187500.0, 187500.0, 187500.0, 187500.0, 187500.0, 187500.0, 0.06, 0.992, -0.014, 192.0, 1.0, 224.0, 31.0, 0.0, 255.0, 144.0, 0.0, 0.0, 0.0, 1.6820969291239548E9, 0.0, 2023-04-21 12:08:49.123
40.0, -53660.21289351141, -35437.282673988666, 187500.0, 187500.0, 187500.0, 187500.0, 187500.0, 187500.0, 0.06, 0.992, -0.014, 192.0, 0.0, 0.0, 0.0, 0.0, 0.0, 0.0, 0.0, 0.0, 0.0, 1.682096929123968E9, 0.0, 2023-04-21 12:08:49.123
41.0, -53743.227272418415, -35503.80146548766, 187500.0, 187500.0, 187500.0, 187500.0, 187500.0, 187500.0, 0.06, 0.992, -0.014, 192.0, 0.0, 0.0, 0.0, 0.0, 0.0, 0.0, 0.0, 0.0, 0.0, 1.6820969291239796E9, 0.0, 2023-04-21 12:08:49.123
42.0, -53844.43597131204, -35462.651903945436, 187500.0, 187500.0, 187500.0, 187500.0, 187500.0, 187500.0, 0.06, 0.992, -0.014, 192.0, 0.0, 0.0, 0.0, 0.0, 0.0, 0.0, 0.0, 0.0, 0.0, 1.6820969291239915E9, 0.0, 2023-04-21 12:08:49.123
43.0, -53791.35057823069, -35413.96980452178, 187500.0, 187500.0, 187500.0, 187500.0, 187500.0, 187500.0, 0.06, 0.992, -0.014, 192.0, 0.0, 0.0, 0.0, 0.0, 0.0, 0.0, 0.0, 0.0, 0.0, 1.682096929124003E9, 0.0, 2023-04-21 12:08:49.124
44.0, -53659.36352722211, -35423.44694417083, 187500.0, 187500.0, 187500.0, 187500.0, 187500.0, 187500.0, 0.06, 0.992, -0.014, 192.0, 0.0, 0.0, 0.0, 0.0, 0.0, 0.0, 0.0, 0.0, 0.0, 1.6820969291240332E9, 0.0, 2023-04-21 12:08:49.124
45.0, -53725.904670465556, -35512.40688710295, 187500.0, 187500.0, 187500.0, 187500.0, 187500.0, 187500.0, 0.06, 0.992, -0.014, 192.0, 0.0, 0.0, 0.0, 0.0, 0.0, 0.0, 0.0, 0.0, 0.0, 1.682096929124045E9, 0.0, 2023-04-21 12:08:49.124
46.0, -53846.22411086847, -35484.55661351164, 187500.0, 187500.0, 187500.0, 187500.0, 187500.0, 187500.0, 0.06, 0.992, -0.014, 192.0, 0.0, 0.0, 0.0, 0.0, 0.0, 0.0, 0.0, 0.0, 0.0, 1.68209692912406E9, 0.0, 2023-04-21 12:08:49.124
47.0, -53817.055084354295, -35426.59854013903, 187500.0, 187500.0, 187500.0, 187500.0, 187500.0, 187500.0, 0.06, 0.992, -0.014, 192.0, 0.0, 0.0, 0.0, 0.0, 0.0, 0.0, 0.0, 0.0, 0.0, 1.6820969291240797E9, 0.0, 2023-04-21 12:08:49.124
48.0, -53675.836762885665, -35411.891092287435, 187500.0, 187500.0, 187500.0, 187500.0, 187500.0, 187500.0, 0.06, 0.992, -0.014, 192.0, 0.0, 0.0, 0.0, 0.0, 0.0, 0.0, 0.0, 0.0, 0.0, 1.682096929124092E9, 0.0, 2023-04-21 12:08:49.124
49.0, -53700.98247539788, -35496.44774156186, 187500.0, 187500.0, 187500.0, 187500.0, 187500.0, 187500.0, 0.06, 0.99, -0.008, 192.0, 1.0, 224.0, 30.0, 240.0, 255.0, 192.0, 0.0, 0.0, 0.0, 1.6820969291241035E9, 0.0, 2023-04-21 12:08:49.124
50.0, -53824.49821525791, -35486.99295365727, 187500.0, 187500.0, 187500.0, 187500.0, 187500.0, 187500.0, 0.06, 0.99, -0.008, 192.0, 0.0, 0.0, 0.0, 0.0, 0.0, 0.0, 0.0, 0.0, 0.0, 1.6820969291241162E9, 0.0, 2023-04-21 12:08:49.124
51.0, -53836.88108168615, -35434.80163035412, 187500.0, 187500.0, 187500.0, 187500.0, 187500.0, 187500.0, 0.06, 0.99, -0.008, 192.0, 0.0, 0.0, 0.0, 0.0, 0.0, 0.0, 0.0, 0.0, 0.0, 1.682096929124128E9, 0.0, 2023-04-21 12:08:49.124
52.0, -53695.059263117226, -35403.15156020541, 187500.0, 187500.0, 187500.0, 187500.0, 187500.0, 187500.0, 0.06, 0.99, -0.008, 192.0, 0.0, 0.0, 0.0, 0.0, 0.0, 0.0, 0.0, 0.0, 0.0, 1.68209692912414E9, 0.0, 2023-04-21 12:08:49.124
53.0, -53686.811469413224, -35483.66254373342, 187500.0, 187500.0, 187500.0, 187500.0, 187500.0, 187500.0, 0.06, 0.99, -0.008, 192.0, 0.0, 0.0, 0.0, 0.0, 0.0, 0.0, 0.0, 0.0, 0.0, 1.6820969291241517E9, 0.0, 2023-04-21 12:08:49.124
54.0, -53791.64115090861, -35475.928840151886, 187500.0, 187500.0, 187500.0, 187500.0, 187500.0, 187500.0, 0.06, 0.99, -0.008, 192.0, 0.0, 0.0, 0.0, 0.0, 0.0, 0.0, 0.0, 0.0, 0.0, 1.6820969291241636E9, 0.0, 2023-04-21 12:08:49.124
55.0, -53828.18625309304, -35423.5139994042, 187500.0, 187500.0, 187500.0, 187500.0, 187500.0, 187500.0, 0.06, 0.99, -0.008, 192.0, 0.0, 0.0, 0.0, 0.0, 0.0, 0.0, 0.0, 0.0, 0.0, 1.6820969291241755E9, 0.0, 2023-04-21 12:08:49.124
56.0, -53698.076748618696, -35377.983495948734, 187500.0, 187500.0, 187500.0, 187500.0, 187500.0, 187500.0, 0.06, 0.99, -0.008, 192.0, 0.0, 0.0, 0.0, 0.0, 0.0, 0.0, 0.0, 0.0, 0.0, 1.6820969291241872E9, 0.0, 2023-04-21 12:08:49.124
57.0, -53659.274120244285, -35454.98525559727, 187500.0, 187500.0, 187500.0, 187500.0, 187500.0, 187500.0, 0.06, 0.99, -0.008, 192.0, 0.0, 0.0, 0.0, 0.0, 0.0, 0.0, 0.0, 0.0, 0.0, 1.682096929124199E9, 0.0, 2023-04-21 12:08:49.124
58.0, -53778.945360057995, -35492.02209615971, 187500.0, 187500.0, 187500.0, 187500.0, 187500.0, 187500.0, 0.06, 0.99, -0.008, 192.0, 0.0, 0.0, 0.0, 0.0, 0.0, 0.0, 0.0, 0.0, 0.0, 1.6820969291242104E9, 0.0, 2023-04-21 12:08:49.124
59.0, -53840.122084632174, -35432.67821463087, 187500.0, 187500.0, 187500.0, 187500.0, 187500.0, 187500.0, 0.058, 0.996, -0.014, 192.0, 1.0, 208.0, 31.0, 32.0, 255.0, 144.0, 0.0, 0.0, 0.0, 1.6820969291242385E9, 0.0, 2023-04-21 12:08:49.124
60.0, -53735.739438025885, -35386.85713849749, 187500.0, 187500.0, 187500.0, 187500.0, 187500.0, 187500.0, 0.058, 0.996, -0.014, 192.0, 0.0, 0.0, 0.0, 0.0, 0.0, 0.0, 0.0, 0.0, 0.0, 1.6820969291242518E9, 0.0, 2023-04-21 12:08:49.124
61.0, -53656.56955916519, -35442.13300253546, 187500.0, 187500.0, 187500.0, 187500.0, 187500.0, 187500.0, 0.058, 0.996, -0.014, 192.0, 0.0, 0.0, 0.0, 0.0, 0.0, 0.0, 0.0, 0.0, 0.0, 1.6820969291242635E9, 0.0, 2023-04-21 12:08:49.124
62.0, -53755.677194080024, -35497.74414274027, 187500.0, 187500.0, 187500.0, 187500.0, 187500.0, 187500.0, 0.058, 0.996, -0.014, 192.0, 0.0, 0.0, 0.0, 0.0, 0.0, 0.0, 0.0, 0.0, 0.0, 1.6820969291242757E9, 0.0, 2023-04-21 12:08:49.124
63.0, -53841.574948021764, -35448.36913923849, 187500.0, 187500.0, 187500.0, 187500.0, 187500.0, 187500.0, 0.058, 0.996, -0.014, 192.0, 0.0, 0.0, 0.0, 0.0, 0.0, 0.0, 0.0, 0.0, 0.0, 1.6820969291242888E9, 0.0, 2023-04-21 12:08:49.124
64.0, -53756.45950513596, -35391.618060066474, 187500.0, 187500.0, 187500.0, 187500.0, 187500.0, 187500.0, 0.058, 0.996, -0.014, 192.0, 0.0, 0.0, 0.0, 0.0, 0.0, 0.0, 0.0, 0.0, 0.0, 1.6820969291243005E9, 0.0, 2023-04-21 12:08:49.124
65.0, -53654.96023356441, -35426.576188394574, 187500.0, 187500.0, 187500.0, 187500.0, 187500.0, 187500.0, 0.058, 0.996, -0.014, 192.0, 0.0, 0.0, 0.0, 0.0, 0.0, 0.0, 0.0, 0.0, 0.0, 1.6820969291243122E9, 0.0, 2023-04-21 12:08:49.124
66.0, -53730.82205424572, -35494.7266572388, 187500.0, 187500.0, 187500.0, 187500.0, 187500.0, 187500.0, 0.058, 0.996, -0.014, 192.0, 0.0, 0.0, 0.0, 0.0, 0.0, 0.0, 0.0, 0.0, 0.0, 1.682096929124324E9, 0.0, 2023-04-21 12:08:49.124
67.0, -53841.19496836603, -35461.48961323376, 187500.0, 187500.0, 187500.0, 187500.0, 187500.0, 187500.0, 0.058, 0.996, -0.014, 192.0, 0.0, 0.0, 0.0, 0.0, 0.0, 0.0, 0.0, 0.0, 0.0, 1.6820969291243355E9, 0.0, 2023-04-21 12:08:49.124
68.0, -53794.07749105424, -35413.27690044366, 187500.0, 187500.0, 187500.0, 187500.0, 187500.0, 187500.0, 0.058, 0.996, -0.014, 192.0, 0.0, 0.0, 0.0, 0.0, 0.0, 0.0, 0.0, 0.0, 0.0, 1.682096929124349E9, 0.0, 2023-04-21 12:08:49.124
69.0, -53668.639501171056, -35423.9610342933, 187500.0, 187500.0, 187500.0, 187500.0, 187500.0, 187500.0, 0.064, 0.99, -0.014, 192.0, 2.0, 0.0, 30.0, 240.0, 255.0, 144.0, 0.0, 0.0, 0.0, 1.6820969291243608E9, 0.0, 2023-04-21 12:08:49.124
70.0, -53722.35074309716, -35510.70815452435, 187500.0, 187500.0, 187500.0, 187500.0, 187500.0, 187500.0, 0.064, 0.99, -0.014, 192.0, 0.0, 0.0, 0.0, 0.0, 0.0, 0.0, 0.0, 0.0, 0.0, 1.6820969291243732E9, 0.0, 2023-04-21 12:08:49.124
71.0, -53846.02294516837, -35493.050276404654, 187500.0, 187500.0, 187500.0, 187500.0, 187500.0, 187500.0, 0.064, 0.99, -0.014, 192.0, 0.0, 0.0, 0.0, 0.0, 0.0, 0.0, 0.0, 0.0, 0.0, 1.682096929124385E9, 0.0, 2023-04-21 12:08:49.124
72.0, -53831.27079382787, -35438.668482144894, 187500.0, 187500.0, 187500.0, 187500.0, 187500.0, 187500.0, 0.064, 0.99, -0.014, 192.0, 0.0, 0.0, 0.0, 0.0, 0.0, 0.0, 0.0, 0.0, 0.0, 1.6820969291243973E9, 0.0, 2023-04-21 12:08:49.124
73.0, -53678.29545477575, -35412.36047892099, 187500.0, 187500.0, 187500.0, 187500.0, 187500.0, 187500.0, 0.064, 0.99, -0.014, 192.0, 0.0, 0.0, 0.0, 0.0, 0.0, 0.0, 0.0, 0.0, 0.0, 1.6820969291244087E9, 0.0, 2023-04-21 12:08:49.124
74.0, -53693.96402763892, -35500.11342765253, 187500.0, 187500.0, 187500.0, 187500.0, 187500.0, 187500.0, 0.064, 0.99, -0.014, 192.0, 0.0, 0.0, 0.0, 0.0, 0.0, 0.0, 0.0, 0.0, 0.0, 1.682096929124437E9, 0.0, 2023-04-21 12:08:49.124
75.0, -53807.10855807168, -35482.47790127729, 187500.0, 187500.0, 187500.0, 187500.0, 187500.0, 187500.0, 0.064, 0.99, -0.014, 192.0, 0.0, 0.0, 0.0, 0.0, 0.0, 0.0, 0.0, 0.0, 0.0, 1.6820969291244493E9, 0.0, 2023-04-21 12:08:49.124
76.0, -53822.39715127911, -35425.659766871904, 187500.0, 187500.0, 187500.0, 187500.0, 187500.0, 187500.0, 0.064, 0.99, -0.014, 192.0, 0.0, 0.0, 0.0, 0.0, 0.0, 0.0, 0.0, 0.0, 0.0, 1.6820969291244607E9, 0.0, 2023-04-21 12:08:49.124
77.0, -53686.118565335106, -35394.94846999031, 187500.0, 187500.0, 187500.0, 187500.0, 187500.0, 187500.0, 0.064, 0.99, -0.014, 192.0, 0.0, 0.0, 0.0, 0.0, 0.0, 0.0, 0.0, 0.0, 0.0, 1.6820969291244745E9, 0.0, 2023-04-21 12:08:49.124
78.0, -53685.15744032353, -35489.2281281028, 187500.0, 187500.0, 187500.0, 187500.0, 187500.0, 187500.0, 0.064, 0.99, -0.014, 192.0, 0.0, 0.0, 0.0, 0.0, 0.0, 0.0, 0.0, 0.0, 0.0, 1.68209692912449E9, 0.0, 2023-04-21 12:08:49.124
79.0, -53799.12898530114, -35498.05706716264, 187500.0, 187500.0, 187500.0, 187500.0, 187500.0, 187500.0, 0.064, 0.99, -0.014, 192.0, 0.0, 0.0, 0.0, 0.0, 0.0, 0.0, 0.0, 0.0, 0.0, 1.682096929124502E9, 0.0, 2023-04-21 12:08:49.124
80.0, -53849.55452079231, -35446.78216538217, 187500.0, 187500.0, 187500.0, 187500.0, 187500.0, 187500.0, 0.062, 0.988, -0.018000000000000002, 192.0, 1.0, 240.0, 30.0, 224.0, 255.0, 112.0, 0.0, 0.0, 0.0, 1.682096929124514E9, 0.0, 2023-04-21 12:08:49.124
81.0, -53721.05434191875, -35399.61998458147, 187500.0, 187500.0, 187500.0, 187500.0, 187500.0, 187500.0, 0.062, 0.988, -0.018000000000000002, 192.0, 0.0, 0.0, 0.0, 0.0, 0.0, 0.0, 0.0, 0.0, 0.0, 1.6820969291245265E9, 0.0, 2023-04-21 12:08:49.124
82.0, -53674.160382051516, -35477.15818609693, 187500.0, 187500.0, 187500.0, 187500.0, 187500.0, 187500.0, 0.062, 0.988, -0.018000000000000002, 192.0, 0.0, 0.0, 0.0, 0.0, 0.0, 0.0, 0.0, 0.0, 0.0, 1.6820969291245384E9, 0.0, 2023-04-21 12:08:49.124
83.0, -53782.1416595151, -35510.77520975771, 187500.0, 187500.0, 187500.0, 187500.0, 187500.0, 187500.0, 0.062, 0.988, -0.018000000000000002, 192.0, 0.0, 0.0, 0.0, 0.0, 0.0, 0.0, 0.0, 0.0, 0.0, 1.68209692912455E9, 0.0, 2023-04-21 12:08:49.124
84.0, -53849.75568649241, -35452.48186021827, 187500.0, 187500.0, 187500.0, 187500.0, 187500.0, 187500.0, 0.062, 0.988, -0.018000000000000002, 192.0, 0.0, 0.0, 0.0, 0.0, 0.0, 0.0, 0.0, 0.0, 0.0, 1.682096929124562E9, 0.0, 2023-04-21 12:08:49.124
85.0, -53747.92113875403, -35402.659821827394, 187500.0, 187500.0, 187500.0, 187500.0, 187500.0, 187500.0, 0.062, 0.988, -0.018000000000000002, 192.0, 0.0, 0.0, 0.0, 0.0, 0.0, 0.0, 0.0, 0.0, 0.0, 1.682096929124574E9, 0.0, 2023-04-21 12:08:49.124
86.0, -53664.99616682484, -35453.912371863415, 187500.0, 187500.0, 187500.0, 187500.0, 187500.0, 187500.0, 0.062, 0.988, -0.018000000000000002, 192.0, 0.0, 0.0, 0.0, 0.0, 0.0, 0.0, 0.0, 0.0, 0.0, 1.6820969291245859E9, 0.0, 2023-04-21 12:08:49.124
87.0, -53752.27972892282, -35505.45549457735, 187500.0, 187500.0, 187500.0, 187500.0, 187500.0, 187500.0, 0.062, 0.988, -0.018000000000000002, 192.0, 0.0, 0.0, 0.0, 0.0, 0.0, 0.0, 0.0, 0.0, 0.0, 1.6820969291245975E9, 0.0, 2023-04-21 12:08:49.124
88.0, -53841.172616621574, -35453.82296488559, 187500.0, 187500.0, 187500.0, 187500.0, 187500.0, 187500.0, 0.062, 0.988, -0.018000000000000002, 192.0, 0.0, 0.0, 0.0, 0.0, 0.0, 0.0, 0.0, 0.0, 0.0, 1.6820969291246097E9, 0.0, 2023-04-21 12:08:49.124
89.0, -53786.67906363953, -35420.18358948035, 187500.0, 187500.0, 187500.0, 187500.0, 187500.0, 187500.0, 0.062, 0.988, -0.018000000000000002, 192.0, 0.0, 0.0, 0.0, 0.0, 0.0, 0.0, 0.0, 0.0, 0.0, 1.6820969291246357E9, 0.0, 2023-04-21 12:08:49.124
90.0, -53673.15455355103, -35446.089261304056, 187500.0, 187500.0, 187500.0, 187500.0, 187500.0, 187500.0, 0.06, 0.992, -0.02, 192.0, 1.0, 224.0, 31.0, 0.0, 255.0, 96.0, 0.0, 0.0, 0.0, 1.6820969291246505E9, 0.0, 2023-04-21 12:08:49.124
91.0, -53738.57810957171, -35513.16684641443, 187500.0, 187500.0, 187500.0, 187500.0, 187500.0, 187500.0, 0.06, 0.992, -0.02, 192.0, 0.0, 0.0, 0.0, 0.0, 0.0, 0.0, 0.0, 0.0, 0.0, 1.682096929124663E9, 0.0, 2023-04-21 12:08:49.124
92.0, -53856.23769238445, -35482.38849429947, 187500.0, 187500.0, 187500.0, 187500.0, 187500.0, 187500.0, 0.06, 0.992, -0.02, 192.0, 0.0, 0.0, 0.0, 0.0, 0.0, 0.0, 0.0, 0.0, 0.0, 1.6820969291246748E9, 0.0, 2023-04-21 12:08:49.124
93.0, -53817.59152622122, -35433.05819428661, 187500.0, 187500.0, 187500.0, 187500.0, 187500.0, 187500.0, 0.06, 0.992, -0.02, 192.0, 0.0, 0.0, 0.0, 0.0, 0.0, 0.0, 0.0, 0.0, 0.0, 1.6820969291246867E9, 0.0, 2023-04-21 12:08:49.124
94.0, -53679.32363502069, -35434.64516814294, 187500.0, 187500.0, 187500.0, 187500.0, 187500.0, 187500.0, 0.06, 0.992, -0.02, 192.0, 0.0, 0.0, 0.0, 0.0, 0.0, 0.0, 0.0, 0.0, 0.0, 1.6820969291246984E9, 0.0, 2023-04-21 12:08:49.124
95.0, -53718.34978083966, -35516.85488424956, 187500.0, 187500.0, 187500.0, 187500.0, 187500.0, 187500.0, 0.06, 0.992, -0.02, 192.0, 0.0, 0.0, 0.0, 0.0, 0.0, 0.0, 0.0, 0.0, 0.0, 1.6820969291247103E9, 0.0, 2023-04-21 12:08:49.124
96.0, -53835.294107829824, -35491.93268918189, 187500.0, 187500.0, 187500.0, 187500.0, 187500.0, 187500.0, 0.06, 0.992, -0.02, 192.0, 0.0, 0.0, 0.0, 0.0, 0.0, 0.0, 0.0, 0.0, 0.0, 1.682096929124722E9, 0.0, 2023-04-21 12:08:49.124
97.0, -53823.827662924254, -35430.53244716316, 187500.0, 187500.0, 187500.0, 187500.0, 187500.0, 187500.0, 0.06, 0.992, -0.02, 192.0, 0.0, 0.0, 0.0, 0.0, 0.0, 0.0, 0.0, 0.0, 0.0, 1.6820969291247337E9, 0.0, 2023-04-21 12:08:49.124
98.0, -53677.781364653274, -35404.47031312827, 187500.0, 187500.0, 187500.0, 187500.0, 187500.0, 187500.0, 0.06, 0.992, -0.02, 192.0, 0.0, 0.0, 0.0, 0.0, 0.0, 0.0, 0.0, 0.0, 0.0, 1.6820969291247456E9, 0.0, 2023-04-21 12:08:49.124
99.0, -53684.75510892333, -35492.20091011535, 187500.0, 187500.0, 187500.0, 187500.0, 187500.0, 187500.0, 0.06, 0.992, -0.02, 192.0, 0.0, 0.0, 0.0, 0.0, 0.0, 0.0, 0.0, 0.0, 0.0, 1.6820969291247573E9, 0.0, 2023-04-21 12:08:49.124
100.0, -53807.10855807168, -35490.189253114375, 187500.0, 187500.0, 187500.0, 187500.0, 187500.0, 187500.0, 0.056, 0.99, -0.016, 192.0, 1.0, 192.0, 30.0, 240.0, 255.0, 128.0, 0.0, 0.0, 0.0, 1.6820969291247697E9, 0.0, 2023-04-21 12:08:49.124
101.0, -53825.32522980276, -35430.62185414098, 187500.0, 187500.0, 187500.0, 187500.0, 187500.0, 187500.0, 0.056, 0.99, -0.016, 192.0, 0.0, 0.0, 0.0, 0.0, 0.0, 0.0, 0.0, 0.0, 0.0, 1.6820969291247823E9, 0.0, 2023-04-21 12:08:49.124
102.0, -53693.4722892609, -35398.01065898069, 187500.0, 187500.0, 187500.0, 187500.0, 187500.0, 187500.0, 0.056, 0.99, -0.016, 192.0, 0.0, 0.0, 0.0, 0.0, 0.0, 0.0, 0.0, 0.0, 0.0, 1.6820969291247945E9, 0.0, 2023-04-21 12:08:49.124
103.0, -53674.27214077379, -35484.511910022724, 187500.0, 187500.0, 187500.0, 187500.0, 187500.0, 187500.0, 0.056, 0.99, -0.016, 192.0, 0.0, 0.0, 0.0, 0.0, 0.0, 0.0, 0.0, 0.0, 0.0, 1.6820969291248064E9, 0.0, 2023-04-21 12:08:49.124
104.0, -53788.35544447368, -35501.36512534203, 187500.0, 187500.0, 187500.0, 187500.0, 187500.0, 187500.0, 0.056, 0.99, -0.016, 192.0, 0.0, 0.0, 0.0, 0.0, 0.0, 0.0, 0.0, 0.0, 0.0, 1.682096929124818E9, 0.0, 2023-04-21 12:08:49.124
105.0, -53842.37961082216, -35446.87157235999, 187500.0, 187500.0, 187500.0, 187500.0, 187500.0, 187500.0, 0.056, 0.99, -0.016, 192.0, 0.0, 0.0, 0.0, 0.0, 0.0, 0.0, 0.0, 0.0, 0.0, 1.682096929124845E9, 0.0, 2023-04-21 12:08:49.124
106.0, -53734.95712696995, -35411.93579577634, 187500.0, 187500.0, 187500.0, 187500.0, 187500.0, 187500.0, 0.056, 0.99, -0.016, 192.0, 0.0, 0.0, 0.0, 0.0, 0.0, 0.0, 0.0, 0.0, 0.0, 1.6820969291248567E9, 0.0, 2023-04-21 12:08:49.124
107.0, -53679.882428632074, -35480.890927420965, 187500.0, 187500.0, 187500.0, 187500.0, 187500.0, 187500.0, 0.056, 0.99, -0.016, 192.0, 0.0, 0.0, 0.0, 0.0, 0.0, 0.0, 0.0, 0.0, 0.0, 1.6820969291248672E9, 0.0, 2023-04-21 12:08:49.124
108.0, -53768.529447141824, -35504.65083177696, 187500.0, 187500.0, 187500.0, 187500.0, 187500.0, 187500.0, 0.056, 0.99, -0.016, 192.0, 0.0, 0.0, 0.0, 0.0, 0.0, 0.0, 0.0, 0.0, 0.0, 1.6820969291248772E9, 0.0, 2023-04-21 12:08:49.124
109.0, -53853.60018653872, -35457.890982376455, 187500.0, 187500.0, 187500.0, 187500.0, 187500.0, 187500.0, 0.056, 0.99, -0.016, 192.0, 0.0, 0.0, 0.0, 0.0, 0.0, 0.0, 0.0, 0.0, 0.0, 1.6820969291248868E9, 0.0, 2023-04-21 12:08:49.124
110.0, -53770.07171750924, -35414.19332196633, 187500.0, 187500.0, 187500.0, 187500.0, 187500.0, 187500.0, 0.058, 0.992, -0.016, 192.0, 1.0, 208.0, 31.0, 0.0, 255.0, 128.0, 0.0, 0.0, 0.0, 1.6820969291248963E9, 0.0, 2023-04-21 12:08:49.124
111.0, -53661.95632957892, -35443.854086858526, 187500.0, 187500.0, 187500.0, 187500.0, 187500.0, 187500.0, 0.058, 0.992, -0.016, 192.0, 0.0, 0.0, 0.0, 0.0, 0.0, 0.0, 0.0, 0.0, 0.0, 1.6820969291249082E9, 0.0, 2023-04-21 12:08:49.124
112.0, -53748.03289747631, -35507.668317278425, 187500.0, 187500.0, 187500.0, 187500.0, 187500.0, 187500.0, 0.058, 0.992, -0.016, 192.0, 0.0, 0.0, 0.0, 0.0, 0.0, 0.0, 0.0, 0.0, 0.0, 1.682096929124918E9, 0.0, 2023-04-21 12:08:49.124
113.0, -53848.48163705846, -35465.60233421354, 187500.0, 187500.0, 187500.0, 187500.0, 187500.0, 187500.0, 0.058, 0.992, -0.016, 192.0, 0.0, 0.0, 0.0, 0.0, 0.0, 0.0, 0.0, 0.0, 0.0, 1.682096929124928E9, 0.0, 2023-04-21 12:08:49.124
114.0, -53785.78499386132, -35412.785162065644, 187500.0, 187500.0, 187500.0, 187500.0, 187500.0, 187500.0, 0.058, 0.992, -0.016, 192.0, 0.0, 0.0, 0.0, 0.0, 0.0, 0.0, 0.0, 0.0, 0.0, 1.6820969291249375E9, 0.0, 2023-04-21 12:08:49.124
115.0, -53665.17498078048, -35435.5615896656, 187500.0, 187500.0, 187500.0, 187500.0, 187500.0, 187500.0, 0.058, 0.992, -0.016, 192.0, 0.0, 0.0, 0.0, 0.0, 0.0, 0.0, 0.0, 0.0, 0.0, 1.6820969291249473E9, 0.0, 2023-04-21 12:08:49.124
116.0, -53728.72099026692, -35515.93846272689, 187500.0, 187500.0, 187500.0, 187500.0, 187500.0, 187500.0, 0.058, 0.992, -0.016, 192.0, 0.0, 0.0, 0.0, 0.0, 0.0, 0.0, 0.0, 0.0, 0.0, 1.6820969291249568E9, 0.0, 2023-04-21 12:08:49.124
117.0, -53852.147323149125, -35490.122197881006, 187500.0, 187500.0, 187500.0, 187500.0, 187500.0, 187500.0, 0.058, 0.992, -0.016, 192.0, 0.0, 0.0, 0.0, 0.0, 0.0, 0.0, 0.0, 0.0, 0.0, 1.6820969291249664E9, 0.0, 2023-04-21 12:08:49.124
118.0, -53813.143529074616, -35427.78318259516, 187500.0, 187500.0, 187500.0, 187500.0, 187500.0, 187500.0, 0.058, 0.992, -0.016, 192.0, 0.0, 0.0, 0.0, 0.0, 0.0, 0.0, 0.0, 0.0, 0.0, 1.682096929124976E9, 0.0, 2023-04-21 12:08:49.124
119.0, -53675.63559718557, -35423.53635114865, 187500.0, 187500.0, 187500.0, 187500.0, 187500.0, 187500.0, 0.058, 0.992, -0.016, 192.0, 0.0, 0.0, 0.0, 0.0, 0.0, 0.0, 0.0, 0.0, 0.0, 1.682096929139748E9, 0.0, 2023-04-21 12:08:49.139
120.0, -53705.05049288875, -35506.2825091222, 187500.0, 187500.0, 187500.0, 187500.0, 187500.0, 187500.0, 0.058, 0.992, -0.016, 192.0, 0.0, 0.0, 0.0, 0.0, 0.0, 0.0, 0.0, 0.0, 0.0, 1.6820969294303715E9, 0.0, 2023-04-21 12:08:49.430
121.0, -53815.98220062044, -35480.39918904295, 187500.0, 187500.0, 187500.0, 187500.0, 187500.0, 187500.0, 0.058, 0.994, -0.016, 192.0, 1.0, 208.0, 31.0, 16.0, 255.0, 128.0, 0.0, 0.0, 0.0, 1.6820969294304209E9, 0.0, 2023-04-21 12:08:49.430
122.0, -53814.7528546754, -35418.5072086462, 187500.0, 187500.0, 187500.0, 187500.0, 187500.0, 187500.0, 0.058, 0.994, -0.016, 192.0, 0.0, 0.0, 0.0, 0.0, 0.0, 0.0, 0.0, 0.0, 0.0, 1.6820969294304411E9, 0.0, 2023-04-21 12:08:49.430
123.0, -53677.49079197536, -35394.0544002121, 187500.0, 187500.0, 187500.0, 187500.0, 187500.0, 187500.0, 0.058, 0.994, -0.016, 192.0, 0.0, 0.0, 0.0, 0.0, 0.0, 0.0, 0.0, 0.0, 0.0, 1.6820969294304545E9, 0.0, 2023-04-21 12:08:49.430
124.0, -53668.52774244878, -35471.21262207182, 187500.0, 187500.0, 187500.0, 187500.0, 187500.0, 187500.0, 0.058, 0.994, -0.016, 192.0, 0.0, 0.0, 0.0, 0.0, 0.0, 0.0, 0.0, 0.0, 0.0, 1.6820969294304645E9, 0.0, 2023-04-21 12:08:49.430
125.0, -53784.041557793804, -35468.28454354817, 187500.0, 187500.0, 187500.0, 187500.0, 187500.0, 187500.0, 0.058, 0.994, -0.016, 192.0, 0.0, 0.0, 0.0, 0.0, 0.0, 0.0, 0.0, 0.0, 0.0, 1.6820969294304745E9, 0.0, 2023-04-21 12:08:49.430
126.0, -53821.07839835625, -35416.69671734532, 187500.0, 187500.0, 187500.0, 187500.0, 187500.0, 187500.0, 0.058, 0.994, -0.016, 192.0, 0.0, 0.0, 0.0, 0.0, 0.0, 0.0, 0.0, 0.0, 0.0, 1.6820969294304848E9, 0.0, 2023-04-21 12:08:49.430
127.0, -53691.25946655983, -35381.04568493911, 187500.0, 187500.0, 187500.0, 187500.0, 187500.0, 187500.0, 0.058, 0.994, -0.016, 192.0, 0.0, 0.0, 0.0, 0.0, 0.0, 0.0, 0.0, 0.0, 0.0, 1.6820969294304948E9, 0.0, 2023-04-21 12:08:49.430
128.0, -53657.50833243231, -35462.18251731188, 187500.0, 187500.0, 187500.0, 187500.0, 187500.0, 187500.0, 0.058, 0.994, -0.016, 192.0, 0.0, 0.0, 0.0, 0.0, 0.0, 0.0, 0.0, 0.0, 0.0, 1.6820969294305048E9, 0.0, 2023-04-21 12:08:49.430
129.0, -53772.61981637715, -35488.378761813496, 187500.0, 187500.0, 187500.0, 187500.0, 187500.0, 187500.0, 0.058, 0.994, -0.016, 192.0, 0.0, 0.0, 0.0, 0.0, 0.0, 0.0, 0.0, 0.0, 0.0, 1.6820969294305146E9, 0.0, 2023-04-21 12:08:49.430
130.0, -53842.26785209988, -35446.31277874861, 187500.0, 187500.0, 187500.0, 187500.0, 187500.0, 187500.0, 0.058, 0.994, -0.016, 192.0, 0.0, 0.0, 0.0, 0.0, 0.0, 0.0, 0.0, 0.0, 0.0, 1.682096929430524E9, 0.0, 2023-04-21 12:08:49.430
131.0, -53725.614097787635, -35397.362458391486, 187500.0, 187500.0, 187500.0, 187500.0, 187500.0, 187500.0, 0.062, 0.986, -0.01, 192.0, 1.0, 240.0, 30.0, 208.0, 255.0, 176.0, 0.0, 0.0, 0.0, 1.6820969294305348E9, 0.0, 2023-04-21 12:08:49.430
132.0, -53655.362564964606, -35457.77922365418, 187500.0, 187500.0, 187500.0, 187500.0, 187500.0, 187500.0, 0.062, 0.986, -0.01, 192.0, 0.0, 0.0, 0.0, 0.0, 0.0, 0.0, 0.0, 0.0, 0.0, 1.6820969294305527E9, 0.0, 2023-04-21 12:08:49.430
133.0, -53754.96193825745, -35501.78980848668, 187500.0, 187500.0, 187500.0, 187500.0, 187500.0, 187500.0, 0.062, 0.986, -0.01, 192.0, 0.0, 0.0, 0.0, 0.0, 0.0, 0.0, 0.0, 0.0, 0.0, 1.682096929430563E9, 0.0, 2023-04-21 12:08:49.430
134.0, -53834.89177642963, -35448.324435749586, 187500.0, 187500.0, 187500.0, 187500.0, 187500.0, 187500.0, 0.062, 0.986, -0.01, 192.0, 0.0, 0.0, 0.0, 0.0, 0.0, 0.0, 0.0, 0.0, 0.0, 1.6820969294305727E9, 0.0, 2023-04-21 12:08:49.430
135.0, -53758.761734814856, -35403.44213288333, 187500.0, 187500.0, 187500.0, 187500.0, 187500.0, 187500.0, 0.062, 0.986, -0.01, 192.0, 0.0, 0.0, 0.0, 0.0, 0.0, 0.0, 0.0, 0.0, 0.0, 1.6820969294306407E9, 0.0, 2023-04-21 12:08:49.430
136.0, -53656.56955916519, -35437.483839688764, 187500.0, 187500.0, 187500.0, 187500.0, 187500.0, 187500.0, 0.062, 0.986, -0.01, 192.0, 0.0, 0.0, 0.0, 0.0, 0.0, 0.0, 0.0, 0.0, 0.0, 1.6820969294306512E9, 0.0, 2023-04-21 12:08:49.430
137.0, -53735.15829267005, -35503.041506176174, 187500.0, 187500.0, 187500.0, 187500.0, 187500.0, 187500.0, 0.062, 0.986, -0.01, 192.0, 0.0, 0.0, 0.0, 0.0, 0.0, 0.0, 0.0, 0.0, 0.0, 1.6820969294306607E9, 0.0, 2023-04-21 12:08:49.430
138.0, -53846.73820099094, -35473.98423838428, 187500.0, 187500.0, 187500.0, 187500.0, 187500.0, 187500.0, 0.062, 0.986, -0.01, 192.0, 0.0, 0.0, 0.0, 0.0, 0.0, 0.0, 0.0, 0.0, 0.0, 1.6820969294306707E9, 0.0, 2023-04-21 12:08:49.430
139.0, -53794.055139309785, -35423.80457208211, 187500.0, 187500.0, 187500.0, 187500.0, 187500.0, 187500.0, 0.062, 0.986, -0.01, 192.0, 0.0, 0.0, 0.0, 0.0, 0.0, 0.0, 0.0, 0.0, 0.0, 1.6820969294306805E9, 0.0, 2023-04-21 12:08:49.430
140.0, -53671.83580062816, -35438.62377865598, 187500.0, 187500.0, 187500.0, 187500.0, 187500.0, 187500.0, 0.062, 0.986, -0.01, 192.0, 0.0, 0.0, 0.0, 0.0, 0.0, 0.0, 0.0, 0.0, 0.0, 1.6820969294306905E9, 0.0, 2023-04-21 12:08:49.430
141.0, -53724.362400098136, -35516.94429122738, 187500.0, 187500.0, 187500.0, 187500.0, 187500.0, 187500.0, 0.062, 0.988, -0.008, 192.0, 1.0, 240.0, 30.0, 224.0, 255.0, 192.0, 0.0, 0.0, 0.0, 1.6820969294307003E9, 0.0, 2023-04-21 12:08:49.430
142.0, -53838.40100030912, -35486.88119493499, 187500.0, 187500.0, 187500.0, 187500.0, 187500.0, 187500.0, 0.062, 0.988, -0.008, 192.0, 0.0, 0.0, 0.0, 0.0, 0.0, 0.0, 0.0, 0.0, 0.0, 1.6820969294307113E9, 0.0, 2023-04-21 12:08:49.430
143.0, -53805.34277025971, -35421.05530751411, 187500.0, 187500.0, 187500.0, 187500.0, 187500.0, 187500.0, 0.062, 0.988, -0.008, 192.0, 0.0, 0.0, 0.0, 0.0, 0.0, 0.0, 0.0, 0.0, 0.0, 1.6820969294307213E9, 0.0, 2023-04-21 12:08:49.430
144.0, -53650.37812595107, -35393.026219967156, 187500.0, 187500.0, 187500.0, 187500.0, 187500.0, 187500.0, 0.062, 0.988, -0.008, 192.0, 0.0, 0.0, 0.0, 0.0, 0.0, 0.0, 0.0, 0.0, 0.0, 1.6820969294307308E9, 0.0, 2023-04-21 12:08:49.430
145.0, -53692.44410901596, -35498.83937821858, 187500.0, 187500.0, 187500.0, 187500.0, 187500.0, 187500.0, 0.062, 0.988, -0.008, 192.0, 0.0, 0.0, 0.0, 0.0, 0.0, 0.0, 0.0, 0.0, 0.0, 1.6820969294307406E9, 0.0, 2023-04-21 12:08:49.430
146.0, -53807.063854582775, -35479.54982275365, 187500.0, 187500.0, 187500.0, 187500.0, 187500.0, 187500.0, 0.062, 0.988, -0.008, 192.0, 0.0, 0.0, 0.0, 0.0, 0.0, 0.0, 0.0, 0.0, 0.0, 1.6820969294307504E9, 0.0, 2023-04-21 12:08:49.430
147.0, -53814.529337230844, -35422.508170903704, 187500.0, 187500.0, 187500.0, 187500.0, 187500.0, 187500.0, 0.062, 0.988, -0.008, 192.0, 0.0, 0.0, 0.0, 0.0, 0.0, 0.0, 0.0, 0.0, 0.0, 1.6820969294307601E9, 0.0, 2023-04-21 12:08:49.430
148.0, -53669.53357094927, -35387.371228619966, 187500.0, 187500.0, 187500.0, 187500.0, 187500.0, 187500.0, 0.062, 0.988, -0.008, 192.0, 0.0, 0.0, 0.0, 0.0, 0.0, 0.0, 0.0, 0.0, 0.0, 1.68209692943077E9, 0.0, 2023-04-21 12:08:49.430
149.0, -53650.892216073546, -35463.143642323455, 187500.0, 187500.0, 187500.0, 187500.0, 187500.0, 187500.0, 0.062, 0.988, -0.008, 192.0, 0.0, 0.0, 0.0, 0.0, 0.0, 0.0, 0.0, 0.0, 0.0, 1.6820969294307797E9, 0.0, 2023-04-21 12:08:49.430
150.0, -53773.35742394417, -35471.74906393875, 187500.0, 187500.0, 187500.0, 187500.0, 187500.0, 187500.0, 0.062, 0.988, -0.008, 192.0, 0.0, 0.0, 0.0, 0.0, 0.0, 0.0, 0.0, 0.0, 0.0, 1.6820969294308035E9, 0.0, 2023-04-21 12:08:49.430
151.0, -53824.76643619138, -35425.57035989408, 187500.0, 187500.0, 187500.0, 187500.0, 187500.0, 187500.0, 0.058, 0.99, -0.008, 192.0, 1.0, 208.0, 30.0, 240.0, 255.0, 192.0, 0.0, 0.0, 0.0, 1.6820969294308136E9, 0.0, 2023-04-21 12:08:49.430
152.0, -53688.91253339202, -35375.56950754756, 187500.0, 187500.0, 187500.0, 187500.0, 187500.0, 187500.0, 0.058, 0.99, -0.008, 192.0, 0.0, 0.0, 0.0, 0.0, 0.0, 0.0, 0.0, 0.0, 0.0, 1.682096929430824E9, 0.0, 2023-04-21 12:08:49.430
153.0, -53644.320803203686, -35452.59361894055, 187500.0, 187500.0, 187500.0, 187500.0, 187500.0, 187500.0, 0.058, 0.99, -0.008, 192.0, 0.0, 0.0, 0.0, 0.0, 0.0, 0.0, 0.0, 0.0, 0.0, 1.6820969294308338E9, 0.0, 2023-04-21 12:08:49.430
154.0, -53753.084391723205, -35481.36031405453, 187500.0, 187500.0, 187500.0, 187500.0, 187500.0, 187500.0, 0.058, 0.99, -0.008, 192.0, 0.0, 0.0, 0.0, 0.0, 0.0, 0.0, 0.0, 0.0, 0.0, 1.6820969294308455E9, 0.0, 2023-04-21 12:08:49.430
155.0, -53822.68772395703, -35432.29823497513, 187500.0, 187500.0, 187500.0, 187500.0, 187500.0, 187500.0, 0.058, 0.99, -0.008, 192.0, 0.0, 0.0, 0.0, 0.0, 0.0, 0.0, 0.0, 0.0, 0.0, 1.6820969294308555E9, 0.0, 2023-04-21 12:08:49.430
156.0, -53713.2759348483, -35380.59865005001, 187500.0, 187500.0, 187500.0, 187500.0, 187500.0, 187500.0, 0.058, 0.99, -0.008, 192.0, 0.0, 0.0, 0.0, 0.0, 0.0, 0.0, 0.0, 0.0, 0.0, 1.6820969294308653E9, 0.0, 2023-04-21 12:08:49.430
157.0, -53640.92333804647, -35444.03290081416, 187500.0, 187500.0, 187500.0, 187500.0, 187500.0, 187500.0, 0.058, 0.99, -0.008, 192.0, 0.0, 0.0, 0.0, 0.0, 0.0, 0.0, 0.0, 0.0, 0.0, 1.6820969294308753E9, 0.0, 2023-04-21 12:08:49.430
158.0, -53746.02124047533, -35503.26502362073, 187500.0, 187500.0, 187500.0, 187500.0, 187500.0, 187500.0, 0.058, 0.99, -0.008, 192.0, 0.0, 0.0, 0.0, 0.0, 0.0, 0.0, 0.0, 0.0, 0.0, 1.682096929430885E9, 0.0, 2023-04-21 12:08:49.430
159.0, -53833.774189206866, -35451.00664508422, 187500.0, 187500.0, 187500.0, 187500.0, 187500.0, 187500.0, 0.058, 0.99, -0.008, 192.0, 0.0, 0.0, 0.0, 0.0, 0.0, 0.0, 0.0, 0.0, 0.0, 1.6820969294308949E9, 0.0, 2023-04-21 12:08:49.430
160.0, -53753.35261265667, -35396.60249908001, 187500.0, 187500.0, 187500.0, 187500.0, 187500.0, 187500.0, 0.058, 0.99, -0.008, 192.0, 0.0, 0.0, 0.0, 0.0, 0.0, 0.0, 0.0, 0.0, 0.0, 1.6820969294309044E9, 0.0, 2023-04-21 12:08:49.430
161.0, -53627.08760822864, -35410.68409808685, 187500.0, 187500.0, 187500.0, 187500.0, 187500.0, 187500.0, 0.058, 0.99, -0.012, 192.0, 1.0, 208.0, 30.0, 240.0, 255.0, 160.0, 0.0, 0.0, 0.0, 1.6820969294309142E9, 0.0, 2023-04-21 12:08:49.430
162.0, -53704.223478343905, -35485.0260001452, 187500.0, 187500.0, 187500.0, 187500.0, 187500.0, 187500.0, 0.058, 0.99, -0.012, 192.0, 0.0, 0.0, 0.0, 0.0, 0.0, 0.0, 0.0, 0.0, 0.0, 1.6820969294309244E9, 0.0, 2023-04-21 12:08:49.430
163.0, -53813.43410175254, -35450.000816583735, 187500.0, 187500.0, 187500.0, 187500.0, 187500.0, 187500.0, 0.058, 0.99, -0.012, 192.0, 0.0, 0.0, 0.0, 0.0, 0.0, 0.0, 0.0, 0.0, 0.0, 1.6820969294309344E9, 0.0, 2023-04-21 12:08:49.430
164.0, -53771.56928438775, -35401.63164158245, 187500.0, 187500.0, 187500.0, 187500.0, 187500.0, 187500.0, 0.058, 0.99, -0.012, 192.0, 0.0, 0.0, 0.0, 0.0, 0.0, 0.0, 0.0, 0.0, 0.0, 1.682096929430944E9, 0.0, 2023-04-21 12:08:49.430
165.0, -53638.576404878666, -35404.760885806194, 187500.0, 187500.0, 187500.0, 187500.0, 187500.0, 187500.0, 0.058, 0.99, -0.012, 192.0, 0.0, 0.0, 0.0, 0.0, 0.0, 0.0, 0.0, 0.0, 0.0, 1.6820969294309652E9, 0.0, 2023-04-21 12:08:49.430
166.0, -53695.416891028515, -35493.72082873831, 187500.0, 187500.0, 187500.0, 187500.0, 187500.0, 187500.0, 0.058, 0.99, -0.012, 192.0, 0.0, 0.0, 0.0, 0.0, 0.0, 0.0, 0.0, 0.0, 0.0, 1.6820969294309752E9, 0.0, 2023-04-21 12:08:49.430
167.0, -53820.0055146224, -35471.816119172116, 187500.0, 187500.0, 187500.0, 187500.0, 187500.0, 187500.0, 0.058, 0.99, -0.012, 192.0, 0.0, 0.0, 0.0, 0.0, 0.0, 0.0, 0.0, 0.0, 0.0, 1.6820969294309847E9, 0.0, 2023-04-21 12:08:49.430
168.0, -53794.70333989899, -35408.605385852505, 187500.0, 187500.0, 187500.0, 187500.0, 187500.0, 187500.0, 0.058, 0.99, -0.012, 192.0, 0.0, 0.0, 0.0, 0.0, 0.0, 0.0, 0.0, 0.0, 0.0, 1.6820969294309945E9, 0.0, 2023-04-21 12:08:49.430
169.0, -53652.03215504076, -35392.55683333359, 187500.0, 187500.0, 187500.0, 187500.0, 187500.0, 187500.0, 0.058, 0.99, -0.012, 192.0, 0.0, 0.0, 0.0, 0.0, 0.0, 0.0, 0.0, 0.0, 0.0, 1.6820969294310043E9, 0.0, 2023-04-21 12:08:49.431
170.0, -53663.319785990694, -35474.69949420685, 187500.0, 187500.0, 187500.0, 187500.0, 187500.0, 187500.0, 0.058, 0.99, -0.012, 192.0, 0.0, 0.0, 0.0, 0.0, 0.0, 0.0, 0.0, 0.0, 0.0, 1.682096929431014E9, 0.0, 2023-04-21 12:08:49.431
171.0, -53781.87343858164, -35463.52362197919, 187500.0, 187500.0, 187500.0, 187500.0, 187500.0, 187500.0, 0.058, 0.99, -0.012, 192.0, 0.0, 0.0, 0.0, 0.0, 0.0, 0.0, 0.0, 0.0, 0.0, 1.6820969294310236E9, 0.0, 2023-04-21 12:08:49.431
172.0, -53800.626552179645, -35408.13599921895, 187500.0, 187500.0, 187500.0, 187500.0, 187500.0, 187500.0, 0.054, 0.996, -0.012, 192.0, 1.0, 176.0, 31.0, 32.0, 255.0, 160.0, 0.0, 0.0, 0.0, 1.6820969294310338E9, 0.0, 2023-04-21 12:08:49.431
173.0, -53658.67062314399, -35374.966010447264, 187500.0, 187500.0, 187500.0, 187500.0, 187500.0, 187500.0, 0.054, 0.996, -0.012, 192.0, 0.0, 0.0, 0.0, 0.0, 0.0, 0.0, 0.0, 0.0, 0.0, 1.6820969294310448E9, 0.0, 2023-04-21 12:08:49.431
174.0, -53636.676506599964, -35453.82296488559, 187500.0, 187500.0, 187500.0, 187500.0, 187500.0, 187500.0, 0.054, 0.996, -0.012, 192.0, 0.0, 0.0, 0.0, 0.0, 0.0, 0.0, 0.0, 0.0, 0.0, 1.6820969294310577E9, 0.0, 2023-04-21 12:08:49.431
175.0, -53750.424534133024, -35461.62372370049, 187500.0, 187500.0, 187500.0, 187500.0, 187500.0, 187500.0, 0.054, 0.996, -0.012, 192.0, 0.0, 0.0, 0.0, 0.0, 0.0, 0.0, 0.0, 0.0, 0.0, 1.682096929431069E9, 0.0, 2023-04-21 12:08:49.431
176.0, -53797.45260446699, -35405.252624184206, 187500.0, 187500.0, 187500.0, 187500.0, 187500.0, 187500.0, 0.054, 0.996, -0.012, 192.0, 0.0, 0.0, 0.0, 0.0, 0.0, 0.0, 0.0, 0.0, 0.0, 1.682096929431079E9, 0.0, 2023-04-21 12:08:49.431
177.0, -53670.38293723857, -35359.811527706566, 187500.0, 187500.0, 187500.0, 187500.0, 187500.0, 187500.0, 0.054, 0.996, -0.012, 192.0, 0.0, 0.0, 0.0, 0.0, 0.0, 0.0, 0.0, 0.0, 0.0, 1.6820969294310887E9, 0.0, 2023-04-21 12:08:49.431
178.0, -53608.91563998647, -35420.72003134728, 187500.0, 187500.0, 187500.0, 187500.0, 187500.0, 187500.0, 0.054, 0.996, -0.012, 192.0, 0.0, 0.0, 0.0, 0.0, 0.0, 0.0, 0.0, 0.0, 0.0, 1.6820969294310985E9, 0.0, 2023-04-21 12:08:49.431
179.0, -53724.25064137586, -35465.89290689146, 187500.0, 187500.0, 187500.0, 187500.0, 187500.0, 187500.0, 0.054, 0.996, -0.012, 192.0, 0.0, 0.0, 0.0, 0.0, 0.0, 0.0, 0.0, 0.0, 0.0, 1.682096929431108E9, 0.0, 2023-04-21 12:08:49.431
180.0, -53809.09786332821, -35426.82205758358, 187500.0, 187500.0, 187500.0, 187500.0, 187500.0, 187500.0, 0.054, 0.996, -0.012, 192.0, 0.0, 0.0, 0.0, 0.0, 0.0, 0.0, 0.0, 0.0, 0.0, 1.68209692943113E9, 0.0, 2023-04-21 12:08:49.431
181.0, -53712.51597553682, -35379.659876782884, 187500.0, 187500.0, 187500.0, 187500.0, 187500.0, 187500.0, 0.054, 0.996, -0.012, 192.0, 0.0, 0.0, 0.0, 0.0, 0.0, 0.0, 0.0, 0.0, 0.0, 1.6820969294311397E9, 0.0, 2023-04-21 12:08:49.431
182.0, -53620.963230247886, -35422.75404009272, 187500.0, 187500.0, 187500.0, 187500.0, 187500.0, 187500.0, 0.048, 0.996, -0.016, 192.0, 1.0, 128.0, 31.0, 32.0, 255.0, 128.0, 0.0, 0.0, 0.0, 1.6820969294311495E9, 0.0, 2023-04-21 12:08:49.431
183.0, -53713.588859270676, -35477.51581400821, 187500.0, 187500.0, 187500.0, 187500.0, 187500.0, 187500.0, 0.048, 0.996, -0.016, 192.0, 0.0, 0.0, 0.0, 0.0, 0.0, 0.0, 0.0, 0.0, 0.0, 1.6820969294311597E9, 0.0, 2023-04-21 12:08:49.431
184.0, -53809.38843600613, -35429.32545296258, 187500.0, 187500.0, 187500.0, 187500.0, 187500.0, 187500.0, 0.048, 0.996, -0.016, 192.0, 0.0, 0.0, 0.0, 0.0, 0.0, 0.0, 0.0, 0.0, 0.0, 1.6820969294311695E9, 0.0, 2023-04-21 12:08:49.431
185.0, -53730.15150191206, -35368.88633595542, 187500.0, 187500.0, 187500.0, 187500.0, 187500.0, 187500.0, 0.048, 0.996, -0.016, 192.0, 0.0, 0.0, 0.0, 0.0, 0.0, 0.0, 0.0, 0.0, 0.0, 1.6820969294311793E9, 0.0, 2023-04-21 12:08:49.431
186.0, -53606.99338996332, -35389.42758910985, 187500.0, 187500.0, 187500.0, 187500.0, 187500.0, 187500.0, 0.048, 0.996, -0.016, 192.0, 0.0, 0.0, 0.0, 0.0, 0.0, 0.0, 0.0, 0.0, 0.0, 1.6820969294311893E9, 0.0, 2023-04-21 12:08:49.431
187.0, -53692.53351599378, -35478.588697742074, 187500.0, 187500.0, 187500.0, 187500.0, 187500.0, 187500.0, 0.048, 0.996, -0.016, 192.0, 0.0, 0.0, 0.0, 0.0, 0.0, 0.0, 0.0, 0.0, 0.0, 1.6820969294311988E9, 0.0, 2023-04-21 12:08:49.431
188.0, -53802.45939522498, -35440.94836007933, 187500.0, 187500.0, 187500.0, 187500.0, 187500.0, 187500.0, 0.048, 0.996, -0.016, 192.0, 0.0, 0.0, 0.0, 0.0, 0.0, 0.0, 0.0, 0.0, 0.0, 1.6820969294312084E9, 0.0, 2023-04-21 12:08:49.431
189.0, -53764.37202267314, -35391.70746704429, 187500.0, 187500.0, 187500.0, 187500.0, 187500.0, 187500.0, 0.048, 0.996, -0.016, 192.0, 0.0, 0.0, 0.0, 0.0, 0.0, 0.0, 0.0, 0.0, 0.0, 1.6820969294312181E9, 0.0, 2023-04-21 12:08:49.431
190.0, -53624.13717796054, -35387.90767048689, 187500.0, 187500.0, 187500.0, 187500.0, 187500.0, 187500.0, 0.048, 0.996, -0.016, 192.0, 0.0, 0.0, 0.0, 0.0, 0.0, 0.0, 0.0, 0.0, 0.0, 1.682096929431228E9, 0.0, 2023-04-21 12:08:49.431
191.0, -53657.35187022113, -35466.04936910264, 187500.0, 187500.0, 187500.0, 187500.0, 187500.0, 187500.0, 0.048, 0.996, -0.016, 192.0, 0.0, 0.0, 0.0, 0.0, 0.0, 0.0, 0.0, 0.0, 0.0, 1.6820969294312377E9, 0.0, 2023-04-21 12:08:49.431
192.0, -53779.12417401364, -35447.899752604935, 187500.0, 187500.0, 187500.0, 187500.0, 187500.0, 187500.0, 0.052000000000000005, 0.994, -0.014, 192.0, 1.0, 160.0, 31.0, 16.0, 255.0, 144.0, 0.0, 0.0, 0.0, 1.6820969294312472E9, 0.0, 2023-04-21 12:08:49.431
193.0, -53785.27090373885, -35407.01841199618, 187500.0, 187500.0, 187500.0, 187500.0, 187500.0, 187500.0, 0.052000000000000005, 0.994, -0.014, 192.0, 0.0, 0.0, 0.0, 0.0, 0.0, 0.0, 0.0, 0.0, 0.0, 1.6820969294312575E9, 0.0, 2023-04-21 12:08:49.431
194.0, -53633.413151909495, -35373.513147057674, 187500.0, 187500.0, 187500.0, 187500.0, 187500.0, 187500.0, 0.052000000000000005, 0.994, -0.014, 192.0, 0.0, 0.0, 0.0, 0.0, 0.0, 0.0, 0.0, 0.0, 0.0, 1.6820969294312675E9, 0.0, 2023-04-21 12:08:49.431
195.0, -53644.49961715932, -35463.09893883454, 187500.0, 187500.0, 187500.0, 187500.0, 187500.0, 187500.0, 0.052000000000000005, 0.994, -0.014, 192.0, 0.0, 0.0, 0.0, 0.0, 0.0, 0.0, 0.0, 0.0, 0.0, 1.6820969295248775E9, 0.0, 2023-04-21 12:08:49.524
196.0, -53756.88418828061, -35447.83269737157, 187500.0, 187500.0, 187500.0, 187500.0, 187500.0, 187500.0, 0.052000000000000005, 0.994, -0.014, 192.0, 0.0, 0.0, 0.0, 0.0, 0.0, 0.0, 0.0, 0.0, 0.0, 1.6820969295249107E9, 0.0, 2023-04-21 12:08:49.524
197.0, -53786.52260142835, -35399.016487481174, 187500.0, 187500.0, 187500.0, 187500.0, 187500.0, 187500.0, 0.052000000000000005, 0.994, -0.014, 192.0, 0.0, 0.0, 0.0, 0.0, 0.0, 0.0, 0.0, 0.0, 0.0, 1.682096929524923E9, 0.0, 2023-04-21 12:08:49.524
198.0, -53648.14295150554, -35364.147766130896, 187500.0, 187500.0, 187500.0, 187500.0, 187500.0, 187500.0, 0.052000000000000005, 0.994, -0.014, 192.0, 0.0, 0.0, 0.0, 0.0, 0.0, 0.0, 0.0, 0.0, 0.0, 1.6820969295249348E9, 0.0, 2023-04-21 12:08:49.524
199.0, -53623.64543958252, -35446.715110148805, 187500.0, 187500.0, 187500.0, 187500.0, 187500.0, 187500.0, 0.052000000000000005, 0.994, -0.014, 192.0, 0.0, 0.0, 0.0, 0.0, 0.0, 0.0, 0.0, 0.0, 0.0, 1.6820969295249462E9, 0.0, 2023-04-21 12:08:49.524
200.0, -53732.945469968974, -35456.79574689815, 187500.0, 187500.0, 187500.0, 187500.0, 187500.0, 187500.0, 0.052000000000000005, 0.994, -0.014, 192.0, 0.0, 0.0, 0.0, 0.0, 0.0, 0.0, 0.0, 0.0, 0.0, 1.6820969295249577E9, 0.0, 2023-04-21 12:08:49.524
201.0, -53791.84231660871, -35408.42657189686, 187500.0, 187500.0, 187500.0, 187500.0, 187500.0, 187500.0, 0.052000000000000005, 0.994, -0.014, 192.0, 0.0, 0.0, 0.0, 0.0, 0.0, 0.0, 0.0, 0.0, 0.0, 1.682096929524969E9, 0.0, 2023-04-21 12:08:49.524
202.0, -53679.07776583169, -35368.28283885513, 187500.0, 187500.0, 187500.0, 187500.0, 187500.0, 187500.0, 0.058, 0.996, -0.01, 192.0, 1.0, 208.0, 31.0, 32.0, 255.0, 176.0, 0.0, 0.0, 0.0, 1.6820969295249805E9, 0.0, 2023-04-21 12:08:49.524
203.0, -53596.84569798061, -35412.22636845426, 187500.0, 187500.0, 187500.0, 187500.0, 187500.0, 187500.0, 0.058, 0.996, -0.01, 192.0, 0.0, 0.0, 0.0, 0.0, 0.0, 0.0, 0.0, 0.0, 0.0, 1.6820969295249937E9, 0.0, 2023-04-21 12:08:49.524
204.0, -53707.799757456756, -35460.617895200005, 187500.0, 187500.0, 187500.0, 187500.0, 187500.0, 187500.0, 0.058, 0.996, -0.01, 192.0, 0.0, 0.0, 0.0, 0.0, 0.0, 0.0, 0.0, 0.0, 0.0, 1.682096929525005E9, 0.0, 2023-04-21 12:08:49.525
205.0, -53790.05417705228, -35414.260377199695, 187500.0, 187500.0, 187500.0, 187500.0, 187500.0, 187500.0, 0.058, 0.996, -0.01, 192.0, 0.0, 0.0, 0.0, 0.0, 0.0, 0.0, 0.0, 0.0, 0.0, 1.6820969295250163E9, 0.0, 2023-04-21 12:08:49.525
206.0, -53703.55292601025, -35372.328504601544, 187500.0, 187500.0, 187500.0, 187500.0, 187500.0, 187500.0, 0.058, 0.996, -0.01, 192.0, 0.0, 0.0, 0.0, 0.0, 0.0, 0.0, 0.0, 0.0, 0.0, 1.682096929525028E9, 0.0, 2023-04-21 12:08:49.525
207.0, -53613.2518784108, -35419.311871446596, 187500.0, 187500.0, 187500.0, 187500.0, 187500.0, 187500.0, 0.058, 0.996, -0.01, 192.0, 0.0, 0.0, 0.0, 0.0, 0.0, 0.0, 0.0, 0.0, 0.0, 1.6820969295250397E9, 0.0, 2023-04-21 12:08:49.525
208.0, -53702.904725421045, -35484.042523389166, 187500.0, 187500.0, 187500.0, 187500.0, 187500.0, 187500.0, 0.058, 0.996, -0.01, 192.0, 0.0, 0.0, 0.0, 0.0, 0.0, 0.0, 0.0, 0.0, 0.0, 1.682096929525051E9, 0.0, 2023-04-21 12:08:49.525
209.0, -53798.324322500746, -35437.10386003302, 187500.0, 187500.0, 187500.0, 187500.0, 187500.0, 187500.0, 0.058, 0.996, -0.01, 192.0, 0.0, 0.0, 0.0, 0.0, 0.0, 0.0, 0.0, 0.0, 0.0, 1.6820969295250623E9, 0.0, 2023-04-21 12:08:49.525
210.0, -53740.20978691695, -35389.807568765595, 187500.0, 187500.0, 187500.0, 187500.0, 187500.0, 187500.0, 0.058, 0.996, -0.01, 192.0, 0.0, 0.0, 0.0, 0.0, 0.0, 0.0, 0.0, 0.0, 0.0, 1.6820969295250757E9, 0.0, 2023-04-21 12:08:49.525
211.0, -53614.7047418004, -35399.61998458147, 187500.0, 187500.0, 187500.0, 187500.0, 187500.0, 187500.0, 0.058, 0.996, -0.01, 192.0, 0.0, 0.0, 0.0, 0.0, 0.0, 0.0, 0.0, 0.0, 0.0, 1.682096929525141E9, 0.0, 2023-04-21 12:08:49.525
212.0, -53671.992262839354, -35470.340904038065, 187500.0, 187500.0, 187500.0, 187500.0, 187500.0, 187500.0, 0.058, 0.996, -0.01, 192.0, 0.0, 0.0, 0.0, 0.0, 0.0, 0.0, 0.0, 0.0, 0.0, 1.6820969295251527E9, 0.0, 2023-04-21 12:08:49.525
213.0, -53785.60617990568, -35439.13786877845, 187500.0, 187500.0, 187500.0, 187500.0, 187500.0, 187500.0, 0.066, 0.99, -0.006, 192.0, 2.0, 16.0, 30.0, 240.0, 255.0, 208.0, 0.0, 0.0, 0.0, 1.6820969295251644E9, 0.0, 2023-04-21 12:08:49.525
214.0, -53761.51099938286, -35392.33331588904, 187500.0, 187500.0, 187500.0, 187500.0, 187500.0, 187500.0, 0.066, 0.99, -0.006, 192.0, 0.0, 0.0, 0.0, 0.0, 0.0, 0.0, 0.0, 0.0, 0.0, 1.6820969295251768E9, 0.0, 2023-04-21 12:08:49.525
215.0, -53619.197442435914, -35379.39165584942, 187500.0, 187500.0, 187500.0, 187500.0, 187500.0, 187500.0, 0.066, 0.99, -0.006, 192.0, 0.0, 0.0, 0.0, 0.0, 0.0, 0.0, 0.0, 0.0, 0.0, 1.6820969295251884E9, 0.0, 2023-04-21 12:08:49.525
216.0, -53642.219739224885, -35454.02413058569, 187500.0, 187500.0, 187500.0, 187500.0, 187500.0, 187500.0, 0.066, 0.99, -0.006, 192.0, 0.0, 0.0, 0.0, 0.0, 0.0, 0.0, 0.0, 0.0, 0.0, 1.6820969295251997E9, 0.0, 2023-04-21 12:08:49.525
217.0, -53763.52265638384, -35438.62377865598, 187500.0, 187500.0, 187500.0, 187500.0, 187500.0, 187500.0, 0.066, 0.99, -0.006, 192.0, 0.0, 0.0, 0.0, 0.0, 0.0, 0.0, 0.0, 0.0, 0.0, 1.682096929525211E9, 0.0, 2023-04-21 12:08:49.525
218.0, -53767.1883424745, -35388.332353631544, 187500.0, 187500.0, 187500.0, 187500.0, 187500.0, 187500.0, 0.066, 0.99, -0.006, 192.0, 0.0, 0.0, 0.0, 0.0, 0.0, 0.0, 0.0, 0.0, 0.0, 1.6820969298557389E9, 0.0, 2023-04-21 12:08:49.855
219.0, -53625.72415181687, -35362.739606230214, 187500.0, 187500.0, 187500.0, 187500.0, 187500.0, 187500.0, 0.066, 0.99, -0.006, 192.0, 0.0, 0.0, 0.0, 0.0, 0.0, 0.0, 0.0, 0.0, 0.0, 1.6820969298557725E9, 0.0, 2023-04-21 12:08:49.855
220.0, -53635.13423623255, -35457.622761442995, 187500.0, 187500.0, 187500.0, 187500.0, 187500.0, 187500.0, 0.066, 0.99, -0.006, 192.0, 0.0, 0.0, 0.0, 0.0, 0.0, 0.0, 0.0, 0.0, 0.0, 1.682096929855795E9, 0.0, 2023-04-21 12:08:49.855
221.0, -53750.51394111085, -35453.15241255193, 187500.0, 187500.0, 187500.0, 187500.0, 187500.0, 187500.0, 0.066, 0.99, -0.006, 192.0, 0.0, 0.0, 0.0, 0.0, 0.0, 0.0, 0.0, 0.0, 0.0, 1.6820969298558173E9, 0.0, 2023-04-21 12:08:49.855
222.0, -53775.74906060089, -35390.83574901053, 187500.0, 187500.0, 187500.0, 187500.0, 187500.0, 187500.0, 0.066, 0.99, -0.006, 192.0, 0.0, 0.0, 0.0, 0.0, 0.0, 0.0, 0.0, 0.0, 0.0, 1.6820969298558393E9, 0.0, 2023-04-21 12:08:49.855
223.0, -53647.584157894154, -35356.48111778273, 187500.0, 187500.0, 187500.0, 187500.0, 187500.0, 187500.0, 0.07, 0.986, -0.01, 192.0, 2.0, 48.0, 30.0, 208.0, 255.0, 176.0, 0.0, 0.0, 0.0, 1.6820969298558536E9, 0.0, 2023-04-21 12:08:49.855
224.0, -53608.155680674994, -35429.2136942403, 187500.0, 187500.0, 187500.0, 187500.0, 187500.0, 187500.0, 0.07, 0.986, -0.01, 192.0, 0.0, 0.0, 0.0, 0.0, 0.0, 0.0, 0.0, 0.0, 0.0, 1.682096929855869E9, 0.0, 2023-04-21 12:08:49.855
225.0, -53712.49362379237, -35440.50132519023, 187500.0, 187500.0, 187500.0, 187500.0, 187500.0, 187500.0, 0.07, 0.986, -0.01, 192.0, 0.0, 0.0, 0.0, 0.0, 0.0, 0.0, 0.0, 0.0, 0.0, 1.6820969298558834E9, 0.0, 2023-04-21 12:08:49.855
226.0, -53782.00754904837, -35394.74730429021, 187500.0, 187500.0, 187500.0, 187500.0, 187500.0, 187500.0, 0.07, 0.986, -0.01, 192.0, 0.0, 0.0, 0.0, 0.0, 0.0, 0.0, 0.0, 0.0, 0.0, 1.6820969298559554E9, 0.0, 2023-04-21 12:08:49.855
227.0, -53666.02434706978, -35345.95344614428, 187500.0, 187500.0, 187500.0, 187500.0, 187500.0, 187500.0, 0.07, 0.986, -0.01, 192.0, 0.0, 0.0, 0.0, 0.0, 0.0, 0.0, 0.0, 0.0, 0.0, 1.6820969298559697E9, 0.0, 2023-04-21 12:08:49.855
228.0, -53590.94483744441, -35402.77158054967, 187500.0, 187500.0, 187500.0, 187500.0, 187500.0, 187500.0, 0.07, 0.986, -0.01, 192.0, 0.0, 0.0, 0.0, 0.0, 0.0, 0.0, 0.0, 0.0, 0.0, 1.6820969298559835E9, 0.0, 2023-04-21 12:08:49.855
229.0, -53704.69286497746, -35459.67912193288, 187500.0, 187500.0, 187500.0, 187500.0, 187500.0, 187500.0, 0.07, 0.986, -0.01, 192.0, 0.0, 0.0, 0.0, 0.0, 0.0, 0.0, 0.0, 0.0, 0.0, 1.6820969298559976E9, 0.0, 2023-04-21 12:08:49.855
230.0, -53783.92979907153, -35403.86681602798, 187500.0, 187500.0, 187500.0, 187500.0, 187500.0, 187500.0, 0.07, 0.986, -0.01, 192.0, 0.0, 0.0, 0.0, 0.0, 0.0, 0.0, 0.0, 0.0, 0.0, 1.6820969298560116E9, 0.0, 2023-04-21 12:08:49.856
231.0, -53689.82895491469, -35347.451013022786, 187500.0, 187500.0, 187500.0, 187500.0, 187500.0, 187500.0, 0.07, 0.986, -0.01, 192.0, 0.0, 0.0, 0.0, 0.0, 0.0, 0.0, 0.0, 0.0, 0.0, 1.6820969298560257E9, 0.0, 2023-04-21 12:08:49.856
232.0, -53587.99440717631, -35386.2536413972, 187500.0, 187500.0, 187500.0, 187500.0, 187500.0, 187500.0, 0.07, 0.986, -0.01, 192.0, 0.0, 0.0, 0.0, 0.0, 0.0, 0.0, 0.0, 0.0, 0.0, 1.6820969298560395E9, 0.0, 2023-04-21 12:08:49.856
233.0, -53676.395556497046, -35455.3205317641, 187500.0, 187500.0, 187500.0, 187500.0, 187500.0, 187500.0, 0.068, 0.996, -0.018000000000000002, 192.0, 2.0, 32.0, 31.0, 32.0, 255.0, 112.0, 0.0, 0.0, 0.0, 1.6820969298560536E9, 0.0, 2023-04-21 12:08:49.856
234.0, -53768.8423715642, -35402.99509799422, 187500.0, 187500.0, 187500.0, 187500.0, 187500.0, 187500.0, 0.068, 0.996, -0.018000000000000002, 192.0, 0.0, 0.0, 0.0, 0.0, 0.0, 0.0, 0.0, 0.0, 0.0, 1.6820969298560688E9, 0.0, 2023-04-21 12:08:49.856
235.0, -53715.7793302273, -35355.117661370954, 187500.0, 187500.0, 187500.0, 187500.0, 187500.0, 187500.0, 0.068, 0.996, -0.018000000000000002, 192.0, 0.0, 0.0, 0.0, 0.0, 0.0, 0.0, 0.0, 0.0, 0.0, 1.6820969298560827E9, 0.0, 2023-04-21 12:08:49.856
236.0, -53597.29273286972, -35376.62003953696, 187500.0, 187500.0, 187500.0, 187500.0, 187500.0, 187500.0, 0.068, 0.996, -0.018000000000000002, 192.0, 0.0, 0.0, 0.0, 0.0, 0.0, 0.0, 0.0, 0.0, 0.0, 1.6820969298560965E9, 0.0, 2023-04-21 12:08:49.856
237.0, -53660.57052142269, -35463.903601634935, 187500.0, 187500.0, 187500.0, 187500.0, 187500.0, 187500.0, 0.068, 0.996, -0.018000000000000002, 192.0, 0.0, 0.0, 0.0, 0.0, 0.0, 0.0, 0.0, 0.0, 0.0, 1.6820969298561103E9, 0.0, 2023-04-21 12:08:49.856
238.0, -53773.849162322185, -35430.554798907615, 187500.0, 187500.0, 187500.0, 187500.0, 187500.0, 187500.0, 0.068, 0.996, -0.018000000000000002, 192.0, 0.0, 0.0, 0.0, 0.0, 0.0, 0.0, 0.0, 0.0, 0.0, 1.6820969298561246E9, 0.0, 2023-04-21 12:08:49.856
239.0, -53752.391487645094, -35381.51507157267, 187500.0, 187500.0, 187500.0, 187500.0, 187500.0, 187500.0, 0.068, 0.996, -0.018000000000000002, 192.0, 0.0, 0.0, 0.0, 0.0, 0.0, 0.0, 0.0, 0.0, 0.0, 1.6820969298561447E9, 0.0, 2023-04-21 12:08:49.856
240.0, -53609.4520818534, -35365.958257431776, 187500.0, 187500.0, 187500.0, 187500.0, 187500.0, 187500.0, 0.068, 0.996, -0.018000000000000002, 192.0, 0.0, 0.0, 0.0, 0.0, 0.0, 0.0, 0.0, 0.0, 0.0, 1.682096929856162E9, 0.0, 2023-04-21 12:08:49.856
241.0, -53629.09926522962, -35446.49159270425, 187500.0, 187500.0, 187500.0, 187500.0, 187500.0, 187500.0, 0.068, 0.996, -0.018000000000000002, 192.0, 0.0, 0.0, 0.0, 0.0, 0.0, 0.0, 0.0, 0.0, 0.0, 1.6820969298561947E9, 0.0, 2023-04-21 12:08:49.856
242.0, -53756.03482199131, -35437.34972922203, 187500.0, 187500.0, 187500.0, 187500.0, 187500.0, 187500.0, 0.068, 0.996, -0.018000000000000002, 192.0, 0.0, 0.0, 0.0, 0.0, 0.0, 0.0, 0.0, 0.0, 0.0, 1.6820969298562088E9, 0.0, 2023-04-21 12:08:49.856
243.0, -53766.160162229564, -35382.00680995069, 187500.0, 187500.0, 187500.0, 187500.0, 187500.0, 187500.0, 0.07200000000000001, 0.992, -0.014, 192.0, 2.0, 64.0, 31.0, 0.0, 255.0, 144.0, 0.0, 0.0, 0.0, 1.682096929856223E9, 0.0, 2023-04-21 12:08:49.856
244.0, -53630.03803849674, -35357.06226313856, 187500.0, 187500.0, 187500.0, 187500.0, 187500.0, 187500.0, 0.07200000000000001, 0.992, -0.014, 192.0, 0.0, 0.0, 0.0, 0.0, 0.0, 0.0, 0.0, 0.0, 0.0, 1.6820969298562388E9, 0.0, 2023-04-21 12:08:49.856
245.0, -53614.95061098941, -35433.39347045344, 187500.0, 187500.0, 187500.0, 187500.0, 187500.0, 187500.0, 0.07200000000000001, 0.992, -0.014, 192.0, 0.0, 0.0, 0.0, 0.0, 0.0, 0.0, 0.0, 0.0, 0.0, 1.682096929856254E9, 0.0, 2023-04-21 12:08:49.856
246.0, -53725.77055999882, -35430.95713030781, 187500.0, 187500.0, 187500.0, 187500.0, 187500.0, 187500.0, 0.07200000000000001, 0.992, -0.014, 192.0, 0.0, 0.0, 0.0, 0.0, 0.0, 0.0, 0.0, 0.0, 0.0, 1.682096929856269E9, 0.0, 2023-04-21 12:08:49.856
247.0, -53760.92985402702, -35374.31780985806, 187500.0, 187500.0, 187500.0, 187500.0, 187500.0, 187500.0, 0.07200000000000001, 0.992, -0.014, 192.0, 0.0, 0.0, 0.0, 0.0, 0.0, 0.0, 0.0, 0.0, 0.0, 1.682096929856284E9, 0.0, 2023-04-21 12:08:49.856
248.0, -53637.68233510046, -35339.58319897451, 187500.0, 187500.0, 187500.0, 187500.0, 187500.0, 187500.0, 0.07200000000000001, 0.992, -0.014, 192.0, 0.0, 0.0, 0.0, 0.0, 0.0, 0.0, 0.0, 0.0, 0.0, 1.6820969298562987E9, 0.0, 2023-04-21 12:08:49.856
249.0, -53585.55806703068, -35405.47614162876, 187500.0, 187500.0, 187500.0, 187500.0, 187500.0, 187500.0, 0.07200000000000001, 0.992, -0.014, 192.0, 0.0, 0.0, 0.0, 0.0, 0.0, 0.0, 0.0, 0.0, 0.0, 1.6820969298563137E9, 0.0, 2023-04-21 12:08:49.856
250.0, -53683.23519030037, -35423.26813021518, 187500.0, 187500.0, 187500.0, 187500.0, 187500.0, 187500.0, 0.07200000000000001, 0.992, -0.014, 192.0, 0.0, 0.0, 0.0, 0.0, 0.0, 0.0, 0.0, 0.0, 0.0, 1.6820969298563287E9, 0.0, 2023-04-21 12:08:49.856
251.0, -53748.09995270967, -35369.42277782235, 187500.0, 187500.0, 187500.0, 187500.0, 187500.0, 187500.0, 0.07200000000000001, 0.992, -0.014, 192.0, 0.0, 0.0, 0.0, 0.0, 0.0, 0.0, 0.0, 0.0, 0.0, 1.6820969298563437E9, 0.0, 2023-04-21 12:08:49.856
252.0, -53634.039000754245, -35313.00697481716, 187500.0, 187500.0, 187500.0, 187500.0, 187500.0, 187500.0, 0.07200000000000001, 0.992, -0.014, 192.0, 0.0, 0.0, 0.0, 0.0, 0.0, 0.0, 0.0, 0.0, 0.0, 1.6820969298563588E9, 0.0, 2023-04-21 12:08:49.856
253.0, -53551.85163639208, -35364.17011787536, 187500.0, 187500.0, 187500.0, 187500.0, 187500.0, 187500.0, 0.07200000000000001, 0.992, -0.014, 192.0, 0.0, 0.0, 0.0, 0.0, 0.0, 0.0, 0.0, 0.0, 0.0, 1.6820969298563735E9, 0.0, 2023-04-21 12:08:49.856
254.0, -53650.35577420662, -35414.841522555536, 187500.0, 187500.0, 187500.0, 187500.0, 187500.0, 187500.0, 0.07, 0.988, -0.012, 192.0, 2.0, 48.0, 30.0, 224.0, 255.0, 160.0, 0.0, 0.0, 0.0, 1.6820969298563888E9, 0.0, 2023-04-21 12:08:49.856
255.0, -53737.080542693206, -35364.37128357545, 187500.0, 187500.0, 187500.0, 187500.0, 187500.0, 187500.0, 0.07, 0.988, -0.012, 192.0, 0.0, 0.0, 0.0, 0.0, 0.0, 0.0, 0.0, 0.0, 0.0, 1.6820969298564043E9, 0.0, 2023-04-21 12:08:49.856
0.0, -53659.98937606685, -35317.49967545267, 187500.0, 187500.0, 187500.0, 187500.0, 187500.0, 187500.0, 0.07, 0.988, -0.012, 192.0, 0.0, 0.0, 0.0, 0.0, 0.0, 0.0, 0.0, 0.0, 0.0, 1.682096929856439E9, 0.0, 2023-04-21 12:08:49.856
1.0, -53541.03339207571, -35338.197390818284, 187500.0, 187500.0, 187500.0, 187500.0, 187500.0, 187500.0, 0.07, 0.988, -0.012, 192.0, 0.0, 0.0, 0.0, 0.0, 0.0, 0.0, 0.0, 0.0, 0.0, 1.6820969298564584E9, 0.0, 2023-04-21 12:08:49.856
2.0, -53615.285887156235, -35403.084504972045, 187500.0, 187500.0, 187500.0, 187500.0, 187500.0, 187500.0, 0.07, 0.988, -0.012, 192.0, 0.0, 0.0, 0.0, 0.0, 0.0, 0.0, 0.0, 0.0, 0.0, 1.6820969298564737E9, 0.0, 2023-04-21 12:08:49.856
3.0, -53731.51495832384, -35372.84259472401, 187500.0, 187500.0, 187500.0, 187500.0, 187500.0, 187500.0, 0.07, 0.988, -0.012, 192.0, 0.0, 0.0, 0.0, 0.0, 0.0, 0.0, 0.0, 0.0, 0.0, 1.6820969298564885E9, 0.0, 2023-04-21 12:08:49.856
4.0, -53687.794946169255, -35326.84270463499, 187500.0, 187500.0, 187500.0, 187500.0, 187500.0, 187500.0, 0.07, 0.988, -0.012, 192.0, 0.0, 0.0, 0.0, 0.0, 0.0, 0.0, 0.0, 0.0, 0.0, 1.6820969298565052E9, 0.0, 2023-04-21 12:08:49.856
5.0, -53560.23354056282, -35336.94569312879, 187500.0, 187500.0, 187500.0, 187500.0, 187500.0, 187500.0, 0.07, 0.988, -0.012, 192.0, 0.0, 0.0, 0.0, 0.0, 0.0, 0.0, 0.0, 0.0, 0.0, 1.6820969298565202E9, 0.0, 2023-04-21 12:08:49.856
6.0, -53593.917619456966, -35404.67147882837, 187500.0, 187500.0, 187500.0, 187500.0, 187500.0, 187500.0, 0.07, 0.988, -0.012, 192.0, 0.0, 0.0, 0.0, 0.0, 0.0, 0.0, 0.0, 0.0, 0.0, 1.6820969298565352E9, 0.0, 2023-04-21 12:08:49.856
7.0, -53717.14278663907, -35382.744417517715, 187500.0, 187500.0, 187500.0, 187500.0, 187500.0, 187500.0, 0.07, 0.988, -0.012, 192.0, 0.0, 0.0, 0.0, 0.0, 0.0, 0.0, 0.0, 0.0, 0.0, 1.68209692985655E9, 0.0, 2023-04-21 12:08:49.856
8.0, -53710.95135342495, -35336.56571347305, 187500.0, 187500.0, 187500.0, 187500.0, 187500.0, 187500.0, 0.07, 0.99, -0.02, 192.0, 2.0, 48.0, 30.0, 240.0, 255.0, 96.0, 0.0, 0.0, 0.0, 1.6820969298565648E9, 0.0, 2023-04-21 12:08:49.856
9.0, -53558.26658705075, -35308.357811970454, 187500.0, 187500.0, 187500.0, 187500.0, 187500.0, 187500.0, 0.07, 0.99, -0.02, 192.0, 0.0, 0.0, 0.0, 0.0, 0.0, 0.0, 0.0, 0.0, 0.0, 1.6820969298565805E9, 0.0, 2023-04-21 12:08:49.856
10.0, -53565.70971795437, -35386.67832454185, 187500.0, 187500.0, 187500.0, 187500.0, 187500.0, 187500.0, 0.07, 0.99, -0.02, 192.0, 0.0, 0.0, 0.0, 0.0, 0.0, 0.0, 0.0, 0.0, 0.0, 1.6820969298565955E9, 0.0, 2023-04-21 12:08:49.856
11.0, -53689.58308572568, -35380.17396690536, 187500.0, 187500.0, 187500.0, 187500.0, 187500.0, 187500.0, 0.07, 0.99, -0.02, 192.0, 0.0, 0.0, 0.0, 0.0, 0.0, 0.0, 0.0, 0.0, 0.0, 1.6820969298566105E9, 0.0, 2023-04-21 12:08:49.856
12.0, -53701.60832424263, -35319.2878150091, 187500.0, 187500.0, 187500.0, 187500.0, 187500.0, 187500.0, 0.07, 0.99, -0.02, 192.0, 0.0, 0.0, 0.0, 0.0, 0.0, 0.0, 0.0, 0.0, 0.0, 1.6820969298566256E9, 0.0, 2023-04-21 12:08:49.856
13.0, -53561.12761034103, -35285.715494837226, 187500.0, 187500.0, 187500.0, 187500.0, 187500.0, 187500.0, 0.07, 0.99, -0.02, 192.0, 0.0, 0.0, 0.0, 0.0, 0.0, 0.0, 0.0, 0.0, 0.0, 1.6820969298566403E9, 0.0, 2023-04-21 12:08:49.856
14.0, -53534.46197920585, -35359.69976898429, 187500.0, 187500.0, 187500.0, 187500.0, 187500.0, 187500.0, 0.07, 0.99, -0.02, 192.0, 0.0, 0.0, 0.0, 0.0, 0.0, 0.0, 0.0, 0.0, 0.0, 1.6820969298566551E9, 0.0, 2023-04-21 12:08:49.856
15.0, -53651.69687887393, -35369.22161212225, 187500.0, 187500.0, 187500.0, 187500.0, 187500.0, 187500.0, 0.07, 0.99, -0.02, 192.0, 0.0, 0.0, 0.0, 0.0, 0.0, 0.0, 0.0, 0.0, 0.0, 1.6820969298566883E9, 0.0, 2023-04-21 12:08:49.856
16.0, -53700.378978297595, -35315.7338876407, 187500.0, 187500.0, 187500.0, 187500.0, 187500.0, 187500.0, 0.07, 0.99, -0.02, 192.0, 0.0, 0.0, 0.0, 0.0, 0.0, 0.0, 0.0, 0.0, 0.0, 1.6820969298567033E9, 0.0, 2023-04-21 12:08:49.856
17.0, -53580.350110572595, -35278.853509289445, 187500.0, 187500.0, 187500.0, 187500.0, 187500.0, 187500.0, 0.07, 0.99, -0.02, 192.0, 0.0, 0.0, 0.0, 0.0, 0.0, 0.0, 0.0, 0.0, 0.0, 1.682096929856718E9, 0.0, 2023-04-21 12:08:49.856
18.0, -53528.42700820292, -35349.529725257125, 187500.0, 187500.0, 187500.0, 187500.0, 187500.0, 187500.0, 0.076, 0.994, -0.02, 192.0, 2.0, 96.0, 31.0, 16.0, 255.0, 96.0, 0.0, 0.0, 0.0, 1.682096929856733E9, 0.0, 2023-04-21 12:08:49.856
19.0, -53627.80286405121, -35373.37903659094, 187500.0, 187500.0, 187500.0, 187500.0, 187500.0, 187500.0, 0.076, 0.994, -0.02, 192.0, 0.0, 0.0, 0.0, 0.0, 0.0, 0.0, 0.0, 0.0, 0.0, 1.682096929856749E9, 0.0, 2023-04-21 12:08:49.856
20.0, -53714.080597648695, -35331.424812248326, 187500.0, 187500.0, 187500.0, 187500.0, 187500.0, 187500.0, 0.076, 0.994, -0.02, 192.0, 0.0, 0.0, 0.0, 0.0, 0.0, 0.0, 0.0, 0.0, 0.0, 1.682096929856764E9, 0.0, 2023-04-21 12:08:49.856
21.0, -53618.12455870206, -35288.9788495277, 187500.0, 187500.0, 187500.0, 187500.0, 187500.0, 187500.0, 0.076, 0.994, -0.02, 192.0, 0.0, 0.0, 0.0, 0.0, 0.0, 0.0, 0.0, 0.0, 0.0, 1.682096929856779E9, 0.0, 2023-04-21 12:08:49.856
22.0, -53530.572775670626, -35339.44908850778, 187500.0, 187500.0, 187500.0, 187500.0, 187500.0, 187500.0, 0.076, 0.994, -0.02, 192.0, 0.0, 0.0, 0.0, 0.0, 0.0, 0.0, 0.0, 0.0, 0.0, 1.682096929856794E9, 0.0, 2023-04-21 12:08:49.856
23.0, -53618.39277963553, -35389.159368176384, 187500.0, 187500.0, 187500.0, 187500.0, 187500.0, 187500.0, 0.076, 0.994, -0.02, 192.0, 0.0, 0.0, 0.0, 0.0, 0.0, 0.0, 0.0, 0.0, 0.0, 1.6820969298568091E9, 0.0, 2023-04-21 12:08:49.856
24.0, -53714.30411509325, -35344.41117577686, 187500.0, 187500.0, 187500.0, 187500.0, 187500.0, 187500.0, 0.076, 0.994, -0.02, 192.0, 0.0, 0.0, 0.0, 0.0, 0.0, 0.0, 0.0, 0.0, 0.0, 1.6820969298568242E9, 0.0, 2023-04-21 12:08:49.856
25.0, -53643.71730610339, -35295.639669375385, 187500.0, 187500.0, 187500.0, 187500.0, 187500.0, 187500.0, 0.076, 0.994, -0.02, 192.0, 0.0, 0.0, 0.0, 0.0, 0.0, 0.0, 0.0, 0.0, 0.0, 1.6820969298568392E9, 0.0, 2023-04-21 12:08:49.856
26.0, -53532.249156504775, -35321.81356213255, 187500.0, 187500.0, 187500.0, 187500.0, 187500.0, 187500.0, 0.076, 0.994, -0.02, 192.0, 0.0, 0.0, 0.0, 0.0, 0.0, 0.0, 0.0, 0.0, 0.0, 1.6820969298568556E9, 0.0, 2023-04-21 12:08:49.856
27.0, -53591.77185198926, -35383.39261810692, 187500.0, 187500.0, 187500.0, 187500.0, 187500.0, 187500.0, 0.076, 0.994, -0.02, 192.0, 0.0, 0.0, 0.0, 0.0, 0.0, 0.0, 0.0, 0.0, 0.0, 1.6820969298568704E9, 0.0, 2023-04-21 12:08:49.856
28.0, -53706.05632138924, -35351.094347369, 187500.0, 187500.0, 187500.0, 187500.0, 187500.0, 187500.0, 0.074, 0.992, -0.016, 192.0, 2.0, 80.0, 31.0, 0.0, 255.0, 128.0, 0.0, 0.0, 0.0, 1.6820969298568852E9, 0.0, 2023-04-21 12:08:49.856
29.0, -53668.706556404424, -35300.95938455575, 187500.0, 187500.0, 187500.0, 187500.0, 187500.0, 187500.0, 0.074, 0.992, -0.016, 192.0, 0.0, 0.0, 0.0, 0.0, 0.0, 0.0, 0.0, 0.0, 0.0, 1.6820969298569007E9, 0.0, 2023-04-21 12:08:49.856
30.0, -53524.135473267495, -35290.387009428385, 187500.0, 187500.0, 187500.0, 187500.0, 187500.0, 187500.0, 0.074, 0.992, -0.016, 192.0, 0.0, 0.0, 0.0, 0.0, 0.0, 0.0, 0.0, 0.0, 0.0, 1.6820969298569348E9, 0.0, 2023-04-21 12:08:49.856
31.0, -53562.75928768627, -35372.48496681273, 187500.0, 187500.0, 187500.0, 187500.0, 187500.0, 187500.0, 0.074, 0.992, -0.016, 192.0, 0.0, 0.0, 0.0, 0.0, 0.0, 0.0, 0.0, 0.0, 0.0, 1.68209692985695E9, 0.0, 2023-04-21 12:08:49.856
32.0, -53678.18369605347, -35343.07007110954, 187500.0, 187500.0, 187500.0, 187500.0, 187500.0, 187500.0, 0.074, 0.992, -0.016, 192.0, 0.0, 0.0, 0.0, 0.0, 0.0, 0.0, 0.0, 0.0, 0.0, 1.682096929856965E9, 0.0, 2023-04-21 12:08:49.856
33.0, -53677.13316406407, -35296.64549787587, 187500.0, 187500.0, 187500.0, 187500.0, 187500.0, 187500.0, 0.074, 0.992, -0.016, 192.0, 0.0, 0.0, 0.0, 0.0, 0.0, 0.0, 0.0, 0.0, 0.0, 1.6820969298569798E9, 0.0, 2023-04-21 12:08:49.856
34.0, -53540.005211830765, -35280.038151745575, 187500.0, 187500.0, 187500.0, 187500.0, 187500.0, 187500.0, 0.074, 0.992, -0.016, 192.0, 0.0, 0.0, 0.0, 0.0, 0.0, 0.0, 0.0, 0.0, 0.0, 1.6820969298569949E9, 0.0, 2023-04-21 12:08:49.856
35.0, -53542.8885868655, -35357.97868466123, 187500.0, 187500.0, 187500.0, 187500.0, 187500.0, 187500.0, 0.074, 0.992, -0.016, 192.0, 0.0, 0.0, 0.0, 0.0, 0.0, 0.0, 0.0, 0.0, 0.0, 1.68209692985701E9, 0.0, 2023-04-21 12:08:49.857
36.0, -53658.82708535517, -35347.00397813368, 187500.0, 187500.0, 187500.0, 187500.0, 187500.0, 187500.0, 0.074, 0.992, -0.016, 192.0, 0.0, 0.0, 0.0, 0.0, 0.0, 0.0, 0.0, 0.0, 0.0, 1.682096929857025E9, 0.0, 2023-04-21 12:08:49.857
37.0, -53683.54811472275, -35297.80778858755, 187500.0, 187500.0, 187500.0, 187500.0, 187500.0, 187500.0, 0.074, 0.992, -0.016, 192.0, 0.0, 0.0, 0.0, 0.0, 0.0, 0.0, 0.0, 0.0, 0.0, 1.68209692985704E9, 0.0, 2023-04-21 12:08:49.857
38.0, -53553.68447943741, -35269.331666151484, 187500.0, 187500.0, 187500.0, 187500.0, 187500.0, 187500.0, 0.074, 0.992, -0.016, 192.0, 0.0, 0.0, 0.0, 0.0, 0.0, 0.0, 0.0, 0.0, 0.0, 1.6820969298570547E9, 0.0, 2023-04-21 12:08:49.857
39.0, -53517.45230167536, -35337.929169884825, 187500.0, 187500.0, 187500.0, 187500.0, 187500.0, 187500.0, 0.078, 0.986, -0.016, 192.0, 2.0, 112.0, 30.0, 208.0, 255.0, 128.0, 0.0, 0.0, 0.0, 1.6820969298570695E9, 0.0, 2023-04-21 12:08:49.857
40.0, -53616.15760519, -35335.67164369484, 187500.0, 187500.0, 187500.0, 187500.0, 187500.0, 187500.0, 0.078, 0.986, -0.016, 192.0, 0.0, 0.0, 0.0, 0.0, 0.0, 0.0, 0.0, 0.0, 0.0, 1.6820969298570857E9, 0.0, 2023-04-21 12:08:49.857
41.0, -53682.05054784424, -35293.65036411886, 187500.0, 187500.0, 187500.0, 187500.0, 187500.0, 187500.0, 0.078, 0.986, -0.016, 192.0, 0.0, 0.0, 0.0, 0.0, 0.0, 0.0, 0.0, 0.0, 0.0, 1.6820969298571005E9, 0.0, 2023-04-21 12:08:49.857
42.0, -53571.00708139028, -35255.786509011574, 187500.0, 187500.0, 187500.0, 187500.0, 187500.0, 187500.0, 0.078, 0.986, -0.016, 192.0, 0.0, 0.0, 0.0, 0.0, 0.0, 0.0, 0.0, 0.0, 0.0, 1.6820969298571155E9, 0.0, 2023-04-21 12:08:49.857
43.0, -53502.320170679115, -35312.828160861514, 187500.0, 187500.0, 187500.0, 187500.0, 187500.0, 187500.0, 0.078, 0.986, -0.016, 192.0, 0.0, 0.0, 0.0, 0.0, 0.0, 0.0, 0.0, 0.0, 0.0, 1.6820969298571303E9, 0.0, 2023-04-21 12:08:49.857
44.0, -53597.22567763635, -35345.50641125517, 187500.0, 187500.0, 187500.0, 187500.0, 187500.0, 187500.0, 0.078, 0.986, -0.016, 192.0, 0.0, 0.0, 0.0, 0.0, 0.0, 0.0, 0.0, 0.0, 0.0, 1.6820969298571465E9, 0.0, 2023-04-21 12:08:49.857
45.0, -53692.15353633804, -35311.308242238556, 187500.0, 187500.0, 187500.0, 187500.0, 187500.0, 187500.0, 0.078, 0.986, -0.016, 192.0, 0.0, 0.0, 0.0, 0.0, 0.0, 0.0, 0.0, 0.0, 0.0, 1.6820969298571844E9, 0.0, 2023-04-21 12:08:49.857
46.0, -53602.41128234998, -35266.6718085613, 187500.0, 187500.0, 187500.0, 187500.0, 187500.0, 187500.0, 0.078, 0.986, -0.016, 192.0, 0.0, 0.0, 0.0, 0.0, 0.0, 0.0, 0.0, 0.0, 0.0, 1.6820969300629008E9, 0.0, 2023-04-21 12:08:50.062
47.0, -53501.11317647853, -35300.69116362228, 187500.0, 187500.0, 187500.0, 187500.0, 187500.0, 187500.0, 0.078, 0.986, -0.016, 192.0, 0.0, 0.0, 0.0, 0.0, 0.0, 0.0, 0.0, 0.0, 0.0, 1.6820969300629508E9, 0.0, 2023-04-21 12:08:50.062
48.0, -53584.73105248583, -35356.12348987145, 187500.0, 187500.0, 187500.0, 187500.0, 187500.0, 187500.0, 0.078, 0.986, -0.016, 192.0, 0.0, 0.0, 0.0, 0.0, 0.0, 0.0, 0.0, 0.0, 0.0, 1.6820969300629635E9, 0.0, 2023-04-21 12:08:50.062
49.0, -53690.07482410369, -35317.96906208623, 187500.0, 187500.0, 187500.0, 187500.0, 187500.0, 187500.0, 0.076, 0.988, -0.016, 192.0, 2.0, 96.0, 30.0, 224.0, 255.0, 128.0, 0.0, 0.0, 0.0, 1.6820969300629756E9, 0.0, 2023-04-21 12:08:50.062
50.0, -53630.3062594302, -35271.03039873009, 187500.0, 187500.0, 187500.0, 187500.0, 187500.0, 187500.0, 0.076, 0.988, -0.016, 192.0, 0.0, 0.0, 0.0, 0.0, 0.0, 0.0, 0.0, 0.0, 0.0, 1.6820969300629885E9, 0.0, 2023-04-21 12:08:50.062
51.0, -53516.446473174874, -35296.17611124231, 187500.0, 187500.0, 187500.0, 187500.0, 187500.0, 187500.0, 0.076, 0.988, -0.016, 192.0, 0.0, 0.0, 0.0, 0.0, 0.0, 0.0, 0.0, 0.0, 0.0, 1.6820969300630004E9, 0.0, 2023-04-21 12:08:50.063
52.0, -53574.6951192254, -35368.03696966612, 187500.0, 187500.0, 187500.0, 187500.0, 187500.0, 187500.0, 0.076, 0.988, -0.016, 192.0, 0.0, 0.0, 0.0, 0.0, 0.0, 0.0, 0.0, 0.0, 0.0, 1.6820969300630121E9, 0.0, 2023-04-21 12:08:50.063
53.0, -53687.39261476906, -35333.68233843832, 187500.0, 187500.0, 187500.0, 187500.0, 187500.0, 187500.0, 0.076, 0.988, -0.016, 192.0, 0.0, 0.0, 0.0, 0.0, 0.0, 0.0, 0.0, 0.0, 0.0, 1.6820969300630236E9, 0.0, 2023-04-21 12:08:50.063
54.0, -53656.122524276085, -35282.09451223547, 187500.0, 187500.0, 187500.0, 187500.0, 187500.0, 187500.0, 0.076, 0.988, -0.016, 192.0, 0.0, 0.0, 0.0, 0.0, 0.0, 0.0, 0.0, 0.0, 0.0, 1.682096930063035E9, 0.0, 2023-04-21 12:08:50.063
55.0, -53502.00724625674, -35262.53673583707, 187500.0, 187500.0, 187500.0, 187500.0, 187500.0, 187500.0, 0.076, 0.988, -0.016, 192.0, 0.0, 0.0, 0.0, 0.0, 0.0, 0.0, 0.0, 0.0, 0.0, 1.6820969300630465E9, 0.0, 2023-04-21 12:08:50.063
56.0, -53539.26760426374, -35349.77559444614, 187500.0, 187500.0, 187500.0, 187500.0, 187500.0, 187500.0, 0.076, 0.988, -0.016, 192.0, 0.0, 0.0, 0.0, 0.0, 0.0, 0.0, 0.0, 0.0, 0.0, 1.682096930063058E9, 0.0, 2023-04-21 12:08:50.063
57.0, -53670.98643433886, -35339.38203327442, 187500.0, 187500.0, 187500.0, 187500.0, 187500.0, 187500.0, 0.076, 0.988, -0.016, 192.0, 0.0, 0.0, 0.0, 0.0, 0.0, 0.0, 0.0, 0.0, 0.0, 1.682096930063069E9, 0.0, 2023-04-21 12:08:50.063
58.0, -53663.81152436871, -35278.25001218916, 187500.0, 187500.0, 187500.0, 187500.0, 187500.0, 187500.0, 0.076, 0.988, -0.016, 192.0, 0.0, 0.0, 0.0, 0.0, 0.0, 0.0, 0.0, 0.0, 0.0, 1.6820969300630805E9, 0.0, 2023-04-21 12:08:50.063
59.0, -53519.70982786534, -35254.26659038861, 187500.0, 187500.0, 187500.0, 187500.0, 187500.0, 187500.0, 0.07200000000000001, 0.99, -0.02, 192.0, 2.0, 64.0, 30.0, 240.0, 255.0, 96.0, 0.0, 0.0, 0.0, 1.682096930063092E9, 0.0, 2023-04-21 12:08:50.063
60.0, -53514.07718826261, -35334.084669838514, 187500.0, 187500.0, 187500.0, 187500.0, 187500.0, 187500.0, 0.07200000000000001, 0.99, -0.02, 192.0, 0.0, 0.0, 0.0, 0.0, 0.0, 0.0, 0.0, 0.0, 0.0, 1.682096930063104E9, 0.0, 2023-04-21 12:08:50.063
61.0, -53631.04386699723, -35328.18380930231, 187500.0, 187500.0, 187500.0, 187500.0, 187500.0, 187500.0, 0.07200000000000001, 0.99, -0.02, 192.0, 0.0, 0.0, 0.0, 0.0, 0.0, 0.0, 0.0, 0.0, 0.0, 1.6820969300631707E9, 0.0, 2023-04-21 12:08:50.063
62.0, -53678.58602745367, -35289.98467802819, 187500.0, 187500.0, 187500.0, 187500.0, 187500.0, 187500.0, 0.07200000000000001, 0.99, -0.02, 192.0, 0.0, 0.0, 0.0, 0.0, 0.0, 0.0, 0.0, 0.0, 0.0, 1.682096930063182E9, 0.0, 2023-04-21 12:08:50.063
63.0, -53542.173331042926, -35248.5668955525, 187500.0, 187500.0, 187500.0, 187500.0, 187500.0, 187500.0, 0.07200000000000001, 0.99, -0.02, 192.0, 0.0, 0.0, 0.0, 0.0, 0.0, 0.0, 0.0, 0.0, 0.0, 1.6820969300631936E9, 0.0, 2023-04-21 12:08:50.063
64.0, -53498.140394465976, -35315.979756829714, 187500.0, 187500.0, 187500.0, 187500.0, 187500.0, 187500.0, 0.07200000000000001, 0.99, -0.02, 192.0, 0.0, 0.0, 0.0, 0.0, 0.0, 0.0, 0.0, 0.0, 0.0, 1.6820969300632071E9, 0.0, 2023-04-21 12:08:50.063
65.0, -53602.41128234998, -35326.261559279155, 187500.0, 187500.0, 187500.0, 187500.0, 187500.0, 187500.0, 0.07200000000000001, 0.99, -0.02, 192.0, 0.0, 0.0, 0.0, 0.0, 0.0, 0.0, 0.0, 0.0, 0.0, 1.6820969300632184E9, 0.0, 2023-04-21 12:08:50.063
66.0, -53667.05252731473, -35276.28305867709, 187500.0, 187500.0, 187500.0, 187500.0, 187500.0, 187500.0, 0.07200000000000001, 0.99, -0.02, 192.0, 0.0, 0.0, 0.0, 0.0, 0.0, 0.0, 0.0, 0.0, 0.0, 1.6820969300632296E9, 0.0, 2023-04-21 12:08:50.063
67.0, -53559.96531962935, -35237.86040995841, 187500.0, 187500.0, 187500.0, 187500.0, 187500.0, 187500.0, 0.07200000000000001, 0.99, -0.02, 192.0, 0.0, 0.0, 0.0, 0.0, 0.0, 0.0, 0.0, 0.0, 0.0, 1.6820969300632408E9, 0.0, 2023-04-21 12:08:50.063
68.0, -53491.121946707004, -35299.39476244387, 187500.0, 187500.0, 187500.0, 187500.0, 187500.0, 187500.0, 0.07200000000000001, 0.99, -0.02, 192.0, 0.0, 0.0, 0.0, 0.0, 0.0, 0.0, 0.0, 0.0, 0.0, 1.6820969300632544E9, 0.0, 2023-04-21 12:08:50.063
69.0, -53586.18391587543, -35337.303321040075, 187500.0, 187500.0, 187500.0, 187500.0, 187500.0, 187500.0, 0.07, 0.988, -0.006, 192.0, 2.0, 48.0, 30.0, 224.0, 255.0, 208.0, 0.0, 0.0, 0.0, 1.682096930063266E9, 0.0, 2023-04-21 12:08:50.063
70.0, -53672.39459423955, -35293.56095714104, 187500.0, 187500.0, 187500.0, 187500.0, 187500.0, 187500.0, 0.07, 0.988, -0.006, 192.0, 0.0, 0.0, 0.0, 0.0, 0.0, 0.0, 0.0, 0.0, 0.0, 1.6820969300632782E9, 0.0, 2023-04-21 12:08:50.063
71.0, -53594.878744468544, -35254.60186655544, 187500.0, 187500.0, 187500.0, 187500.0, 187500.0, 187500.0, 0.07, 0.988, -0.006, 192.0, 0.0, 0.0, 0.0, 0.0, 0.0, 0.0, 0.0, 0.0, 0.0, 1.6820969300632894E9, 0.0, 2023-04-21 12:08:50.063
72.0, -53495.0782054756, -35295.41615193083, 187500.0, 187500.0, 187500.0, 187500.0, 187500.0, 187500.0, 0.07, 0.988, -0.006, 192.0, 0.0, 0.0, 0.0, 0.0, 0.0, 0.0, 0.0, 0.0, 0.0, 1.6820969300633008E9, 0.0, 2023-04-21 12:08:50.063
73.0, -53570.40358428998, -35351.67549272484, 187500.0, 187500.0, 187500.0, 187500.0, 187500.0, 187500.0, 0.07, 0.988, -0.006, 192.0, 0.0, 0.0, 0.0, 0.0, 0.0, 0.0, 0.0, 0.0, 0.0, 1.682096930063312E9, 0.0, 2023-04-21 12:08:50.063
74.0, -53664.48207670237, -35301.80875084505, 187500.0, 187500.0, 187500.0, 187500.0, 187500.0, 187500.0, 0.07, 0.988, -0.006, 192.0, 0.0, 0.0, 0.0, 0.0, 0.0, 0.0, 0.0, 0.0, 0.0, 1.6820969300633233E9, 0.0, 2023-04-21 12:08:50.063
75.0, -53614.9059075005, -35257.55229682354, 187500.0, 187500.0, 187500.0, 187500.0, 187500.0, 187500.0, 0.07, 0.988, -0.006, 192.0, 0.0, 0.0, 0.0, 0.0, 0.0, 0.0, 0.0, 0.0, 0.0, 1.6820969300633345E9, 0.0, 2023-04-21 12:08:50.063
76.0, -53496.01697874272, -35276.193651699265, 187500.0, 187500.0, 187500.0, 187500.0, 187500.0, 187500.0, 0.07, 0.988, -0.006, 192.0, 0.0, 0.0, 0.0, 0.0, 0.0, 0.0, 0.0, 0.0, 0.0, 1.682096930063364E9, 0.0, 2023-04-21 12:08:50.063
77.0, -53560.56881672965, -35359.36449281746, 187500.0, 187500.0, 187500.0, 187500.0, 187500.0, 187500.0, 0.07, 0.988, -0.006, 192.0, 0.0, 0.0, 0.0, 0.0, 0.0, 0.0, 0.0, 0.0, 0.0, 1.6820969300633755E9, 0.0, 2023-04-21 12:08:50.063
78.0, -53679.65891118752, -35334.777573916625, 187500.0, 187500.0, 187500.0, 187500.0, 187500.0, 187500.0, 0.07, 0.988, -0.006, 192.0, 0.0, 0.0, 0.0, 0.0, 0.0, 0.0, 0.0, 0.0, 0.0, 1.682096930063387E9, 0.0, 2023-04-21 12:08:50.063
79.0, -53654.98258530886, -35281.93805002428, 187500.0, 187500.0, 187500.0, 187500.0, 187500.0, 187500.0, 0.07, 0.996, -0.004, 192.0, 2.0, 48.0, 31.0, 32.0, 255.0, 224.0, 0.0, 0.0, 0.0, 1.682096930063398E9, 0.0, 2023-04-21 12:08:50.063
80.0, -53512.08788300608, -35271.522137108106, 187500.0, 187500.0, 187500.0, 187500.0, 187500.0, 187500.0, 0.07, 0.996, -0.004, 192.0, 0.0, 0.0, 0.0, 0.0, 0.0, 0.0, 0.0, 0.0, 0.0, 1.68209693006341E9, 0.0, 2023-04-21 12:08:50.063
81.0, -53533.52320593873, -35349.529725257125, 187500.0, 187500.0, 187500.0, 187500.0, 187500.0, 187500.0, 0.07, 0.996, -0.004, 192.0, 0.0, 0.0, 0.0, 0.0, 0.0, 0.0, 0.0, 0.0, 0.0, 1.6820969300634215E9, 0.0, 2023-04-21 12:08:50.063
82.0, -53652.18861725195, -35331.89419888189, 187500.0, 187500.0, 187500.0, 187500.0, 187500.0, 187500.0, 0.07, 0.996, -0.004, 192.0, 0.0, 0.0, 0.0, 0.0, 0.0, 0.0, 0.0, 0.0, 0.0, 1.6820969300634327E9, 0.0, 2023-04-21 12:08:50.063
83.0, -53655.988413809355, -35273.757311553636, 187500.0, 187500.0, 187500.0, 187500.0, 187500.0, 187500.0, 0.07, 0.996, -0.004, 192.0, 0.0, 0.0, 0.0, 0.0, 0.0, 0.0, 0.0, 0.0, 0.0, 1.682096930063444E9, 0.0, 2023-04-21 12:08:50.063
84.0, -53507.61753411502, -35237.25691285812, 187500.0, 187500.0, 187500.0, 187500.0, 187500.0, 187500.0, 0.07, 0.996, -0.004, 192.0, 0.0, 0.0, 0.0, 0.0, 0.0, 0.0, 0.0, 0.0, 0.0, 1.6820969300634556E9, 0.0, 2023-04-21 12:08:50.063
85.0, -53501.18023171189, -35324.56282670055, 187500.0, 187500.0, 187500.0, 187500.0, 187500.0, 187500.0, 0.07, 0.996, -0.004, 192.0, 0.0, 0.0, 0.0, 0.0, 0.0, 0.0, 0.0, 0.0, 0.0, 1.6820969300634737E9, 0.0, 2023-04-21 12:08:50.063
86.0, -53617.31989590167, -35326.06039357906, 187500.0, 187500.0, 187500.0, 187500.0, 187500.0, 187500.0, 0.07, 0.996, -0.004, 192.0, 0.0, 0.0, 0.0, 0.0, 0.0, 0.0, 0.0, 0.0, 0.0, 1.682096930063488E9, 0.0, 2023-04-21 12:08:50.063
87.0, -53665.17498078048, -35279.077026734, 187500.0, 187500.0, 187500.0, 187500.0, 187500.0, 187500.0, 0.07, 0.996, -0.004, 192.0, 0.0, 0.0, 0.0, 0.0, 0.0, 0.0, 0.0, 0.0, 0.0, 1.6820969300635028E9, 0.0, 2023-04-21 12:08:50.063
88.0, -53536.92067109593, -35239.24621811464, 187500.0, 187500.0, 187500.0, 187500.0, 187500.0, 187500.0, 0.07, 0.996, -0.004, 192.0, 0.0, 0.0, 0.0, 0.0, 0.0, 0.0, 0.0, 0.0, 0.0, 1.682096930063514E9, 0.0, 2023-04-21 12:08:50.063
89.0, -53489.736138550776, -35307.307279981054, 187500.0, 187500.0, 187500.0, 187500.0, 187500.0, 187500.0, 0.07, 0.996, -0.004, 192.0, 0.0, 0.0, 0.0, 0.0, 0.0, 0.0, 0.0, 0.0, 0.0, 1.682096930063528E9, 0.0, 2023-04-21 12:08:50.063
90.0, -53588.26262810977, -35322.99820458868, 187500.0, 187500.0, 187500.0, 187500.0, 187500.0, 187500.0, 0.068, 0.998, -0.006, 192.0, 2.0, 32.0, 31.0, 48.0, 255.0, 208.0, 0.0, 0.0, 0.0, 1.682096930063544E9, 0.0, 2023-04-21 12:08:50.063
91.0, -53660.883445845066, -35279.12173022291, 187500.0, 187500.0, 187500.0, 187500.0, 187500.0, 187500.0, 0.068, 0.998, -0.006, 192.0, 0.0, 0.0, 0.0, 0.0, 0.0, 0.0, 0.0, 0.0, 0.0, 1.6820969300635808E9, 0.0, 2023-04-21 12:08:50.063
92.0, -53555.96435737186, -35237.07809890248, 187500.0, 187500.0, 187500.0, 187500.0, 187500.0, 187500.0, 0.068, 0.998, -0.006, 192.0, 0.0, 0.0, 0.0, 0.0, 0.0, 0.0, 0.0, 0.0, 0.0, 1.6820969300635958E9, 0.0, 2023-04-21 12:08:50.063
93.0, -53484.61758907051, -35297.1819397428, 187500.0, 187500.0, 187500.0, 187500.0, 187500.0, 187500.0, 0.068, 0.998, -0.006, 192.0, 0.0, 0.0, 0.0, 0.0, 0.0, 0.0, 0.0, 0.0, 0.0, 1.6820969300636072E9, 0.0, 2023-04-21 12:08:50.063
94.0, -53591.92831420044, -35356.458766038275, 187500.0, 187500.0, 187500.0, 187500.0, 187500.0, 187500.0, 0.068, 0.998, -0.006, 192.0, 0.0, 0.0, 0.0, 0.0, 0.0, 0.0, 0.0, 0.0, 0.0, 1.6820969300636191E9, 0.0, 2023-04-21 12:08:50.063
95.0, -53681.6705681885, -35307.01670730313, 187500.0, 187500.0, 187500.0, 187500.0, 187500.0, 187500.0, 0.068, 0.998, -0.006, 192.0, 0.0, 0.0, 0.0, 0.0, 0.0, 0.0, 0.0, 0.0, 0.0, 1.6820969300636313E9, 0.0, 2023-04-21 12:08:50.063
96.0, -53599.68436952643, -35257.84286950146, 187500.0, 187500.0, 187500.0, 187500.0, 187500.0, 187500.0, 0.068, 0.998, -0.006, 192.0, 0.0, 0.0, 0.0, 0.0, 0.0, 0.0, 0.0, 0.0, 0.0, 1.6820969300636432E9, 0.0, 2023-04-21 12:08:50.063
97.0, -53496.75458630975, -35293.49390190767, 187500.0, 187500.0, 187500.0, 187500.0, 187500.0, 187500.0, 0.068, 0.998, -0.006, 192.0, 0.0, 0.0, 0.0, 0.0, 0.0, 0.0, 0.0, 0.0, 0.0, 1.6820969300636554E9, 0.0, 2023-04-21 12:08:50.063
98.0, -53566.8943604105, -35352.94954215879, 187500.0, 187500.0, 187500.0, 187500.0, 187500.0, 187500.0, 0.068, 0.998, -0.006, 192.0, 0.0, 0.0, 0.0, 0.0, 0.0, 0.0, 0.0, 0.0, 0.0, 1.682096930078984E9, 0.0, 2023-04-21 12:08:50.078
99.0, -53667.454858714926, -35310.92826258281, 187500.0, 187500.0, 187500.0, 187500.0, 187500.0, 187500.0, 0.068, 0.998, -0.006, 192.0, 0.0, 0.0, 0.0, 0.0, 0.0, 0.0, 0.0, 0.0, 0.0, 1.6820969301051433E9, 0.0, 2023-04-21 12:08:50.105
100.0, -53622.41609363748, -35263.49786084865, 187500.0, 187500.0, 187500.0, 187500.0, 187500.0, 187500.0, 0.07, 0.994, -0.008, 192.0, 2.0, 48.0, 31.0, 16.0, 255.0, 192.0, 0.0, 0.0, 0.0, 1.6820969301051672E9, 0.0, 2023-04-21 12:08:50.105
101.0, -53492.820679285614, -35269.73399755168, 187500.0, 187500.0, 187500.0, 187500.0, 187500.0, 187500.0, 0.07, 0.994, -0.008, 192.0, 0.0, 0.0, 0.0, 0.0, 0.0, 0.0, 0.0, 0.0, 0.0, 1.682096930403798E9, 0.0, 2023-04-21 12:08:50.403
102.0, -53541.72629615382, -35349.41796653485, 187500.0, 187500.0, 187500.0, 187500.0, 187500.0, 187500.0, 0.07, 0.994, -0.008, 192.0, 0.0, 0.0, 0.0, 0.0, 0.0, 0.0, 0.0, 0.0, 0.0, 1.6820969304038284E9, 0.0, 2023-04-21 12:08:50.403
103.0, -53664.10209704663, -35327.40149824637, 187500.0, 187500.0, 187500.0, 187500.0, 187500.0, 187500.0, 0.07, 0.994, -0.008, 192.0, 0.0, 0.0, 0.0, 0.0, 0.0, 0.0, 0.0, 0.0, 0.0, 1.6820969304038503E9, 0.0, 2023-04-21 12:08:50.403
104.0, -53645.12546600407, -35270.8739365189, 187500.0, 187500.0, 187500.0, 187500.0, 187500.0, 187500.0, 0.07, 0.994, -0.008, 192.0, 0.0, 0.0, 0.0, 0.0, 0.0, 0.0, 0.0, 0.0, 0.0, 1.6820969304038694E9, 0.0, 2023-04-21 12:08:50.403
105.0, -53501.29199043417, -35254.534811322075, 187500.0, 187500.0, 187500.0, 187500.0, 187500.0, 187500.0, 0.07, 0.994, -0.008, 192.0, 0.0, 0.0, 0.0, 0.0, 0.0, 0.0, 0.0, 0.0, 0.0, 1.6820969304038885E9, 0.0, 2023-04-21 12:08:50.403
106.0, -53519.933345309895, -35336.878637895425, 187500.0, 187500.0, 187500.0, 187500.0, 187500.0, 187500.0, 0.07, 0.994, -0.008, 192.0, 0.0, 0.0, 0.0, 0.0, 0.0, 0.0, 0.0, 0.0, 0.0, 1.6820969304040306E9, 0.0, 2023-04-21 12:08:50.404
107.0, -53631.08857048614, -35318.147876041876, 187500.0, 187500.0, 187500.0, 187500.0, 187500.0, 187500.0, 0.07, 0.994, -0.008, 192.0, 0.0, 0.0, 0.0, 0.0, 0.0, 0.0, 0.0, 0.0, 0.0, 1.6820969304040425E9, 0.0, 2023-04-21 12:08:50.404
108.0, -53648.031192783266, -35269.152852195846, 187500.0, 187500.0, 187500.0, 187500.0, 187500.0, 187500.0, 0.07, 0.994, -0.008, 192.0, 0.0, 0.0, 0.0, 0.0, 0.0, 0.0, 0.0, 0.0, 0.0, 1.6820969304040537E9, 0.0, 2023-04-21 12:08:50.404
109.0, -53505.65058060296, -35234.664110501304, 187500.0, 187500.0, 187500.0, 187500.0, 187500.0, 187500.0, 0.07, 0.994, -0.008, 192.0, 0.0, 0.0, 0.0, 0.0, 0.0, 0.0, 0.0, 0.0, 0.0, 1.6820969304040644E9, 0.0, 2023-04-21 12:08:50.404
110.0, -53500.66614158943, -35325.546303456584, 187500.0, 187500.0, 187500.0, 187500.0, 187500.0, 187500.0, 0.068, 0.988, -0.008, 192.0, 2.0, 32.0, 30.0, 224.0, 255.0, 192.0, 0.0, 0.0, 0.0, 1.6820969304040756E9, 0.0, 2023-04-21 12:08:50.404
111.0, -53616.626991823556, -35332.542399471095, 187500.0, 187500.0, 187500.0, 187500.0, 187500.0, 187500.0, 0.068, 0.988, -0.008, 192.0, 0.0, 0.0, 0.0, 0.0, 0.0, 0.0, 0.0, 0.0, 0.0, 1.6820969304041033E9, 0.0, 2023-04-21 12:08:50.404
112.0, -53661.71046038991, -35279.30054417855, 187500.0, 187500.0, 187500.0, 187500.0, 187500.0, 187500.0, 0.068, 0.988, -0.008, 192.0, 0.0, 0.0, 0.0, 0.0, 0.0, 0.0, 0.0, 0.0, 0.0, 1.6820969304041145E9, 0.0, 2023-04-21 12:08:50.404
113.0, -53538.060610063156, -35238.15098263633, 187500.0, 187500.0, 187500.0, 187500.0, 187500.0, 187500.0, 0.068, 0.988, -0.008, 192.0, 0.0, 0.0, 0.0, 0.0, 0.0, 0.0, 0.0, 0.0, 0.0, 1.6820969304041257E9, 0.0, 2023-04-21 12:08:50.404
115.0, -53592.97884618984, -35336.52100998414, 187500.0, 187500.0, 187500.0, 187500.0, 187500.0, 187500.0, 0.068, 0.988, -0.008, 192.0, 0.0, 0.0, 0.0, 0.0, 0.0, 0.0, 0.0, 0.0, 0.0, 1.6820969304041364E9, 0.0, 2023-04-21 12:08:50.404
116.0, -53667.521913948294, -35289.895271050365, 187500.0, 187500.0, 187500.0, 187500.0, 187500.0, 187500.0, 0.068, 0.988, -0.008, 192.0, 0.0, 0.0, 0.0, 0.0, 0.0, 0.0, 0.0, 0.0, 0.0, 1.6820969304041471E9, 0.0, 2023-04-21 12:08:50.404
118.0, -53485.265789659716, -35296.1314077534, 187500.0, 187500.0, 187500.0, 187500.0, 187500.0, 187500.0, 0.068, 0.988, -0.008, 192.0, 0.0, 0.0, 0.0, 0.0, 0.0, 0.0, 0.0, 0.0, 0.0, 1.6820969304041584E9, 0.0, 2023-04-21 12:08:50.404
119.0, -53587.10033739809, -35356.458766038275, 187500.0, 187500.0, 187500.0, 187500.0, 187500.0, 187500.0, 0.068, 0.988, -0.008, 192.0, 0.0, 0.0, 0.0, 0.0, 0.0, 0.0, 0.0, 0.0, 0.0, 1.682096930404169E9, 0.0, 2023-04-21 12:08:50.404
120.0, -53673.08749831766, -35303.32866946801, 187500.0, 187500.0, 187500.0, 187500.0, 187500.0, 187500.0, 0.066, 0.986, -0.01, 192.0, 2.0, 16.0, 30.0, 208.0, 255.0, 176.0, 0.0, 0.0, 0.0, 1.6820969304041812E9, 0.0, 2023-04-21 12:08:50.404
121.0, -53600.623142793556, -35254.55716306653, 187500.0, 187500.0, 187500.0, 187500.0, 187500.0, 187500.0, 0.066, 0.986, -0.01, 192.0, 0.0, 0.0, 0.0, 0.0, 0.0, 0.0, 0.0, 0.0, 0.0, 1.682096930404193E9, 0.0, 2023-04-21 12:08:50.404
122.0, -53483.656464058935, -35280.21696570122, 187500.0, 187500.0, 187500.0, 187500.0, 187500.0, 187500.0, 0.066, 0.986, -0.01, 192.0, 0.0, 0.0, 0.0, 0.0, 0.0, 0.0, 0.0, 0.0, 0.0, 1.682096930404204E9, 0.0, 2023-04-21 12:08:50.404
123.0, -53552.11985732554, -35346.55694324457, 187500.0, 187500.0, 187500.0, 187500.0, 187500.0, 187500.0, 0.066, 0.986, -0.01, 192.0, 0.0, 0.0, 0.0, 0.0, 0.0, 0.0, 0.0, 0.0, 0.0, 1.6820969304042325E9, 0.0, 2023-04-21 12:08:50.404
124.0, -53658.983547566364, -35308.1342945259, 187500.0, 187500.0, 187500.0, 187500.0, 187500.0, 187500.0, 0.066, 0.986, -0.01, 192.0, 0.0, 0.0, 0.0, 0.0, 0.0, 0.0, 0.0, 0.0, 0.0, 1.6820969304042437E9, 0.0, 2023-04-21 12:08:50.404
125.0, -53615.06236971168, -35255.428881100284, 187500.0, 187500.0, 187500.0, 187500.0, 187500.0, 187500.0, 0.066, 0.986, -0.01, 192.0, 0.0, 0.0, 0.0, 0.0, 0.0, 0.0, 0.0, 0.0, 0.0, 1.6820969304042547E9, 0.0, 2023-04-21 12:08:50.404
126.0, -53480.661330301926, -35255.160660166825, 187500.0, 187500.0, 187500.0, 187500.0, 187500.0, 187500.0, 0.066, 0.986, -0.01, 192.0, 0.0, 0.0, 0.0, 0.0, 0.0, 0.0, 0.0, 0.0, 0.0, 1.6820969304042656E9, 0.0, 2023-04-21 12:08:50.404
127.0, -53527.711752380346, -35340.76784143065, 187500.0, 187500.0, 187500.0, 187500.0, 187500.0, 187500.0, 0.066, 0.986, -0.01, 192.0, 0.0, 0.0, 0.0, 0.0, 0.0, 0.0, 0.0, 0.0, 0.0, 1.682096930404277E9, 0.0, 2023-04-21 12:08:50.404
128.0, -53656.50250393183, -35329.70372792527, 187500.0, 187500.0, 187500.0, 187500.0, 187500.0, 187500.0, 0.066, 0.986, -0.01, 192.0, 0.0, 0.0, 0.0, 0.0, 0.0, 0.0, 0.0, 0.0, 0.0, 1.6820969304042883E9, 0.0, 2023-04-21 12:08:50.404
129.0, -53645.90777706001, -35275.09841622096, 187500.0, 187500.0, 187500.0, 187500.0, 187500.0, 187500.0, 0.066, 0.986, -0.01, 192.0, 0.0, 0.0, 0.0, 0.0, 0.0, 0.0, 0.0, 0.0, 0.0, 1.6820969304042995E9, 0.0, 2023-04-21 12:08:50.404
130.0, -53498.92270552191, -35250.08681417547, 187500.0, 187500.0, 187500.0, 187500.0, 187500.0, 187500.0, 0.066, 0.986, -0.01, 192.0, 0.0, 0.0, 0.0, 0.0, 0.0, 0.0, 0.0, 0.0, 0.0, 1.682096930404312E9, 0.0, 2023-04-21 12:08:50.404
