%OpenBCI Raw EEG Data
%Number of channels = 8
%Sample Rate = 250 Hz
%Board = OpenBCI_GUI$BoardCytonSerial
Sample Index, EXG Channel 0, EXG Channel 1, EXG Channel 2, EXG Channel 3, EXG Channel 4, EXG Channel 5, EXG Channel 6, EXG Channel 7, Accel Channel 0, Accel Channel 1, Accel Channel 2, Other, Other, Other, Other, Other, Other, Other, Analog Channel 0, Analog Channel 1, Analog Channel 2, Timestamp, Other, Timestamp (Formatted)
187.0, -48783.95632314162, -32021.734955517648, 187500.0, 187500.0, 187500.0, 187500.0, 187500.0, 187500.0, 0.0, 0.0, 0.0, 192.0, 0.0, 0.0, 0.0, 0.0, 0.0, 0.0, 0.0, 0.0, 0.0, 1.6820973843717728E9, 0.0, 2023-04-21 12:16:24.371
188.0, -48815.36052410132, -32237.96573137829, 187500.0, 187500.0, 187500.0, 187500.0, 187500.0, 187500.0, 0.0, 0.0, 0.0, 192.0, 0.0, 0.0, 0.0, 0.0, 0.0, 0.0, 0.0, 0.0, 0.0, 1.6820973843717988E9, 0.0, 2023-04-21 12:16:24.371
189.0, -48878.794774865484, -32250.52741176217, 187500.0, 187500.0, 187500.0, 187500.0, 187500.0, 187500.0, 0.0, 0.0, 0.0, 192.0, 0.0, 0.0, 0.0, 0.0, 0.0, 0.0, 0.0, 0.0, 0.0, 1.6820973843718126E9, 0.0, 2023-04-21 12:16:24.371
190.0, -48851.05625999645, -32103.72115417971, 187500.0, 187500.0, 187500.0, 187500.0, 187500.0, 187500.0, 0.0, 0.0, 0.0, 192.0, 0.0, 0.0, 0.0, 0.0, 0.0, 0.0, 0.0, 0.0, 0.0, 1.6820973843718243E9, 0.0, 2023-04-21 12:16:24.371
191.0, -48778.23427656106, -31981.18889107572, 187500.0, 187500.0, 187500.0, 187500.0, 187500.0, 187500.0, 0.0, 0.0, 0.0, 192.0, 0.0, 0.0, 0.0, 0.0, 0.0, 0.0, 0.0, 0.0, 0.0, 1.6820973843718355E9, 0.0, 2023-04-21 12:16:24.371
192.0, -48797.12150062579, -32198.179626247842, 187500.0, 187500.0, 187500.0, 187500.0, 187500.0, 187500.0, 0.0, 0.0, 0.0, 192.0, 0.0, 0.0, 0.0, 0.0, 0.0, 0.0, 0.0, 0.0, 0.0, 1.682097384371847E9, 0.0, 2023-04-21 12:16:24.371
193.0, -48833.778361532495, -32246.57115299358, 187500.0, 187500.0, 187500.0, 187500.0, 187500.0, 187500.0, 0.0, 0.0, 0.0, 192.0, 0.0, 0.0, 0.0, 0.0, 0.0, 0.0, 0.0, 0.0, 0.0, 1.6820973843718584E9, 0.0, 2023-04-21 12:16:24.371
194.0, -48801.79301521695, -32102.53651172358, 187500.0, 187500.0, 187500.0, 187500.0, 187500.0, 187500.0, 0.0, 0.0, 0.0, 192.0, 0.0, 0.0, 0.0, 0.0, 0.0, 0.0, 0.0, 0.0, 0.0, 1.682097384371869E9, 0.0, 2023-04-21 12:16:24.371
195.0, -48713.77184555195, -31920.21333220164, 187500.0, 187500.0, 187500.0, 187500.0, 187500.0, 187500.0, -0.022, 1.01, -0.06, 192.0, 255.0, 80.0, 31.0, 144.0, 254.0, 32.0, 0.0, 0.0, 0.0, 1.6820973843718803E9, 0.0, 2023-04-21 12:16:24.371
196.0, -48728.702810848095, -32099.563729711026, 187500.0, 187500.0, 187500.0, 187500.0, 187500.0, 187500.0, -0.022, 1.01, -0.06, 192.0, 0.0, 0.0, 0.0, 0.0, 0.0, 0.0, 0.0, 0.0, 0.0, 1.6820973843718948E9, 0.0, 2023-04-21 12:16:24.371
197.0, -48758.67650016266, -32187.450788909293, 187500.0, 187500.0, 187500.0, 187500.0, 187500.0, 187500.0, -0.022, 1.01, -0.06, 192.0, 0.0, 0.0, 0.0, 0.0, 0.0, 0.0, 0.0, 0.0, 0.0, 1.6820973843719065E9, 0.0, 2023-04-21 12:16:24.371
198.0, -48740.28101447595, -32085.079799303985, 187500.0, 187500.0, 187500.0, 187500.0, 187500.0, 187500.0, -0.022, 1.01, -0.06, 192.0, 0.0, 0.0, 0.0, 0.0, 0.0, 0.0, 0.0, 0.0, 0.0, 1.682097384371918E9, 0.0, 2023-04-21 12:16:24.371
199.0, -48656.99841463547, -31890.485512076084, 187500.0, 187500.0, 187500.0, 187500.0, 187500.0, 187500.0, -0.022, 1.01, -0.06, 192.0, 0.0, 0.0, 0.0, 0.0, 0.0, 0.0, 0.0, 0.0, 0.0, 1.6820973843719292E9, 0.0, 2023-04-21 12:16:24.371
200.0, -48664.91093217265, -32029.37925212136, 187500.0, 187500.0, 187500.0, 187500.0, 187500.0, 187500.0, -0.022, 1.01, -0.06, 192.0, 0.0, 0.0, 0.0, 0.0, 0.0, 0.0, 0.0, 0.0, 0.0, 1.6820973843719404E9, 0.0, 2023-04-21 12:16:24.371
201.0, -48729.97686028205, -32172.02808523513, 187500.0, 187500.0, 187500.0, 187500.0, 187500.0, 187500.0, -0.022, 1.01, -0.06, 192.0, 0.0, 0.0, 0.0, 0.0, 0.0, 0.0, 0.0, 0.0, 0.0, 1.6820973843719518E9, 0.0, 2023-04-21 12:16:24.371
202.0, -48727.60757536979, -32100.323689022505, 187500.0, 187500.0, 187500.0, 187500.0, 187500.0, 187500.0, -0.022, 1.01, -0.06, 192.0, 0.0, 0.0, 0.0, 0.0, 0.0, 0.0, 0.0, 0.0, 0.0, 1.6820973843719945E9, 0.0, 2023-04-21 12:16:24.371
203.0, -48649.3317662873, -31920.816829301933, 187500.0, 187500.0, 187500.0, 187500.0, 187500.0, 187500.0, -0.022, 1.01, -0.06, 192.0, 0.0, 0.0, 0.0, 0.0, 0.0, 0.0, 0.0, 0.0, 0.0, 1.6820973843722231E9, 0.0, 2023-04-21 12:16:24.372
204.0, -48636.211292292035, -31996.701001727703, 187500.0, 187500.0, 187500.0, 187500.0, 187500.0, 187500.0, -0.022, 1.01, -0.06, 192.0, 0.0, 0.0, 0.0, 0.0, 0.0, 0.0, 0.0, 0.0, 0.0, 1.6820973843722355E9, 0.0, 2023-04-21 12:16:24.372
205.0, -48698.572659322344, -32172.22925093523, 187500.0, 187500.0, 187500.0, 187500.0, 187500.0, 187500.0, -0.052000000000000005, 1.004, -0.06, 192.0, 254.0, 96.0, 31.0, 96.0, 254.0, 32.0, 0.0, 0.0, 0.0, 1.6820973843722491E9, 0.0, 2023-04-21 12:16:24.372
206.0, -48688.33556036181, -32111.20898857224, 187500.0, 187500.0, 187500.0, 187500.0, 187500.0, 187500.0, -0.052000000000000005, 1.004, -0.06, 192.0, 0.0, 0.0, 0.0, 0.0, 0.0, 0.0, 0.0, 0.0, 0.0, 1.6820973843722625E9, 0.0, 2023-04-21 12:16:24.372
207.0, -48638.91585337113, -31939.905219066768, 187500.0, 187500.0, 187500.0, 187500.0, 187500.0, 187500.0, -0.052000000000000005, 1.004, -0.06, 192.0, 0.0, 0.0, 0.0, 0.0, 0.0, 0.0, 0.0, 0.0, 0.0, 1.682097384372274E9, 0.0, 2023-04-21 12:16:24.372
208.0, -48641.12867607221, -31962.815757133456, 187500.0, 187500.0, 187500.0, 187500.0, 187500.0, 187500.0, -0.052000000000000005, 1.004, -0.06, 192.0, 0.0, 0.0, 0.0, 0.0, 0.0, 0.0, 0.0, 0.0, 0.0, 1.6820973843722856E9, 0.0, 2023-04-21 12:16:24.372
209.0, -48701.50073784599, -32161.232192663218, 187500.0, 187500.0, 187500.0, 187500.0, 187500.0, 187500.0, -0.052000000000000005, 1.004, -0.06, 192.0, 0.0, 0.0, 0.0, 0.0, 0.0, 0.0, 0.0, 0.0, 0.0, 1.6820973843723001E9, 0.0, 2023-04-21 12:16:24.372
210.0, -48752.03803205944, -32141.60736103146, 187500.0, 187500.0, 187500.0, 187500.0, 187500.0, 187500.0, -0.052000000000000005, 1.004, -0.06, 192.0, 0.0, 0.0, 0.0, 0.0, 0.0, 0.0, 0.0, 0.0, 0.0, 1.682097384372311E9, 0.0, 2023-04-21 12:16:24.372
211.0, -48692.135356919214, -31975.08686483942, 187500.0, 187500.0, 187500.0, 187500.0, 187500.0, 187500.0, -0.052000000000000005, 1.004, -0.06, 192.0, 0.0, 0.0, 0.0, 0.0, 0.0, 0.0, 0.0, 0.0, 0.0, 1.6820973843723223E9, 0.0, 2023-04-21 12:16:24.372
212.0, -48631.27155676742, -31903.98596572709, 187500.0, 187500.0, 187500.0, 187500.0, 187500.0, 187500.0, -0.052000000000000005, 1.004, -0.06, 192.0, 0.0, 0.0, 0.0, 0.0, 0.0, 0.0, 0.0, 0.0, 0.0, 1.6820973843723338E9, 0.0, 2023-04-21 12:16:24.372
213.0, -48669.60479850826, -32111.54426473907, 187500.0, 187500.0, 187500.0, 187500.0, 187500.0, 187500.0, -0.052000000000000005, 1.004, -0.06, 192.0, 0.0, 0.0, 0.0, 0.0, 0.0, 0.0, 0.0, 0.0, 0.0, 1.6820973843723452E9, 0.0, 2023-04-21 12:16:24.372
214.0, -48713.70479031859, -32151.866811736443, 187500.0, 187500.0, 187500.0, 187500.0, 187500.0, 187500.0, -0.052000000000000005, 1.004, -0.06, 192.0, 0.0, 0.0, 0.0, 0.0, 0.0, 0.0, 0.0, 0.0, 0.0, 1.6820973843723564E9, 0.0, 2023-04-21 12:16:24.372
215.0, -48682.211182381056, -32023.031356696054, 187500.0, 187500.0, 187500.0, 187500.0, 187500.0, 187500.0, -0.04, 1.012, -0.046, 192.0, 254.0, 192.0, 31.0, 160.0, 254.0, 144.0, 0.0, 0.0, 0.0, 1.6820973843723676E9, 0.0, 2023-04-21 12:16:24.372
216.0, -48599.375617429694, -31884.2270236286, 187500.0, 187500.0, 187500.0, 187500.0, 187500.0, 187500.0, -0.04, 1.012, -0.046, 192.0, 0.0, 0.0, 0.0, 0.0, 0.0, 0.0, 0.0, 0.0, 0.0, 1.68209738437238E9, 0.0, 2023-04-21 12:16:24.372
217.0, -48645.15199007416, -32088.857244116934, 187500.0, 187500.0, 187500.0, 187500.0, 187500.0, 187500.0, -0.04, 1.012, -0.046, 192.0, 0.0, 0.0, 0.0, 0.0, 0.0, 0.0, 0.0, 0.0, 0.0, 1.6820973843723915E9, 0.0, 2023-04-21 12:16:24.372
218.0, -48703.82531926934, -32152.60441930347, 187500.0, 187500.0, 187500.0, 187500.0, 187500.0, 187500.0, -0.04, 1.012, -0.046, 192.0, 0.0, 0.0, 0.0, 0.0, 0.0, 0.0, 0.0, 0.0, 0.0, 1.6820973843724577E9, 0.0, 2023-04-21 12:16:24.372
219.0, -48661.89344667119, -32028.015795709587, 187500.0, 187500.0, 187500.0, 187500.0, 187500.0, 187500.0, -0.04, 1.012, -0.046, 192.0, 0.0, 0.0, 0.0, 0.0, 0.0, 0.0, 0.0, 0.0, 0.0, 1.68209738437247E9, 0.0, 2023-04-21 12:16:24.372
220.0, -48633.9314143576, -31889.278517875497, 187500.0, 187500.0, 187500.0, 187500.0, 187500.0, 187500.0, -0.04, 1.012, -0.046, 192.0, 0.0, 0.0, 0.0, 0.0, 0.0, 0.0, 0.0, 0.0, 0.0, 1.682097384372481E9, 0.0, 2023-04-21 12:16:24.372
221.0, -48666.65436824017, -32066.55020315054, 187500.0, 187500.0, 187500.0, 187500.0, 187500.0, 187500.0, -0.04, 1.012, -0.046, 192.0, 0.0, 0.0, 0.0, 0.0, 0.0, 0.0, 0.0, 0.0, 0.0, 1.6820973843724926E9, 0.0, 2023-04-21 12:16:24.372
222.0, -48721.9525840226, -32161.65687580787, 187500.0, 187500.0, 187500.0, 187500.0, 187500.0, 187500.0, -0.04, 1.012, -0.046, 192.0, 0.0, 0.0, 0.0, 0.0, 0.0, 0.0, 0.0, 0.0, 0.0, 1.682097384372504E9, 0.0, 2023-04-21 12:16:24.372
223.0, -48725.707677091086, -32089.9748313397, 187500.0, 187500.0, 187500.0, 187500.0, 187500.0, 187500.0, -0.04, 1.012, -0.046, 192.0, 0.0, 0.0, 0.0, 0.0, 0.0, 0.0, 0.0, 0.0, 0.0, 1.6820973843725157E9, 0.0, 2023-04-21 12:16:24.372
224.0, -48650.04702210987, -31904.50005584956, 187500.0, 187500.0, 187500.0, 187500.0, 187500.0, 187500.0, -0.04, 1.012, -0.046, 192.0, 0.0, 0.0, 0.0, 0.0, 0.0, 0.0, 0.0, 0.0, 0.0, 1.682097384372527E9, 0.0, 2023-04-21 12:16:24.372
225.0, -48630.35513524475, -32015.834094981445, 187500.0, 187500.0, 187500.0, 187500.0, 187500.0, 187500.0, -0.04, 1.012, -0.046, 192.0, 0.0, 0.0, 0.0, 0.0, 0.0, 0.0, 0.0, 0.0, 0.0, 1.682097384372538E9, 0.0, 2023-04-21 12:16:24.372
226.0, -48679.46191781306, -32143.686073265802, 187500.0, 187500.0, 187500.0, 187500.0, 187500.0, 187500.0, -0.032, 0.996, -0.048, 192.0, 255.0, 0.0, 31.0, 32.0, 254.0, 128.0, 0.0, 0.0, 0.0, 1.6820973843725493E9, 0.0, 2023-04-21 12:16:24.372
227.0, -48694.63875229821, -32088.29845050555, 187500.0, 187500.0, 187500.0, 187500.0, 187500.0, 187500.0, -0.032, 0.996, -0.048, 192.0, 0.0, 0.0, 0.0, 0.0, 0.0, 0.0, 0.0, 0.0, 0.0, 1.6820973843725615E9, 0.0, 2023-04-21 12:16:24.372
228.0, -48645.979004619, -31906.377602383807, 187500.0, 187500.0, 187500.0, 187500.0, 187500.0, 187500.0, -0.032, 0.996, -0.048, 192.0, 0.0, 0.0, 0.0, 0.0, 0.0, 0.0, 0.0, 0.0, 0.0, 1.682097384372573E9, 0.0, 2023-04-21 12:16:24.372
229.0, -48624.94601308656, -31974.751588672592, 187500.0, 187500.0, 187500.0, 187500.0, 187500.0, 187500.0, -0.032, 0.996, -0.048, 192.0, 0.0, 0.0, 0.0, 0.0, 0.0, 0.0, 0.0, 0.0, 0.0, 1.6820973843725843E9, 0.0, 2023-04-21 12:16:24.372
230.0, -48650.09172559878, -32137.047605162577, 187500.0, 187500.0, 187500.0, 187500.0, 187500.0, 187500.0, -0.032, 0.996, -0.048, 192.0, 0.0, 0.0, 0.0, 0.0, 0.0, 0.0, 0.0, 0.0, 0.0, 1.6820973843725977E9, 0.0, 2023-04-21 12:16:24.372
231.0, -48725.59591836881, -32114.897026407365, 187500.0, 187500.0, 187500.0, 187500.0, 187500.0, 187500.0, -0.032, 0.996, -0.048, 192.0, 0.0, 0.0, 0.0, 0.0, 0.0, 0.0, 0.0, 0.0, 0.0, 1.6820973843726072E9, 0.0, 2023-04-21 12:16:24.372
232.0, -48675.97504567803, -31932.864419563346, 187500.0, 187500.0, 187500.0, 187500.0, 187500.0, 187500.0, -0.032, 0.996, -0.048, 192.0, 0.0, 0.0, 0.0, 0.0, 0.0, 0.0, 0.0, 0.0, 0.0, 1.6820973843726165E9, 0.0, 2023-04-21 12:16:24.372
233.0, -48619.55924267283, -31900.588500569884, 187500.0, 187500.0, 187500.0, 187500.0, 187500.0, 187500.0, -0.032, 0.996, -0.048, 192.0, 0.0, 0.0, 0.0, 0.0, 0.0, 0.0, 0.0, 0.0, 0.0, 1.6820973843726387E9, 0.0, 2023-04-21 12:16:24.372
234.0, -48655.90317915716, -32104.011726857632, 187500.0, 187500.0, 187500.0, 187500.0, 187500.0, 187500.0, -0.032, 0.996, -0.048, 192.0, 0.0, 0.0, 0.0, 0.0, 0.0, 0.0, 0.0, 0.0, 0.0, 1.6820973843726487E9, 0.0, 2023-04-21 12:16:24.372
235.0, -48707.84863327129, -32123.390689300384, 187500.0, 187500.0, 187500.0, 187500.0, 187500.0, 187500.0, -0.032, 0.996, -0.048, 192.0, 0.0, 0.0, 0.0, 0.0, 0.0, 0.0, 0.0, 0.0, 0.0, 1.6820973843726592E9, 0.0, 2023-04-21 12:16:24.372
236.0, -48669.18011536361, -31993.77292320406, 187500.0, 187500.0, 187500.0, 187500.0, 187500.0, 187500.0, -0.026000000000000002, 0.98, -0.052000000000000005, 192.0, 255.0, 48.0, 30.0, 160.0, 254.0, 96.0, 0.0, 0.0, 0.0, 1.6820973843726687E9, 0.0, 2023-04-21 12:16:24.372
237.0, -48610.50678616844, -31919.431021145705, 187500.0, 187500.0, 187500.0, 187500.0, 187500.0, 187500.0, -0.026000000000000002, 0.98, -0.052000000000000005, 192.0, 0.0, 0.0, 0.0, 0.0, 0.0, 0.0, 0.0, 0.0, 0.0, 1.6820973843726792E9, 0.0, 2023-04-21 12:16:24.372
238.0, -48640.18990280508, -32099.58608145548, 187500.0, 187500.0, 187500.0, 187500.0, 187500.0, 187500.0, -0.026000000000000002, 0.98, -0.052000000000000005, 192.0, 0.0, 0.0, 0.0, 0.0, 0.0, 0.0, 0.0, 0.0, 0.0, 1.6820973843726888E9, 0.0, 2023-04-21 12:16:24.372
239.0, -48688.2908568729, -32128.911570180844, 187500.0, 187500.0, 187500.0, 187500.0, 187500.0, 187500.0, -0.026000000000000002, 0.98, -0.052000000000000005, 192.0, 0.0, 0.0, 0.0, 0.0, 0.0, 0.0, 0.0, 0.0, 0.0, 1.6820973843726983E9, 0.0, 2023-04-21 12:16:24.372
240.0, -48649.82350466532, -32004.211187864687, 187500.0, 187500.0, 187500.0, 187500.0, 187500.0, 187500.0, -0.026000000000000002, 0.98, -0.052000000000000005, 192.0, 0.0, 0.0, 0.0, 0.0, 0.0, 0.0, 0.0, 0.0, 0.0, 1.6820973843727076E9, 0.0, 2023-04-21 12:16:24.372
241.0, -48590.81489930331, -31883.1764916392, 187500.0, 187500.0, 187500.0, 187500.0, 187500.0, 187500.0, -0.026000000000000002, 0.98, -0.052000000000000005, 192.0, 0.0, 0.0, 0.0, 0.0, 0.0, 0.0, 0.0, 0.0, 0.0, 1.6820973843727367E9, 0.0, 2023-04-21 12:16:24.372
242.0, -48632.97028934602, -32074.10509277643, 187500.0, 187500.0, 187500.0, 187500.0, 187500.0, 187500.0, -0.026000000000000002, 0.98, -0.052000000000000005, 192.0, 0.0, 0.0, 0.0, 0.0, 0.0, 0.0, 0.0, 0.0, 0.0, 1.682097384372746E9, 0.0, 2023-04-21 12:16:24.372
243.0, -48657.758373946956, -32123.390689300384, 187500.0, 187500.0, 187500.0, 187500.0, 187500.0, 187500.0, -0.026000000000000002, 0.98, -0.052000000000000005, 192.0, 0.0, 0.0, 0.0, 0.0, 0.0, 0.0, 0.0, 0.0, 0.0, 1.6820973843727555E9, 0.0, 2023-04-21 12:16:24.372
244.0, -48658.54068500289, -32048.065310486, 187500.0, 187500.0, 187500.0, 187500.0, 187500.0, 187500.0, -0.026000000000000002, 0.98, -0.052000000000000005, 192.0, 0.0, 0.0, 0.0, 0.0, 0.0, 0.0, 0.0, 0.0, 0.0, 1.6820973843727648E9, 0.0, 2023-04-21 12:16:24.372
245.0, -48617.18995776057, -31871.86650894481, 187500.0, 187500.0, 187500.0, 187500.0, 187500.0, 187500.0, -0.026000000000000002, 0.98, -0.052000000000000005, 192.0, 0.0, 0.0, 0.0, 0.0, 0.0, 0.0, 0.0, 0.0, 0.0, 1.6820973843727741E9, 0.0, 2023-04-21 12:16:24.372
246.0, -48616.58646066028, -32029.51336258809, 187500.0, 187500.0, 187500.0, 187500.0, 187500.0, 187500.0, -0.01, 0.984, -0.054, 192.0, 255.0, 176.0, 30.0, 192.0, 254.0, 80.0, 0.0, 0.0, 0.0, 1.6820973843727837E9, 0.0, 2023-04-21 12:16:24.372
247.0, -48650.1811325766, -32130.87852369291, 187500.0, 187500.0, 187500.0, 187500.0, 187500.0, 187500.0, -0.01, 0.984, -0.054, 192.0, 0.0, 0.0, 0.0, 0.0, 0.0, 0.0, 0.0, 0.0, 0.0, 1.682097384372794E9, 0.0, 2023-04-21 12:16:24.372
248.0, -48673.96338867705, -32074.507424176627, 187500.0, 187500.0, 187500.0, 187500.0, 187500.0, 187500.0, -0.01, 0.984, -0.054, 192.0, 0.0, 0.0, 0.0, 0.0, 0.0, 0.0, 0.0, 0.0, 0.0, 1.6820973843728447E9, 0.0, 2023-04-21 12:16:24.372
249.0, -48604.62827737669, -31896.386372612284, 187500.0, 187500.0, 187500.0, 187500.0, 187500.0, 187500.0, -0.01, 0.984, -0.054, 192.0, 0.0, 0.0, 0.0, 0.0, 0.0, 0.0, 0.0, 0.0, 0.0, 1.6820973843728545E9, 0.0, 2023-04-21 12:16:24.372
250.0, -48585.85281203423, -31986.039219622522, 187500.0, 187500.0, 187500.0, 187500.0, 187500.0, 187500.0, -0.01, 0.984, -0.054, 192.0, 0.0, 0.0, 0.0, 0.0, 0.0, 0.0, 0.0, 0.0, 0.0, 1.6820973843728642E9, 0.0, 2023-04-21 12:16:24.372
251.0, -48640.748696416464, -32121.960177655244, 187500.0, 187500.0, 187500.0, 187500.0, 187500.0, 187500.0, -0.01, 0.984, -0.054, 192.0, 0.0, 0.0, 0.0, 0.0, 0.0, 0.0, 0.0, 0.0, 0.0, 1.6820973843728752E9, 0.0, 2023-04-21 12:16:24.372
252.0, -48673.85162995478, -32083.62693591439, 187500.0, 187500.0, 187500.0, 187500.0, 187500.0, 187500.0, -0.01, 0.984, -0.054, 192.0, 0.0, 0.0, 0.0, 0.0, 0.0, 0.0, 0.0, 0.0, 0.0, 1.6820973843728845E9, 0.0, 2023-04-21 12:16:24.372
253.0, -48627.538815443375, -31922.247340947073, 187500.0, 187500.0, 187500.0, 187500.0, 187500.0, 187500.0, -0.01, 0.984, -0.054, 192.0, 0.0, 0.0, 0.0, 0.0, 0.0, 0.0, 0.0, 0.0, 0.0, 1.682097384372894E9, 0.0, 2023-04-21 12:16:24.372
254.0, -48597.25220170644, -31961.385245488316, 187500.0, 187500.0, 187500.0, 187500.0, 187500.0, 187500.0, -0.01, 0.984, -0.054, 192.0, 0.0, 0.0, 0.0, 0.0, 0.0, 0.0, 0.0, 0.0, 0.0, 1.682097384372903E9, 0.0, 2023-04-21 12:16:24.372
255.0, -48628.187016032585, -32093.50640696364, 187500.0, 187500.0, 187500.0, 187500.0, 187500.0, 187500.0, -0.01, 0.984, -0.054, 192.0, 0.0, 0.0, 0.0, 0.0, 0.0, 0.0, 0.0, 0.0, 0.0, 1.6820973843729124E9, 0.0, 2023-04-21 12:16:24.372
0.0, -48677.15968813416, -32081.883499846877, 187500.0, 187500.0, 187500.0, 187500.0, 187500.0, 187500.0, -0.008, 0.966, -0.058, 192.0, 255.0, 192.0, 30.0, 48.0, 254.0, 48.0, 0.0, 0.0, 0.0, 1.6820973843729217E9, 0.0, 2023-04-21 12:16:24.372
1.0, -48623.60490841924, -31948.667102893247, 187500.0, 187500.0, 187500.0, 187500.0, 187500.0, 187500.0, -0.008, 0.966, -0.058, 192.0, 0.0, 0.0, 0.0, 0.0, 0.0, 0.0, 0.0, 0.0, 0.0, 1.682097384372932E9, 0.0, 2023-04-21 12:16:24.372
2.0, -48584.6681695781, -31923.431983403207, 187500.0, 187500.0, 187500.0, 187500.0, 187500.0, 187500.0, -0.008, 0.966, -0.058, 192.0, 0.0, 0.0, 0.0, 0.0, 0.0, 0.0, 0.0, 0.0, 0.0, 1.6820973843729544E9, 0.0, 2023-04-21 12:16:24.372
3.0, -48619.8274636063, -32083.11284579192, 187500.0, 187500.0, 187500.0, 187500.0, 187500.0, 187500.0, -0.008, 0.966, -0.058, 192.0, 0.0, 0.0, 0.0, 0.0, 0.0, 0.0, 0.0, 0.0, 0.0, 1.6820973843729641E9, 0.0, 2023-04-21 12:16:24.372
4.0, -48674.946865433085, -32111.20898857224, 187500.0, 187500.0, 187500.0, 187500.0, 187500.0, 187500.0, -0.008, 0.966, -0.058, 192.0, 0.0, 0.0, 0.0, 0.0, 0.0, 0.0, 0.0, 0.0, 0.0, 1.6820973843729737E9, 0.0, 2023-04-21 12:16:24.372
5.0, -48652.572769233324, -32011.542560046026, 187500.0, 187500.0, 187500.0, 187500.0, 187500.0, 187500.0, -0.008, 0.966, -0.058, 192.0, 0.0, 0.0, 0.0, 0.0, 0.0, 0.0, 0.0, 0.0, 0.0, 1.6820973843729932E9, 0.0, 2023-04-21 12:16:24.372
6.0, -48580.488393364954, -31916.25707343305, 187500.0, 187500.0, 187500.0, 187500.0, 187500.0, 187500.0, -0.008, 0.966, -0.058, 192.0, 0.0, 0.0, 0.0, 0.0, 0.0, 0.0, 0.0, 0.0, 0.0, 1.682097384373003E9, 0.0, 2023-04-21 12:16:24.373
7.0, -48605.83527157728, -32086.01857257111, 187500.0, 187500.0, 187500.0, 187500.0, 187500.0, 187500.0, -0.008, 0.966, -0.058, 192.0, 0.0, 0.0, 0.0, 0.0, 0.0, 0.0, 0.0, 0.0, 0.0, 1.6820973843730264E9, 0.0, 2023-04-21 12:16:24.373
8.0, -48654.13739134519, -32120.730831710203, 187500.0, 187500.0, 187500.0, 187500.0, 187500.0, 187500.0, -0.008, 0.966, -0.058, 192.0, 0.0, 0.0, 0.0, 0.0, 0.0, 0.0, 0.0, 0.0, 0.0, 1.682097384373036E9, 0.0, 2023-04-21 12:16:24.373
9.0, -48648.77297267592, -32038.8116882815, 187500.0, 187500.0, 187500.0, 187500.0, 187500.0, 187500.0, -0.008, 0.966, -0.058, 192.0, 0.0, 0.0, 0.0, 0.0, 0.0, 0.0, 0.0, 0.0, 0.0, 1.6820973843730457E9, 0.0, 2023-04-21 12:16:24.373
10.0, -48587.46213763501, -31921.04034674649, 187500.0, 187500.0, 187500.0, 187500.0, 187500.0, 187500.0, -0.014, 0.97, -0.062, 192.0, 255.0, 144.0, 30.0, 80.0, 254.0, 16.0, 0.0, 0.0, 0.0, 1.6820973843730547E9, 0.0, 2023-04-21 12:16:24.373
11.0, -48588.62442834669, -32074.932107321278, 187500.0, 187500.0, 187500.0, 187500.0, 187500.0, 187500.0, -0.014, 0.97, -0.062, 192.0, 0.0, 0.0, 0.0, 0.0, 0.0, 0.0, 0.0, 0.0, 0.0, 1.6820973843730648E9, 0.0, 2023-04-21 12:16:24.373
12.0, -48641.12867607221, -32138.612227274447, 187500.0, 187500.0, 187500.0, 187500.0, 187500.0, 187500.0, -0.014, 0.97, -0.062, 192.0, 0.0, 0.0, 0.0, 0.0, 0.0, 0.0, 0.0, 0.0, 0.0, 1.6820973843730748E9, 0.0, 2023-04-21 12:16:24.373
13.0, -48641.665117939134, -32058.414168168805, 187500.0, 187500.0, 187500.0, 187500.0, 187500.0, 187500.0, -0.014, 0.97, -0.062, 192.0, 0.0, 0.0, 0.0, 0.0, 0.0, 0.0, 0.0, 0.0, 0.0, 1.6820973843730843E9, 0.0, 2023-04-21 12:16:24.373
14.0, -48609.3221437123, -31918.447544389674, 187500.0, 187500.0, 187500.0, 187500.0, 187500.0, 187500.0, -0.014, 0.97, -0.062, 192.0, 0.0, 0.0, 0.0, 0.0, 0.0, 0.0, 0.0, 0.0, 0.0, 1.6820973843730934E9, 0.0, 2023-04-21 12:16:24.373
15.0, -48615.49122518197, -32048.758214564114, 187500.0, 187500.0, 187500.0, 187500.0, 187500.0, 187500.0, -0.014, 0.97, -0.062, 192.0, 0.0, 0.0, 0.0, 0.0, 0.0, 0.0, 0.0, 0.0, 0.0, 1.682097384373103E9, 0.0, 2023-04-21 12:16:24.373
16.0, -48644.90612088515, -32120.574369499016, 187500.0, 187500.0, 187500.0, 187500.0, 187500.0, 187500.0, -0.014, 0.97, -0.062, 192.0, 0.0, 0.0, 0.0, 0.0, 0.0, 0.0, 0.0, 0.0, 0.0, 1.6820973843731241E9, 0.0, 2023-04-21 12:16:24.373
17.0, -48648.01301336444, -32084.744523137157, 187500.0, 187500.0, 187500.0, 187500.0, 187500.0, 187500.0, -0.014, 0.97, -0.062, 192.0, 0.0, 0.0, 0.0, 0.0, 0.0, 0.0, 0.0, 0.0, 0.0, 1.682097384373135E9, 0.0, 2023-04-21 12:16:24.373
18.0, -48612.18316700258, -31944.28616098001, 187500.0, 187500.0, 187500.0, 187500.0, 187500.0, 187500.0, -0.014, 0.97, -0.062, 192.0, 0.0, 0.0, 0.0, 0.0, 0.0, 0.0, 0.0, 0.0, 0.0, 1.6820973843731449E9, 0.0, 2023-04-21 12:16:24.373
19.0, -48612.22787049149, -32022.919597973778, 187500.0, 187500.0, 187500.0, 187500.0, 187500.0, 187500.0, -0.014, 0.97, -0.062, 192.0, 0.0, 0.0, 0.0, 0.0, 0.0, 0.0, 0.0, 0.0, 0.0, 1.6820973843731544E9, 0.0, 2023-04-21 12:16:24.373
20.0, -48629.572824188814, -32125.514105023638, 187500.0, 187500.0, 187500.0, 187500.0, 187500.0, 187500.0, -0.014, 0.97, -0.062, 192.0, 0.0, 0.0, 0.0, 0.0, 0.0, 0.0, 0.0, 0.0, 0.0, 1.682097384373208E9, 0.0, 2023-04-21 12:16:24.373
21.0, -48658.54068500289, -32109.823180416013, 187500.0, 187500.0, 187500.0, 187500.0, 187500.0, 187500.0, -0.018000000000000002, 0.99, -0.066, 192.0, 255.0, 112.0, 30.0, 240.0, 253.0, 240.0, 0.0, 0.0, 0.0, 1.682097384373218E9, 0.0, 2023-04-21 12:16:24.373
22.0, -48618.32989672779, -31974.148091572297, 187500.0, 187500.0, 187500.0, 187500.0, 187500.0, 187500.0, -0.018000000000000002, 0.99, -0.066, 192.0, 0.0, 0.0, 0.0, 0.0, 0.0, 0.0, 0.0, 0.0, 0.0, 1.682097384373243E9, 0.0, 2023-04-21 12:16:24.373
23.0, -48584.93639051156, -31995.80693194949, 187500.0, 187500.0, 187500.0, 187500.0, 187500.0, 187500.0, -0.018000000000000002, 0.99, -0.066, 192.0, 0.0, 0.0, 0.0, 0.0, 0.0, 0.0, 0.0, 0.0, 0.0, 1.6820973843732529E9, 0.0, 2023-04-21 12:16:24.373
24.0, -48603.57774538729, -32115.20995082974, 187500.0, 187500.0, 187500.0, 187500.0, 187500.0, 187500.0, -0.018000000000000002, 0.99, -0.066, 192.0, 0.0, 0.0, 0.0, 0.0, 0.0, 0.0, 0.0, 0.0, 0.0, 1.6820973843732624E9, 0.0, 2023-04-21 12:16:24.373
25.0, -48650.49405699898, -32123.949482911765, 187500.0, 187500.0, 187500.0, 187500.0, 187500.0, 187500.0, -0.018000000000000002, 0.99, -0.066, 192.0, 0.0, 0.0, 0.0, 0.0, 0.0, 0.0, 0.0, 0.0, 0.0, 1.6820973843732717E9, 0.0, 2023-04-21 12:16:24.373
26.0, -48617.14525427166, -32001.417219807772, 187500.0, 187500.0, 187500.0, 187500.0, 187500.0, 187500.0, -0.018000000000000002, 0.99, -0.066, 192.0, 0.0, 0.0, 0.0, 0.0, 0.0, 0.0, 0.0, 0.0, 0.0, 1.6820973843732812E9, 0.0, 2023-04-21 12:16:24.373
27.0, -48580.488393364954, -31969.856556636878, 187500.0, 187500.0, 187500.0, 187500.0, 187500.0, 187500.0, -0.018000000000000002, 0.99, -0.066, 192.0, 0.0, 0.0, 0.0, 0.0, 0.0, 0.0, 0.0, 0.0, 0.0, 1.6820973843732908E9, 0.0, 2023-04-21 12:16:24.373
28.0, -48581.49422186545, -32117.221607830717, 187500.0, 187500.0, 187500.0, 187500.0, 187500.0, 187500.0, -0.018000000000000002, 0.99, -0.066, 192.0, 0.0, 0.0, 0.0, 0.0, 0.0, 0.0, 0.0, 0.0, 0.0, 1.6820973843733E9, 0.0, 2023-04-21 12:16:24.373
29.0, -48629.59517593327, -32136.82408771802, 187500.0, 187500.0, 187500.0, 187500.0, 187500.0, 187500.0, -0.018000000000000002, 0.99, -0.066, 192.0, 0.0, 0.0, 0.0, 0.0, 0.0, 0.0, 0.0, 0.0, 0.0, 1.6820973843733091E9, 0.0, 2023-04-21 12:16:24.373
30.0, -48620.36390547323, -32035.011891724098, 187500.0, 187500.0, 187500.0, 187500.0, 187500.0, 187500.0, -0.018000000000000002, 0.99, -0.066, 192.0, 0.0, 0.0, 0.0, 0.0, 0.0, 0.0, 0.0, 0.0, 0.0, 1.6820973843733187E9, 0.0, 2023-04-21 12:16:24.373
31.0, -48558.42722158757, -31937.89356206579, 187500.0, 187500.0, 187500.0, 187500.0, 187500.0, 187500.0, -0.038, 0.996, -0.064, 192.0, 254.0, 208.0, 31.0, 32.0, 254.0, 0.0, 0.0, 0.0, 0.0, 1.682097384373328E9, 0.0, 2023-04-21 12:16:24.373
32.0, -48552.14638139563, -32076.742598622157, 187500.0, 187500.0, 187500.0, 187500.0, 187500.0, 187500.0, -0.038, 0.996, -0.064, 192.0, 0.0, 0.0, 0.0, 0.0, 0.0, 0.0, 0.0, 0.0, 0.0, 1.682097384373338E9, 0.0, 2023-04-21 12:16:24.373
33.0, -48611.222041991, -32118.182732842295, 187500.0, 187500.0, 187500.0, 187500.0, 187500.0, 187500.0, -0.038, 0.996, -0.064, 192.0, 0.0, 0.0, 0.0, 0.0, 0.0, 0.0, 0.0, 0.0, 0.0, 1.682097384373361E9, 0.0, 2023-04-21 12:16:24.373
34.0, -48617.65934439413, -32057.453043157228, 187500.0, 187500.0, 187500.0, 187500.0, 187500.0, 187500.0, -0.038, 0.996, -0.064, 192.0, 0.0, 0.0, 0.0, 0.0, 0.0, 0.0, 0.0, 0.0, 0.0, 1.682097384373371E9, 0.0, 2023-04-21 12:16:24.373
35.0, -48569.06665194829, -31941.7380621121, 187500.0, 187500.0, 187500.0, 187500.0, 187500.0, 187500.0, -0.038, 0.996, -0.064, 192.0, 0.0, 0.0, 0.0, 0.0, 0.0, 0.0, 0.0, 0.0, 0.0, 1.6820973843733802E9, 0.0, 2023-04-21 12:16:24.373
36.0, -48585.85281203423, -32090.01953482861, 187500.0, 187500.0, 187500.0, 187500.0, 187500.0, 187500.0, -0.038, 0.996, -0.064, 192.0, 0.0, 0.0, 0.0, 0.0, 0.0, 0.0, 0.0, 0.0, 0.0, 1.6820973843733895E9, 0.0, 2023-04-21 12:16:24.373
37.0, -48615.06654203732, -32142.61318953195, 187500.0, 187500.0, 187500.0, 187500.0, 187500.0, 187500.0, -0.038, 0.996, -0.064, 192.0, 0.0, 0.0, 0.0, 0.0, 0.0, 0.0, 0.0, 0.0, 0.0, 1.6820973843734112E9, 0.0, 2023-04-21 12:16:24.373
38.0, -48613.79249260337, -32073.09926427594, 187500.0, 187500.0, 187500.0, 187500.0, 187500.0, 187500.0, -0.038, 0.996, -0.064, 192.0, 0.0, 0.0, 0.0, 0.0, 0.0, 0.0, 0.0, 0.0, 0.0, 1.6820973843734226E9, 0.0, 2023-04-21 12:16:24.373
39.0, -48583.97526549998, -31949.22589650463, 187500.0, 187500.0, 187500.0, 187500.0, 187500.0, 187500.0, -0.038, 0.996, -0.064, 192.0, 0.0, 0.0, 0.0, 0.0, 0.0, 0.0, 0.0, 0.0, 0.0, 1.682097384373432E9, 0.0, 2023-04-21 12:16:24.373
40.0, -48563.009329200904, -32039.48224061516, 187500.0, 187500.0, 187500.0, 187500.0, 187500.0, 187500.0, -0.038, 0.996, -0.064, 192.0, 0.0, 0.0, 0.0, 0.0, 0.0, 0.0, 0.0, 0.0, 0.0, 1.6820973843734412E9, 0.0, 2023-04-21 12:16:24.373
41.0, -48590.81489930331, -32120.999052643667, 187500.0, 187500.0, 187500.0, 187500.0, 187500.0, 187500.0, -0.018000000000000002, 1.01, -0.052000000000000005, 192.0, 255.0, 112.0, 31.0, 144.0, 254.0, 96.0, 0.0, 0.0, 0.0, 1.6820973843734508E9, 0.0, 2023-04-21 12:16:24.373
42.0, -48633.417324235124, -32110.35962228294, 187500.0, 187500.0, 187500.0, 187500.0, 187500.0, 187500.0, -0.018000000000000002, 1.01, -0.052000000000000005, 192.0, 0.0, 0.0, 0.0, 0.0, 0.0, 0.0, 0.0, 0.0, 0.0, 1.6820973843734608E9, 0.0, 2023-04-21 12:16:24.373
43.0, -48585.29401842285, -31983.871100410357, 187500.0, 187500.0, 187500.0, 187500.0, 187500.0, 187500.0, -0.018000000000000002, 1.01, -0.052000000000000005, 192.0, 0.0, 0.0, 0.0, 0.0, 0.0, 0.0, 0.0, 0.0, 0.0, 1.6820973843734703E9, 0.0, 2023-04-21 12:16:24.373
44.0, -48559.92478846607, -32038.163487692298, 187500.0, 187500.0, 187500.0, 187500.0, 187500.0, 187500.0, -0.018000000000000002, 1.01, -0.052000000000000005, 192.0, 0.0, 0.0, 0.0, 0.0, 0.0, 0.0, 0.0, 0.0, 0.0, 1.68209738437348E9, 0.0, 2023-04-21 12:16:24.373
45.0, -48589.026759746885, -32144.04370117709, 187500.0, 187500.0, 187500.0, 187500.0, 187500.0, 187500.0, -0.018000000000000002, 1.01, -0.052000000000000005, 192.0, 0.0, 0.0, 0.0, 0.0, 0.0, 0.0, 0.0, 0.0, 0.0, 1.6820973843734896E9, 0.0, 2023-04-21 12:16:24.373
46.0, -48633.842007379775, -32151.196259402786, 187500.0, 187500.0, 187500.0, 187500.0, 187500.0, 187500.0, -0.018000000000000002, 1.01, -0.052000000000000005, 192.0, 0.0, 0.0, 0.0, 0.0, 0.0, 0.0, 0.0, 0.0, 0.0, 1.682097384373499E9, 0.0, 2023-04-21 12:16:24.373
47.0, -48578.92377125309, -32005.1052576429, 187500.0, 187500.0, 187500.0, 187500.0, 187500.0, 187500.0, -0.018000000000000002, 1.01, -0.052000000000000005, 192.0, 0.0, 0.0, 0.0, 0.0, 0.0, 0.0, 0.0, 0.0, 0.0, 1.6820973843735085E9, 0.0, 2023-04-21 12:16:24.373
48.0, -48537.505988777404, -31995.896338927312, 187500.0, 187500.0, 187500.0, 187500.0, 187500.0, 187500.0, -0.018000000000000002, 1.01, -0.052000000000000005, 192.0, 0.0, 0.0, 0.0, 0.0, 0.0, 0.0, 0.0, 0.0, 0.0, 1.682097384373518E9, 0.0, 2023-04-21 12:16:24.373
49.0, -48517.18825306753, -32083.895156847855, 187500.0, 187500.0, 187500.0, 187500.0, 187500.0, 187500.0, -0.018000000000000002, 1.01, -0.052000000000000005, 192.0, 0.0, 0.0, 0.0, 0.0, 0.0, 0.0, 0.0, 0.0, 0.0, 1.6820973843735285E9, 0.0, 2023-04-21 12:16:24.373
50.0, -48606.5728791443, -32131.437317304295, 187500.0, 187500.0, 187500.0, 187500.0, 187500.0, 187500.0, -0.018000000000000002, 1.01, -0.052000000000000005, 192.0, 0.0, 0.0, 0.0, 0.0, 0.0, 0.0, 0.0, 0.0, 0.0, 1.6820973843735394E9, 0.0, 2023-04-21 12:16:24.373
51.0, -48598.43684416257, -32044.086699972955, 187500.0, 187500.0, 187500.0, 187500.0, 187500.0, 187500.0, -0.036000000000000004, 0.992, -0.044, 192.0, 254.0, 224.0, 31.0, 0.0, 254.0, 160.0, 0.0, 0.0, 0.0, 1.6820973843735487E9, 0.0, 2023-04-21 12:16:24.373
52.0, -48540.97050916797, -31992.9012051703, 187500.0, 187500.0, 187500.0, 187500.0, 187500.0, 187500.0, -0.036000000000000004, 0.992, -0.044, 192.0, 0.0, 0.0, 0.0, 0.0, 0.0, 0.0, 0.0, 0.0, 0.0, 1.6820973843736007E9, 0.0, 2023-04-21 12:16:24.373
53.0, -48535.762552709886, -32126.207009101752, 187500.0, 187500.0, 187500.0, 187500.0, 187500.0, 187500.0, -0.036000000000000004, 0.992, -0.044, 192.0, 0.0, 0.0, 0.0, 0.0, 0.0, 0.0, 0.0, 0.0, 0.0, 1.6820973843736107E9, 0.0, 2023-04-21 12:16:24.373
0.0, 0.0, 0.0, 0.0, 0.0, 0.0, 0.0, 0.0, 0.0, -0.036000000000000004, 0.992, -0.044, 192.0, 0.0, 0.0, 0.0, 0.0, 0.0, 0.0, 0.0, 0.0, 0.0, 1.682097384447805E9, 0.0, 2023-04-21 12:16:24.447
1.0, -32429.117849960072, -22627.274409207632, 187500.0, 187500.0, -187500.02235174447, 187500.0, 187500.0, 187500.0, 0.012, 0.978, 0.16, 192.0, 0.0, 96.0, 30.0, 144.0, 5.0, 0.0, 0.0, 0.0, 0.0, 1.6820973846459007E9, 0.0, 2023-04-21 12:16:24.645
2.0, -31970.884736881824, -21553.720123019233, 187500.0, 187500.0, -187500.02235174447, 187500.0, 187500.0, 187500.0, 0.012, 0.978, 0.16, 192.0, 0.0, 0.0, 0.0, 0.0, 0.0, 0.0, 0.0, 0.0, 0.0, 1.6820973846459405E9, 0.0, 2023-04-21 12:16:24.645
3.0, -33650.81949839825, -22740.418939640396, 187500.0, 187500.0, -187500.02235174447, 187500.0, 187500.0, 187500.0, 0.012, 0.978, 0.16, 192.0, 0.0, 0.0, 0.0, 0.0, 0.0, 0.0, 0.0, 0.0, 0.0, 1.6820973846459577E9, 0.0, 2023-04-21 12:16:24.645
4.0, -34376.42417865088, -23948.73189314984, 187500.0, 187500.0, -187500.02235174447, 187500.0, 187500.0, 187500.0, 0.012, 0.978, 0.16, 192.0, 0.0, 0.0, 0.0, 0.0, 0.0, 0.0, 0.0, 0.0, 0.0, 1.6820973846459742E9, 0.0, 2023-04-21 12:16:24.645
5.0, -32768.484386025, -22999.74387881087, 187500.0, 187500.0, -187500.02235174447, 187500.0, 187500.0, 187500.0, 0.012, 0.978, 0.16, 192.0, 0.0, 0.0, 0.0, 0.0, 0.0, 0.0, 0.0, 0.0, 0.0, 1.6820973846459975E9, 0.0, 2023-04-21 12:16:24.645
6.0, -31931.65742536276, -21691.920958986397, 187500.0, 187500.0, -187500.02235174447, 187500.0, 187500.0, 187500.0, 0.012, 0.978, 0.16, 192.0, 0.0, 0.0, 0.0, 0.0, 0.0, 0.0, 0.0, 0.0, 0.0, 1.6820973846460135E9, 0.0, 2023-04-21 12:16:24.646
7.0, -33384.386704490986, -22494.661509354297, 187500.0, 187500.0, -187500.02235174447, 187500.0, 187500.0, 187500.0, 0.012, 0.978, 0.16, 192.0, 0.0, 0.0, 0.0, 0.0, 0.0, 0.0, 0.0, 0.0, 0.0, 1.6820973846460292E9, 0.0, 2023-04-21 12:16:24.646
8.0, -34403.939176075364, -23869.472607311323, 187500.0, 187500.0, -187500.02235174447, 187500.0, 187500.0, 187500.0, 0.004, 0.9540000000000001, 0.258, 192.0, 0.0, 32.0, 29.0, 208.0, 8.0, 16.0, 0.0, 0.0, 0.0, 1.6820973846460447E9, 0.0, 2023-04-21 12:16:24.646
9.0, -33141.825573662, -23234.83952699179, 187500.0, 187500.0, -187500.02235174447, 187500.0, 187500.0, 187500.0, 0.004, 0.9540000000000001, 0.258, 192.0, 0.0, 0.0, 0.0, 0.0, 0.0, 0.0, 0.0, 0.0, 0.0, 1.682097384646062E9, 0.0, 2023-04-21 12:16:24.646
10.0, -31957.451338464183, -21804.014957429765, 187500.0, 187500.0, -187500.02235174447, 187500.0, 187500.0, 187500.0, 0.004, 0.9540000000000001, 0.258, 192.0, 0.0, 0.0, 0.0, 0.0, 0.0, 0.0, 0.0, 0.0, 0.0, 1.6820973846460776E9, 0.0, 2023-04-21 12:16:24.646
11.0, -33105.302823222024, -22222.797241544395, 187500.0, 187500.0, -187500.02235174447, 187500.0, 187500.0, 187500.0, 0.004, 0.9540000000000001, 0.258, 192.0, 0.0, 0.0, 0.0, 0.0, 0.0, 0.0, 0.0, 0.0, 0.0, 1.6820973846460936E9, 0.0, 2023-04-21 12:16:24.646
12.0, -34302.149331825894, -23676.867625339943, 187500.0, 187500.0, -187500.02235174447, 187500.0, 187500.0, 187500.0, 0.004, 0.9540000000000001, 0.258, 192.0, 0.0, 0.0, 0.0, 0.0, 0.0, 0.0, 0.0, 0.0, 0.0, 1.6820973846461096E9, 0.0, 2023-04-21 12:16:24.646
13.0, -33390.06404758264, -23340.29505733193, 187500.0, 187500.0, -187500.02235174447, 187500.0, 187500.0, 187500.0, 0.004, 0.9540000000000001, 0.258, 192.0, 0.0, 0.0, 0.0, 0.0, 0.0, 0.0, 0.0, 0.0, 0.0, 1.6820973846461253E9, 0.0, 2023-04-21 12:16:24.646
14.0, -32050.30048493153, -21935.5773252937, 187500.0, 187500.0, -187500.02235174447, 187500.0, 187500.0, 187500.0, 0.004, 0.9540000000000001, 0.258, 192.0, 0.0, 0.0, 0.0, 0.0, 0.0, 0.0, 0.0, 0.0, 0.0, 1.68209738464619E9, 0.0, 2023-04-21 12:16:24.646
15.0, -32870.765968652486, -22080.103704941717, 187500.0, 187500.0, -187500.02235174447, 187500.0, 187500.0, 187500.0, 0.004, 0.9540000000000001, 0.258, 192.0, 0.0, 0.0, 0.0, 0.0, 0.0, 0.0, 0.0, 0.0, 0.0, 1.6820973846462047E9, 0.0, 2023-04-21 12:16:24.646
16.0, -34160.14869930133, -23567.4111327423, 187500.0, 187500.0, -187500.02235174447, 187500.0, 187500.0, 187500.0, 0.004, 0.9540000000000001, 0.258, 192.0, 0.0, 0.0, 0.0, 0.0, 0.0, 0.0, 0.0, 0.0, 0.0, 1.6820973846462193E9, 0.0, 2023-04-21 12:16:24.646
17.0, -33589.95569824644, -23490.588187049412, 187500.0, 187500.0, -187500.02235174447, 187500.0, 187500.0, 187500.0, 0.004, 0.9540000000000001, 0.258, 192.0, 0.0, 0.0, 0.0, 0.0, 0.0, 0.0, 0.0, 0.0, 0.0, 1.6820973846462336E9, 0.0, 2023-04-21 12:16:24.646
18.0, -32218.56441719108, -22203.910017479662, 187500.0, 187500.0, -187500.02235174447, 187500.0, 187500.0, 187500.0, -0.01, 0.93, 0.33, 192.0, 255.0, 176.0, 29.0, 16.0, 10.0, 80.0, 0.0, 0.0, 0.0, 1.682097384646248E9, 0.0, 2023-04-21 12:16:24.646
19.0, -32705.787742827863, -22124.4719176855, 187500.0, 187500.0, -187500.02235174447, 187500.0, 187500.0, 187500.0, -0.01, 0.93, 0.33, 192.0, 0.0, 0.0, 0.0, 0.0, 0.0, 0.0, 0.0, 0.0, 0.0, 1.6820973846462648E9, 0.0, 2023-04-21 12:16:24.646
20.0, -34004.73702010358, -23593.540322010558, 187500.0, 187500.0, -187500.02235174447, 187500.0, 187500.0, 187500.0, -0.01, 0.93, 0.33, 192.0, 0.0, 0.0, 0.0, 0.0, 0.0, 0.0, 0.0, 0.0, 0.0, 1.6820973846462796E9, 0.0, 2023-04-21 12:16:24.646
21.0, -33731.93397902656, -23791.241501717748, 187500.0, 187500.0, -187500.02235174447, 187500.0, 187500.0, 187500.0, -0.01, 0.93, 0.33, 192.0, 0.0, 0.0, 0.0, 0.0, 0.0, 0.0, 0.0, 0.0, 0.0, 1.682097384646294E9, 0.0, 2023-04-21 12:16:24.646
22.0, -32364.7895294177, -22635.321037211543, 187500.0, 187500.0, -187500.02235174447, 187500.0, 187500.0, 187500.0, -0.01, 0.93, 0.33, 192.0, 0.0, 0.0, 0.0, 0.0, 0.0, 0.0, 0.0, 0.0, 0.0, 1.6820973846463084E9, 0.0, 2023-04-21 12:16:24.646
23.0, -32534.886304722586, -22351.923269262705, 187500.0, 187500.0, -187500.02235174447, 187500.0, 187500.0, 187500.0, -0.01, 0.93, 0.33, 192.0, 0.0, 0.0, 0.0, 0.0, 0.0, 0.0, 0.0, 0.0, 0.0, 1.6820973846463227E9, 0.0, 2023-04-21 12:16:24.646
24.0, -33737.633673862656, -23697.78885815011, 187500.0, 187500.0, -187500.02235174447, 187500.0, 187500.0, 187500.0, -0.01, 0.93, 0.33, 192.0, 0.0, 0.0, 0.0, 0.0, 0.0, 0.0, 0.0, 0.0, 0.0, 1.6820973846463373E9, 0.0, 2023-04-21 12:16:24.646
25.0, -33691.72319075146, -24095.605205965665, 187500.0, 187500.0, -187500.02235174447, 187500.0, 187500.0, 187500.0, -0.01, 0.93, 0.33, 192.0, 0.0, 0.0, 0.0, 0.0, 0.0, 0.0, 0.0, 0.0, 0.0, 1.6820973846463516E9, 0.0, 2023-04-21 12:16:24.646
26.0, -32449.256771714307, -23042.65922816506, 187500.0, 187500.0, -187500.02235174447, 187500.0, 187500.0, 187500.0, -0.01, 0.93, 0.33, 192.0, 0.0, 0.0, 0.0, 0.0, 0.0, 0.0, 0.0, 0.0, 0.0, 1.682097384646366E9, 0.0, 2023-04-21 12:16:24.646
27.0, -32414.052774197196, -22671.01677310667, 187500.0, 187500.0, -187500.02235174447, 187500.0, 187500.0, 187500.0, -0.01, 0.93, 0.33, 192.0, 0.0, 0.0, 0.0, 0.0, 0.0, 0.0, 0.0, 0.0, 0.0, 1.682097384646386E9, 0.0, 2023-04-21 12:16:24.646
28.0, -33577.14814867356, -23907.96231126336, 187500.0, 187500.0, -187500.02235174447, 187500.0, 187500.0, 187500.0, -0.024, 0.882, 0.356, 192.0, 255.0, 64.0, 27.0, 144.0, 11.0, 32.0, 0.0, 0.0, 0.0, 1.6820973846464005E9, 0.0, 2023-04-21 12:16:24.646
29.0, -33721.54041785484, -24458.84340510886, 187500.0, 187500.0, -187500.02235174447, 187500.0, 187500.0, 187500.0, -0.024, 0.882, 0.356, 192.0, 0.0, 0.0, 0.0, 0.0, 0.0, 0.0, 0.0, 0.0, 0.0, 1.6820973846464343E9, 0.0, 2023-04-21 12:16:24.646
30.0, -32662.134785906648, -23394.945072525155, 187500.0, 187500.0, -187500.02235174447, 187500.0, 187500.0, 187500.0, -0.024, 0.882, 0.356, 192.0, 0.0, 0.0, 0.0, 0.0, 0.0, 0.0, 0.0, 0.0, 0.0, 1.682097384646449E9, 0.0, 2023-04-21 12:16:24.646
31.0, -32478.24698427284, -22786.016498329223, 187500.0, 187500.0, -187500.02235174447, 187500.0, 187500.0, 187500.0, -0.024, 0.882, 0.356, 192.0, 0.0, 0.0, 0.0, 0.0, 0.0, 0.0, 0.0, 0.0, 0.0, 1.6820973846464639E9, 0.0, 2023-04-21 12:16:24.646
32.0, -33501.59925241461, -23656.482834396702, 187500.0, 187500.0, -187500.02235174447, 187500.0, 187500.0, 187500.0, -0.024, 0.882, 0.356, 192.0, 0.0, 0.0, 0.0, 0.0, 0.0, 0.0, 0.0, 0.0, 0.0, 1.6820973846464784E9, 0.0, 2023-04-21 12:16:24.646
33.0, -33749.927133313075, -24144.510822833876, 187500.0, 187500.0, -187500.02235174447, 187500.0, 187500.0, 187500.0, -0.024, 0.882, 0.356, 192.0, 0.0, 0.0, 0.0, 0.0, 0.0, 0.0, 0.0, 0.0, 0.0, 1.6820973846464925E9, 0.0, 2023-04-21 12:16:24.646
34.0, -32793.9430229596, -22952.134663121065, 187500.0, 187500.0, -187500.02235174447, 187500.0, 187500.0, 187500.0, -0.024, 0.882, 0.356, 192.0, 0.0, 0.0, 0.0, 0.0, 0.0, 0.0, 0.0, 0.0, 0.0, 1.6820973846465073E9, 0.0, 2023-04-21 12:16:24.646
35.0, -32418.27725389925, -21945.81442425423, 187500.0, 187500.0, -187500.02235174447, 187500.0, 187500.0, 187500.0, -0.024, 0.882, 0.356, 192.0, 0.0, 0.0, 0.0, 0.0, 0.0, 0.0, 0.0, 0.0, 0.0, 1.6820973846465213E9, 0.0, 2023-04-21 12:16:24.646
36.0, -33297.483122048754, -22541.399007010343, 187500.0, 187500.0, -187500.02235174447, 187500.0, 187500.0, 187500.0, -0.024, 0.882, 0.356, 192.0, 0.0, 0.0, 0.0, 0.0, 0.0, 0.0, 0.0, 0.0, 0.0, 1.6820973846465356E9, 0.0, 2023-04-21 12:16:24.646
37.0, -33684.7494464814, -23313.674129685656, 187500.0, 187500.0, -187500.02235174447, 187500.0, 187500.0, 187500.0, -0.024, 0.882, 0.356, 192.0, 0.0, 0.0, 0.0, 0.0, 0.0, 0.0, 0.0, 0.0, 0.0, 1.6820973846465502E9, 0.0, 2023-04-21 12:16:24.646
38.0, -32868.664904673686, -22309.253789097525, 187500.0, 187500.0, -187500.02235174447, 187500.0, 187500.0, 187500.0, -0.024, 0.882, 0.356, 192.0, 0.0, 0.0, 0.0, 0.0, 0.0, 0.0, 0.0, 0.0, 0.0, 1.6820973846465645E9, 0.0, 2023-04-21 12:16:24.646
39.0, -32342.21426751784, -21188.649080830703, 187500.0, 187500.0, -187500.02235174447, 187500.0, 187500.0, 187500.0, 0.032, 0.92, 0.376, 192.0, 1.0, 0.0, 28.0, 192.0, 11.0, 192.0, 0.0, 0.0, 0.0, 1.6820973846465788E9, 0.0, 2023-04-21 12:16:24.646
40.0, -33010.12909533132, -21589.997004270197, 187500.0, 187500.0, -187500.02235174447, 187500.0, 187500.0, 187500.0, 0.032, 0.92, 0.376, 192.0, 0.0, 0.0, 0.0, 0.0, 0.0, 0.0, 0.0, 0.0, 0.0, 1.6820973846465943E9, 0.0, 2023-04-21 12:16:24.646
41.0, -33466.797586297704, -22562.90138517635, 187500.0, 187500.0, -187500.02235174447, 187500.0, 187500.0, 187500.0, 0.032, 0.92, 0.376, 192.0, 0.0, 0.0, 0.0, 0.0, 0.0, 0.0, 0.0, 0.0, 0.0, 1.6820973846466086E9, 0.0, 2023-04-21 12:16:24.646
42.0, -32795.08296192682, -21789.821599700645, 187500.0, 187500.0, -187500.02235174447, 187500.0, 187500.0, 187500.0, 0.032, 0.92, 0.376, 192.0, 0.0, 0.0, 0.0, 0.0, 0.0, 0.0, 0.0, 0.0, 0.0, 1.682097384646625E9, 0.0, 2023-04-21 12:16:24.646
43.0, -32294.91797625041, -20525.025787952636, 187500.0, 187500.0, -187500.02235174447, 187500.0, 187500.0, 187500.0, 0.032, 0.92, 0.376, 192.0, 0.0, 0.0, 0.0, 0.0, 0.0, 0.0, 0.0, 0.0, 0.0, 1.6820973846466396E9, 0.0, 2023-04-21 12:16:24.646
44.0, -32905.45587604712, -20661.751408785753, 187500.0, 187500.0, -187500.02235174447, 187500.0, 187500.0, 187500.0, 0.032, 0.92, 0.376, 192.0, 0.0, 0.0, 0.0, 0.0, 0.0, 0.0, 0.0, 0.0, 0.0, 1.6820973846466703E9, 0.0, 2023-04-21 12:16:24.646
45.0, -33476.23002245784, -21775.471779760337, 187500.0, 187500.0, -187500.02235174447, 187500.0, 187500.0, 187500.0, 0.032, 0.92, 0.376, 192.0, 0.0, 0.0, 0.0, 0.0, 0.0, 0.0, 0.0, 0.0, 0.0, 1.682097384646685E9, 0.0, 2023-04-21 12:16:24.646
46.0, -32974.18749024719, -21376.51549297756, 187500.0, 187500.0, -187500.02235174447, 187500.0, 187500.0, 187500.0, 0.032, 0.92, 0.376, 192.0, 0.0, 0.0, 0.0, 0.0, 0.0, 0.0, 0.0, 0.0, 0.0, 1.6820973846466994E9, 0.0, 2023-04-21 12:16:24.646
47.0, -32518.30131033675, -20122.51557380147, 187500.0, 187500.0, -187500.02235174447, 187500.0, 187500.0, 187500.0, 0.032, 0.92, 0.376, 192.0, 0.0, 0.0, 0.0, 0.0, 0.0, 0.0, 0.0, 0.0, 0.0, 1.682097385114796E9, 0.0, 2023-04-21 12:16:25.114
48.0, -33061.58281106744, -20008.85695324623, 187500.0, 187500.0, -187500.02235174447, 187500.0, 187500.0, 187500.0, 0.032, 0.92, 0.376, 192.0, 0.0, 0.0, 0.0, 0.0, 0.0, 0.0, 0.0, 0.0, 0.0, 1.6820973851148455E9, 0.0, 2023-04-21 12:16:25.114
49.0, -33717.092420708235, -21113.010777593947, 187500.0, 187500.0, -187500.02235174447, 187500.0, 187500.0, 187500.0, -0.012, 0.862, 0.368, 192.0, 255.0, 160.0, 26.0, 240.0, 11.0, 128.0, 0.0, 0.0, 0.0, 1.682097385114864E9, 0.0, 2023-04-21 12:16:25.114
50.0, -33341.78427955917, -21037.618343546194, 187500.0, 187500.0, -187500.02235174447, 187500.0, 187500.0, 187500.0, -0.012, 0.862, 0.368, 192.0, 0.0, 0.0, 0.0, 0.0, 0.0, 0.0, 0.0, 0.0, 0.0, 1.6820973851148832E9, 0.0, 2023-04-21 12:16:25.114
51.0, -32781.49310129799, -19836.145023840076, 187500.0, 187500.0, -187500.02235174447, 187500.0, 187500.0, 187500.0, -0.012, 0.862, 0.368, 192.0, 0.0, 0.0, 0.0, 0.0, 0.0, 0.0, 0.0, 0.0, 0.0, 1.6820973851148992E9, 0.0, 2023-04-21 12:16:25.114
52.0, -33114.86936984889, -19575.948366635843, 187500.0, 187500.0, -187500.02235174447, 187500.0, 187500.0, 187500.0, -0.012, 0.862, 0.368, 192.0, 0.0, 0.0, 0.0, 0.0, 0.0, 0.0, 0.0, 0.0, 0.0, 1.6820973851149163E9, 0.0, 2023-04-21 12:16:25.114
53.0, -33744.78623208836, -20717.38490073501, 187500.0, 187500.0, -187500.02235174447, 187500.0, 187500.0, 187500.0, -0.012, 0.862, 0.368, 192.0, 0.0, 0.0, 0.0, 0.0, 0.0, 0.0, 0.0, 0.0, 0.0, 1.682097385114934E9, 0.0, 2023-04-21 12:16:25.114
54.0, -33440.84721098509, -21031.315151609797, 187500.0, 187500.0, -187500.02235174447, 187500.0, 187500.0, 187500.0, -0.012, 0.862, 0.368, 192.0, 0.0, 0.0, 0.0, 0.0, 0.0, 0.0, 0.0, 0.0, 0.0, 1.682097385114951E9, 0.0, 2023-04-21 12:16:25.114
55.0, -32919.29160586496, -19823.002198100352, 187500.0, 187500.0, -187500.02235174447, 187500.0, 187500.0, 187500.0, -0.012, 0.862, 0.368, 192.0, 0.0, 0.0, 0.0, 0.0, 0.0, 0.0, 0.0, 0.0, 0.0, 1.6820973851149628E9, 0.0, 2023-04-21 12:16:25.114
56.0, -33408.638347224995, -19199.477934775106, 187500.0, 187500.0, -187500.02235174447, 187500.0, 187500.0, 187500.0, -0.012, 0.862, 0.368, 192.0, 0.0, 0.0, 0.0, 0.0, 0.0, 0.0, 0.0, 0.0, 0.0, 1.6820973851149743E9, 0.0, 2023-04-21 12:16:25.114
57.0, -34213.01057493813, -20253.720313754122, 187500.0, 187500.0, -187500.02235174447, 187500.0, 187500.0, 187500.0, -0.012, 0.862, 0.368, 192.0, 0.0, 0.0, 0.0, 0.0, 0.0, 0.0, 0.0, 0.0, 0.0, 1.682097385114986E9, 0.0, 2023-04-21 12:16:25.114
58.0, -34224.20879891024, -21011.24328508893, 187500.0, 187500.0, -187500.02235174447, 187500.0, 187500.0, 187500.0, -0.012, 0.862, 0.368, 192.0, 0.0, 0.0, 0.0, 0.0, 0.0, 0.0, 0.0, 0.0, 0.0, 1.6820973851149971E9, 0.0, 2023-04-21 12:16:25.114
59.0, -33766.75799688792, -19972.892996417642, 187500.0, 187500.0, -187500.02235174447, 187500.0, 187500.0, 187500.0, 0.002, 0.916, 0.388, 192.0, 0.0, 16.0, 28.0, 160.0, 12.0, 32.0, 0.0, 0.0, 0.0, 1.6820973851150682E9, 0.0, 2023-04-21 12:16:25.115
60.0, -33987.01208675052, -19067.82615993335, 187500.0, 187500.0, -187500.02235174447, 187500.0, 187500.0, 187500.0, 0.002, 0.916, 0.388, 192.0, 0.0, 0.0, 0.0, 0.0, 0.0, 0.0, 0.0, 0.0, 0.0, 1.6820973851150815E9, 0.0, 2023-04-21 12:16:25.115
61.0, -34875.80685327135, -19798.839962344166, 187500.0, 187500.0, -187500.02235174447, 187500.0, 187500.0, 187500.0, 0.002, 0.916, 0.388, 192.0, 0.0, 0.0, 0.0, 0.0, 0.0, 0.0, 0.0, 0.0, 0.0, 1.6820973851150937E9, 0.0, 2023-04-21 12:16:25.115
62.0, -35153.795499062006, -20679.90102528346, 187500.0, 187500.0, -187500.02235174447, 187500.0, 187500.0, 187500.0, 0.002, 0.916, 0.388, 192.0, 0.0, 0.0, 0.0, 0.0, 0.0, 0.0, 0.0, 0.0, 0.0, 1.6820973851151054E9, 0.0, 2023-04-21 12:16:25.115
63.0, -34701.127970353125, -19687.908254612477, 187500.0, 187500.0, -187500.02235174447, 187500.0, 187500.0, 187500.0, 0.002, 0.916, 0.388, 192.0, 0.0, 0.0, 0.0, 0.0, 0.0, 0.0, 0.0, 0.0, 0.0, 1.6820973851151168E9, 0.0, 2023-04-21 12:16:25.115
64.0, -34818.27346304339, -18545.555298990643, 187500.0, 187500.0, -187500.02235174447, 187500.0, 187500.0, 187500.0, 0.002, 0.916, 0.388, 192.0, 0.0, 0.0, 0.0, 0.0, 0.0, 0.0, 0.0, 0.0, 0.0, 1.6820973851151285E9, 0.0, 2023-04-21 12:16:25.115
65.0, -35585.09476007161, -18972.250100642457, 187500.0, 187500.0, -187500.02235174447, 187500.0, 187500.0, 187500.0, 0.002, 0.916, 0.388, 192.0, 0.0, 0.0, 0.0, 0.0, 0.0, 0.0, 0.0, 0.0, 0.0, 1.6820973851151397E9, 0.0, 2023-04-21 12:16:25.115
66.0, -35801.079666743244, -19995.356499595226, 187500.0, 187500.0, -187500.02235174447, 187500.0, 187500.0, 187500.0, 0.002, 0.916, 0.388, 192.0, 0.0, 0.0, 0.0, 0.0, 0.0, 0.0, 0.0, 0.0, 0.0, 1.6820973851151512E9, 0.0, 2023-04-21 12:16:25.115
67.0, -35148.252266437084, -19237.252382904575, 187500.0, 187500.0, -187500.02235174447, 187500.0, 187500.0, 187500.0, 0.002, 0.916, 0.388, 192.0, 0.0, 0.0, 0.0, 0.0, 0.0, 0.0, 0.0, 0.0, 0.0, 1.6820973851151628E9, 0.0, 2023-04-21 12:16:25.115
68.0, -35036.135916249266, -18026.659551460692, 187500.0, 187500.0, -187500.02235174447, 187500.0, 187500.0, 187500.0, 0.002, 0.916, 0.388, 192.0, 0.0, 0.0, 0.0, 0.0, 0.0, 0.0, 0.0, 0.0, 0.0, 1.6820973851151743E9, 0.0, 2023-04-21 12:16:25.115
69.0, -35710.68921216598, -18248.6570773908, 187500.0, 187500.0, -187500.02235174447, 187500.0, 187500.0, 187500.0, -0.002, 0.852, 0.39, 192.0, 255.0, 240.0, 26.0, 160.0, 12.0, 48.0, 0.0, 0.0, 0.0, 1.682097385115188E9, 0.0, 2023-04-21 12:16:25.115
70.0, -36000.814855195866, -19411.417175700328, 187500.0, 187500.0, -187500.02235174447, 187500.0, 187500.0, 187500.0, -0.002, 0.852, 0.39, 192.0, 0.0, 0.0, 0.0, 0.0, 0.0, 0.0, 0.0, 0.0, 0.0, 1.6820973851152003E9, 0.0, 2023-04-21 12:16:25.115
71.0, -35339.739661185704, -19043.060427076867, 187500.0, 187500.0, -187500.02235174447, 187500.0, 187500.0, 187500.0, -0.002, 0.852, 0.39, 192.0, 0.0, 0.0, 0.0, 0.0, 0.0, 0.0, 0.0, 0.0, 0.0, 1.682097385115212E9, 0.0, 2023-04-21 12:16:25.115
72.0, -35009.40322988072, -17838.614325358194, 187500.0, 187500.0, -187500.02235174447, 187500.0, 187500.0, 187500.0, -0.002, 0.852, 0.39, 192.0, 0.0, 0.0, 0.0, 0.0, 0.0, 0.0, 0.0, 0.0, 0.0, 1.6820973851152236E9, 0.0, 2023-04-21 12:16:25.115
73.0, -35551.09775675509, -17878.691003166557, 187500.0, 187500.0, -187500.02235174447, 187500.0, 187500.0, 187500.0, -0.002, 0.852, 0.39, 192.0, 0.0, 0.0, 0.0, 0.0, 0.0, 0.0, 0.0, 0.0, 0.0, 1.682097385115235E9, 0.0, 2023-04-21 12:16:25.115
74.0, -35875.37686531268, -19181.060097343936, 187500.0, 187500.0, -187500.02235174447, 187500.0, 187500.0, 187500.0, -0.002, 0.852, 0.39, 192.0, 0.0, 0.0, 0.0, 0.0, 0.0, 0.0, 0.0, 0.0, 0.0, 1.6820973851152647E9, 0.0, 2023-04-21 12:16:25.115
75.0, -35016.2652154285, -19161.949355834648, 187500.0, 187500.0, -187500.02235174447, 187500.0, 187500.0, 187500.0, -0.002, 0.852, 0.39, 192.0, 0.0, 0.0, 0.0, 0.0, 0.0, 0.0, 0.0, 0.0, 0.0, 1.682097385115276E9, 0.0, 2023-04-21 12:16:25.115
76.0, -34454.141194121985, -17926.769605489924, 187500.0, 187500.0, -187500.02235174447, 187500.0, 187500.0, 187500.0, -0.002, 0.852, 0.39, 192.0, 0.0, 0.0, 0.0, 0.0, 0.0, 0.0, 0.0, 0.0, 0.0, 1.6820973851152875E9, 0.0, 2023-04-21 12:16:25.115
77.0, -34702.96081339846, -17671.713849510415, 187500.0, 187500.0, -187500.02235174447, 187500.0, 187500.0, 187500.0, -0.002, 0.852, 0.39, 192.0, 0.0, 0.0, 0.0, 0.0, 0.0, 0.0, 0.0, 0.0, 0.0, 1.6820973851152987E9, 0.0, 2023-04-21 12:16:25.115
78.0, -34818.631090954674, -18846.92386948155, 187500.0, 187500.0, -187500.02235174447, 187500.0, 187500.0, 187500.0, -0.002, 0.852, 0.39, 192.0, 0.0, 0.0, 0.0, 0.0, 0.0, 0.0, 0.0, 0.0, 0.0, 1.6820973851153104E9, 0.0, 2023-04-21 12:16:25.115
79.0, -34175.07966459748, -19125.426605394674, 187500.0, 187500.0, -187500.02235174447, 187500.0, 187500.0, 187500.0, -0.002, 0.852, 0.39, 192.0, 0.0, 0.0, 0.0, 0.0, 0.0, 0.0, 0.0, 0.0, 0.0, 1.682097385115322E9, 0.0, 2023-04-21 12:16:25.115
80.0, -33519.54770321223, -17872.20899727452, 187500.0, 187500.0, -187500.02235174447, 187500.0, 187500.0, 187500.0, -0.002, 0.852, 0.39, 192.0, 0.0, 0.0, 27.0, 96.0, 11.0, 240.0, 0.0, 0.0, 0.0, 1.6820973851153336E9, 0.0, 2023-04-21 12:16:25.115
81.0, -33815.663613756136, -17393.30052057511, 187500.0, 187500.0, -187500.02235174447, 187500.0, 187500.0, 187500.0, -0.002, 0.852, 0.39, 192.0, 0.0, 0.0, 0.0, 0.0, 0.0, 0.0, 0.0, 0.0, 0.0, 1.6820973851153457E9, 0.0, 2023-04-21 12:16:25.115
82.0, -34306.12794233894, -18452.259117634192, 187500.0, 187500.0, -187500.02235174447, 187500.0, 187500.0, 187500.0, -0.002, 0.852, 0.39, 192.0, 0.0, 0.0, 0.0, 0.0, 0.0, 0.0, 0.0, 0.0, 0.0, 1.6820973851153567E9, 0.0, 2023-04-21 12:16:25.115
83.0, -33715.23722591844, -19049.430674246632, 187500.0, 187500.0, -187500.02235174447, 187500.0, 187500.0, 187500.0, -0.002, 0.852, 0.39, 192.0, 0.0, 0.0, 0.0, 0.0, 0.0, 0.0, 0.0, 0.0, 0.0, 1.6820973851153684E9, 0.0, 2023-04-21 12:16:25.115
84.0, -32685.291193162346, -17892.951416129043, 187500.0, 187500.0, -187500.02235174447, 187500.0, 187500.0, 187500.0, -0.002, 0.852, 0.39, 192.0, 0.0, 0.0, 0.0, 0.0, 0.0, 0.0, 0.0, 0.0, 0.0, 1.6820973851153796E9, 0.0, 2023-04-21 12:16:25.115
85.0, -32770.56309825934, -17124.498441755586, 187500.0, 187500.0, -187500.02235174447, 187500.0, 187500.0, 187500.0, -0.002, 0.852, 0.39, 192.0, 0.0, 0.0, 0.0, 0.0, 0.0, 0.0, 0.0, 0.0, 0.0, 1.6820973851153913E9, 0.0, 2023-04-21 12:16:25.115
86.0, -33532.64582546304, -17983.051298028386, 187500.0, 187500.0, -187500.02235174447, 187500.0, 187500.0, 187500.0, -0.002, 0.852, 0.39, 192.0, 0.0, 0.0, 0.0, 0.0, 0.0, 0.0, 0.0, 0.0, 0.0, 1.682097385115403E9, 0.0, 2023-04-21 12:16:25.115
87.0, -33461.47787111734, -18859.3514393987, 187500.0, 187500.0, -187500.02235174447, 187500.0, 187500.0, 187500.0, -0.002, 0.852, 0.39, 192.0, 0.0, 0.0, 0.0, 0.0, 0.0, 0.0, 0.0, 0.0, 0.0, 1.6820973851154144E9, 0.0, 2023-04-21 12:16:25.115
88.0, -32814.64073832521, -17942.54993707537, 187500.0, 187500.0, -187500.02235174447, 187500.0, 187500.0, 187500.0, -0.002, 0.852, 0.39, 192.0, 0.0, 0.0, 0.0, 0.0, 0.0, 0.0, 0.0, 0.0, 0.0, 1.6820973851154256E9, 0.0, 2023-04-21 12:16:25.115
89.0, -32976.400312948266, -17066.4286096607, 187500.0, 187500.0, -187500.02235174447, 187500.0, 187500.0, 187500.0, -0.002, 0.852, 0.39, 192.0, 0.0, 0.0, 0.0, 0.0, 0.0, 0.0, 0.0, 0.0, 0.0, 1.682097385115451E9, 0.0, 2023-04-21 12:16:25.115
90.0, -33674.937030665526, -17849.052590018822, 187500.0, 187500.0, -187500.02235174447, 187500.0, 187500.0, 187500.0, 0.02, 0.936, 0.362, 192.0, 0.0, 160.0, 29.0, 64.0, 11.0, 80.0, 0.0, 0.0, 0.0, 1.6820973851154628E9, 0.0, 2023-04-21 12:16:25.115
91.0, -33720.713403309994, -19357.370657607396, 187500.0, 187500.0, -187500.02235174447, 187500.0, 187500.0, 187500.0, 0.02, 0.936, 0.362, 192.0, 0.0, 0.0, 0.0, 0.0, 0.0, 0.0, 0.0, 0.0, 0.0, 1.6820973851154766E9, 0.0, 2023-04-21 12:16:25.115
92.0, -32971.39352219028, -19085.77461073096, 187500.0, 187500.0, -187500.02235174447, 187500.0, 187500.0, 187500.0, 0.02, 0.936, 0.362, 192.0, 0.0, 0.0, 0.0, 0.0, 0.0, 0.0, 0.0, 0.0, 0.0, 1.6820973851154883E9, 0.0, 2023-04-21 12:16:25.115
93.0, -32918.84457097585, -18342.422645380815, 187500.0, 187500.0, -187500.02235174447, 187500.0, 187500.0, 187500.0, 0.02, 0.936, 0.362, 192.0, 0.0, 0.0, 0.0, 0.0, 0.0, 0.0, 0.0, 0.0, 0.0, 1.6820973851155E9, 0.0, 2023-04-21 12:16:25.115
94.0, -33623.975053307426, -19080.00786066149, 187500.0, 187500.0, -187500.02235174447, 187500.0, 187500.0, 187500.0, 0.02, 0.936, 0.362, 192.0, 0.0, 0.0, 0.0, 0.0, 0.0, 0.0, 0.0, 0.0, 0.0, 1.6820973851155117E9, 0.0, 2023-04-21 12:16:25.115
95.0, -33809.27101484192, -20653.503615081743, 187500.0, 187500.0, -187500.02235174447, 187500.0, 187500.0, 187500.0, 0.02, 0.936, 0.362, 192.0, 0.0, 0.0, 0.0, 0.0, 0.0, 0.0, 0.0, 0.0, 0.0, 1.682097385115523E9, 0.0, 2023-04-21 12:16:25.115
96.0, -33045.042520170515, -20435.439996175766, 187500.0, 187500.0, -187500.02235174447, 187500.0, 187500.0, 187500.0, 0.02, 0.936, 0.362, 192.0, 0.0, 0.0, 0.0, 0.0, 0.0, 0.0, 0.0, 0.0, 0.0, 1.6820973851155343E9, 0.0, 2023-04-21 12:16:25.115
97.0, -32855.43267195614, -19368.59123332396, 187500.0, 187500.0, -187500.02235174447, 187500.0, 187500.0, 187500.0, 0.02, 0.936, 0.362, 192.0, 0.0, 0.0, 0.0, 0.0, 0.0, 0.0, 0.0, 0.0, 0.0, 1.682097385115546E9, 0.0, 2023-04-21 12:16:25.115
98.0, -33489.1046272641, -19616.807355500147, 187500.0, 187500.0, -187500.02235174447, 187500.0, 187500.0, 187500.0, 0.02, 0.936, 0.362, 192.0, 0.0, 0.0, 0.0, 0.0, 0.0, 0.0, 0.0, 0.0, 0.0, 1.6820973851155574E9, 0.0, 2023-04-21 12:16:25.115
99.0, -33801.89493917167, -20954.71572336146, 187500.0, 187500.0, -187500.02235174447, 187500.0, 187500.0, 187500.0, 0.02, 0.936, 0.362, 192.0, 0.0, 0.0, 0.0, 0.0, 0.0, 0.0, 0.0, 0.0, 0.0, 1.6820973851155689E9, 0.0, 2023-04-21 12:16:25.115
100.0, -33137.71285268222, -20885.157094616545, 187500.0, 187500.0, -187500.02235174447, 187500.0, 187500.0, 187500.0, 0.028, 0.882, 0.372, 192.0, 0.0, 224.0, 27.0, 144.0, 11.0, 160.0, 0.0, 0.0, 0.0, 1.6820973851155803E9, 0.0, 2023-04-21 12:16:25.115
101.0, -32805.677688798634, -19770.38619165256, 187500.0, 187500.0, -187500.02235174447, 187500.0, 187500.0, 187500.0, 0.028, 0.882, 0.372, 192.0, 0.0, 0.0, 0.0, 0.0, 0.0, 0.0, 0.0, 0.0, 0.0, 1.6820973851155937E9, 0.0, 2023-04-21 12:16:25.115
102.0, -33325.48985785125, -19841.35298029816, 187500.0, 187500.0, -187500.02235174447, 187500.0, 187500.0, 187500.0, 0.028, 0.882, 0.372, 192.0, 0.0, 0.0, 0.0, 0.0, 0.0, 0.0, 0.0, 0.0, 0.0, 1.6820973851156056E9, 0.0, 2023-04-21 12:16:25.115
103.0, -33775.810453392325, -21060.484178123974, 187500.0, 187500.0, -187500.02235174447, 187500.0, 187500.0, 187500.0, 0.028, 0.882, 0.372, 192.0, 0.0, 0.0, 0.0, 0.0, 0.0, 0.0, 0.0, 0.0, 0.0, 1.6820973851156175E9, 0.0, 2023-04-21 12:16:25.115
104.0, -33158.164698858825, -20661.86316750803, 187500.0, 187500.0, -187500.02235174447, 187500.0, 187500.0, 187500.0, 0.028, 0.882, 0.372, 192.0, 0.0, 0.0, 0.0, 0.0, 0.0, 0.0, 0.0, 0.0, 0.0, 1.6820973851156287E9, 0.0, 2023-04-21 12:16:25.115
105.0, -32631.55759949179, -18871.331974426743, 187500.0, 187500.0, -187500.02235174447, 187500.0, 187500.0, 187500.0, 0.028, 0.882, 0.372, 192.0, 0.0, 0.0, 0.0, 0.0, 0.0, 0.0, 0.0, 0.0, 0.0, 1.6820973851156528E9, 0.0, 2023-04-21 12:16:25.115
106.0, -33072.17753793926, -18495.085060010562, 187500.0, 187500.0, -187500.02235174447, 187500.0, 187500.0, 187500.0, 0.028, 0.882, 0.372, 192.0, 0.0, 0.0, 0.0, 0.0, 0.0, 0.0, 0.0, 0.0, 0.0, 1.6820973851156645E9, 0.0, 2023-04-21 12:16:25.115
107.0, -33595.297765171264, -19768.933328262967, 187500.0, 187500.0, -187500.02235174447, 187500.0, 187500.0, 187500.0, 0.028, 0.882, 0.372, 192.0, 0.0, 0.0, 0.0, 0.0, 0.0, 0.0, 0.0, 0.0, 0.0, 1.682097385115676E9, 0.0, 2023-04-21 12:16:25.115
108.0, -33100.050163275024, -20179.579577395867, 187500.0, 187500.0, -187500.02235174447, 187500.0, 187500.0, 187500.0, 0.028, 0.882, 0.372, 192.0, 0.0, 0.0, 0.0, 0.0, 0.0, 0.0, 0.0, 0.0, 0.0, 1.6820973851156876E9, 0.0, 2023-04-21 12:16:25.115
109.0, -32464.210088754906, -18999.56393236684, 187500.0, 187500.0, -187500.02235174447, 187500.0, 187500.0, 187500.0, 0.028, 0.882, 0.372, 192.0, 0.0, 0.0, 0.0, 0.0, 0.0, 0.0, 0.0, 0.0, 0.0, 1.6820973851156993E9, 0.0, 2023-04-21 12:16:25.115
110.0, -32825.92836927514, -18673.809608675198, 187500.0, 187500.0, -187500.02235174447, 187500.0, 187500.0, 187500.0, 0.056, 0.994, 0.37, 192.0, 1.0, 192.0, 31.0, 16.0, 11.0, 144.0, 0.0, 0.0, 0.0, 1.6820973851157107E9, 0.0, 2023-04-21 12:16:25.115
111.0, -33475.44771140191, -19896.98647224742, 187500.0, 187500.0, -187500.02235174447, 187500.0, 187500.0, 187500.0, 0.056, 0.994, 0.37, 192.0, 0.0, 0.0, 0.0, 0.0, 0.0, 0.0, 0.0, 0.0, 0.0, 1.6820973851157231E9, 0.0, 2023-04-21 12:16:25.115
112.0, -33240.15089752089, -21189.81137154238, 187500.0, 187500.0, -187500.02235174447, 187500.0, 187500.0, 187500.0, 0.056, 0.994, 0.37, 192.0, 0.0, 0.0, 0.0, 0.0, 0.0, 0.0, 0.0, 0.0, 0.0, 1.6820973851157382E9, 0.0, 2023-04-21 12:16:25.115
113.0, -32577.421674421035, -20734.685150943416, 187500.0, 187500.0, -187500.02235174447, 187500.0, 187500.0, 187500.0, 0.056, 0.994, 0.37, 192.0, 0.0, 0.0, 0.0, 0.0, 0.0, 0.0, 0.0, 0.0, 0.0, 1.68209738511575E9, 0.0, 2023-04-21 12:16:25.115
114.0, -32711.554492897332, -20476.120171084425, 187500.0, 187500.0, -187500.02235174447, 187500.0, 187500.0, 187500.0, 0.056, 0.994, 0.37, 192.0, 0.0, 0.0, 0.0, 0.0, 0.0, 0.0, 0.0, 0.0, 0.0, 1.6820973851157615E9, 0.0, 2023-04-21 12:16:25.115
115.0, -33416.77438220673, -21584.386716411915, 187500.0, 187500.0, -187500.02235174447, 187500.0, 187500.0, 187500.0, 0.056, 0.994, 0.37, 192.0, 0.0, 0.0, 0.0, 0.0, 0.0, 0.0, 0.0, 0.0, 0.0, 1.682097385115773E9, 0.0, 2023-04-21 12:16:25.115
116.0, -33579.04804695226, -22813.062109120146, 187500.0, 187500.0, -187500.02235174447, 187500.0, 187500.0, 187500.0, 0.056, 0.994, 0.37, 192.0, 0.0, 0.0, 0.0, 0.0, 0.0, 0.0, 0.0, 0.0, 0.0, 1.682097385115785E9, 0.0, 2023-04-21 12:16:25.115
117.0, -33366.59471590456, -22162.201662326057, 187500.0, 187500.0, -187500.02235174447, 187500.0, 187500.0, 187500.0, 0.056, 0.994, 0.37, 192.0, 0.0, 0.0, 0.0, 0.0, 0.0, 0.0, 0.0, 0.0, 0.0, 1.6820973851157963E9, 0.0, 2023-04-21 12:16:25.115
118.0, -33774.8716801252, -21406.422127058762, 187500.0, 187500.0, -187500.02235174447, 187500.0, 187500.0, 187500.0, 0.056, 0.994, 0.37, 192.0, 0.0, 0.0, 0.0, 0.0, 0.0, 0.0, 0.0, 0.0, 0.0, 1.682097385115808E9, 0.0, 2023-04-21 12:16:25.115
119.0, -34693.19310107149, -22106.41170816561, 187500.0, 187500.0, -187500.02235174447, 187500.0, 187500.0, 187500.0, 0.056, 0.994, 0.37, 192.0, 0.0, 0.0, 0.0, 0.0, 0.0, 0.0, 0.0, 0.0, 0.0, 1.6820973851158197E9, 0.0, 2023-04-21 12:16:25.115
120.0, -34991.96886920558, -23399.68364234968, 187500.0, 187500.0, -187500.02235174447, 187500.0, 187500.0, 187500.0, 0.056, 0.994, 0.37, 192.0, 0.0, 0.0, 0.0, 0.0, 0.0, 0.0, 0.0, 0.0, 0.0, 1.6820973851159184E9, 0.0, 2023-04-21 12:16:25.115
121.0, -34388.42706542338, -22951.68762823196, 187500.0, 187500.0, -187500.02235174447, 187500.0, 187500.0, 187500.0, -0.096, 0.836, 0.28600000000000003, 192.0, 253.0, 0.0, 26.0, 32.0, 8.0, 240.0, 0.0, 0.0, 0.0, 1.6820973851159306E9, 0.0, 2023-04-21 12:16:25.115
122.0, -34399.64764113994, -22168.81777868483, 187500.0, 187500.0, -187500.02235174447, 187500.0, 187500.0, 187500.0, -0.096, 0.836, 0.28600000000000003, 192.0, 0.0, 0.0, 0.0, 0.0, 0.0, 0.0, 0.0, 0.0, 0.0, 1.6820973851159432E9, 0.0, 2023-04-21 12:16:25.115
123.0, -35122.05602193547, -22869.746133058805, 187500.0, 187500.0, -187500.02235174447, 187500.0, 187500.0, 187500.0, -0.096, 0.836, 0.28600000000000003, 192.0, 0.0, 0.0, 0.0, 0.0, 0.0, 0.0, 0.0, 0.0, 0.0, 1.682097385115955E9, 0.0, 2023-04-21 12:16:25.115
124.0, -35342.01953912014, -24361.278040561443, 187500.0, 187500.0, -187500.02235174447, 187500.0, 187500.0, 187500.0, -0.096, 0.836, 0.28600000000000003, 192.0, 0.0, 0.0, 0.0, 0.0, 0.0, 0.0, 0.0, 0.0, 0.0, 1.6820973851159668E9, 0.0, 2023-04-21 12:16:25.115
125.0, -34595.1136464016, -24127.3446830922, 187500.0, 187500.0, -187500.02235174447, 187500.0, 187500.0, 187500.0, -0.096, 0.836, 0.28600000000000003, 192.0, 0.0, 0.0, 0.0, 0.0, 0.0, 0.0, 0.0, 0.0, 0.0, 1.6820973851159787E9, 0.0, 2023-04-21 12:16:25.115
126.0, -34280.44578795979, -22885.81703732217, 187500.0, 187500.0, -187500.02235174447, 187500.0, 187500.0, 187500.0, -0.096, 0.836, 0.28600000000000003, 192.0, 0.0, 0.0, 0.0, 0.0, 0.0, 0.0, 0.0, 0.0, 0.0, 1.68209738511599E9, 0.0, 2023-04-21 12:16:25.115
127.0, -35006.765724034994, -22956.44854980094, 187500.0, 187500.0, -187500.02235174447, 187500.0, 187500.0, 187500.0, -0.096, 0.836, 0.28600000000000003, 192.0, 0.0, 0.0, 0.0, 0.0, 0.0, 0.0, 0.0, 0.0, 0.0, 1.682097385116002E9, 0.0, 2023-04-21 12:16:25.116
128.0, -35530.51180011175, -24194.757544369408, 187500.0, 187500.0, -187500.02235174447, 187500.0, 187500.0, 187500.0, -0.096, 0.836, 0.28600000000000003, 192.0, 0.0, 0.0, 0.0, 0.0, 0.0, 0.0, 0.0, 0.0, 0.0, 1.6820973851160135E9, 0.0, 2023-04-21 12:16:25.116
129.0, -34804.84006462575, -24320.866086586248, 187500.0, 187500.0, -187500.02235174447, 187500.0, 187500.0, 187500.0, -0.096, 0.836, 0.28600000000000003, 192.0, 0.0, 0.0, 0.0, 0.0, 0.0, 0.0, 0.0, 0.0, 0.0, 1.6820973851160247E9, 0.0, 2023-04-21 12:16:25.116
130.0, -34086.54440481, -23124.354854149205, 187500.0, 187500.0, -187500.02235174447, 187500.0, 187500.0, 187500.0, -0.096, 0.836, 0.28600000000000003, 192.0, 0.0, 0.0, 0.0, 0.0, 0.0, 0.0, 0.0, 0.0, 0.0, 1.6820973851160345E9, 0.0, 2023-04-21 12:16:25.116
131.0, -34181.94165014525, -22847.304981625675, 187500.0, 187500.0, -187500.02235174447, 187500.0, 187500.0, 187500.0, 0.008, 0.874, 0.36, 192.0, 0.0, 64.0, 27.0, 80.0, 11.0, 64.0, 0.0, 0.0, 0.0, 1.682097385116044E9, 0.0, 2023-04-21 12:16:25.116
132.0, -34538.29551199621, -23992.98834717135, 187500.0, 187500.0, -187500.02235174447, 187500.0, 187500.0, 187500.0, 0.008, 0.874, 0.36, 192.0, 0.0, 0.0, 0.0, 0.0, 0.0, 0.0, 0.0, 0.0, 0.0, 1.682097385116054E9, 0.0, 2023-04-21 12:16:25.116
133.0, -34025.41238372474, -24609.49416273763, 187500.0, 187500.0, -187500.02235174447, 187500.0, 187500.0, 187500.0, 0.008, 0.874, 0.36, 192.0, 0.0, 0.0, 0.0, 0.0, 0.0, 0.0, 0.0, 0.0, 0.0, 1.6820973851160655E9, 0.0, 2023-04-21 12:16:25.116
134.0, -33377.390608476475, -23549.261516244595, 187500.0, 187500.0, -187500.02235174447, 187500.0, 187500.0, 187500.0, 0.008, 0.874, 0.36, 192.0, 0.0, 0.0, 0.0, 0.0, 0.0, 0.0, 0.0, 0.0, 0.0, 1.6820973851160753E9, 0.0, 2023-04-21 12:16:25.116
135.0, -33691.74554249591, -23282.26992872595, 187500.0, 187500.0, -187500.02235174447, 187500.0, 187500.0, 187500.0, 0.008, 0.874, 0.36, 192.0, 0.0, 0.0, 0.0, 0.0, 0.0, 0.0, 0.0, 0.0, 0.0, 1.6820973851160989E9, 0.0, 2023-04-21 12:16:25.116
136.0, -34294.88501487792, -24743.403463769373, 187500.0, 187500.0, -187500.02235174447, 187500.0, 187500.0, 187500.0, 0.008, 0.874, 0.36, 192.0, 0.0, 0.0, 0.0, 0.0, 0.0, 0.0, 0.0, 0.0, 0.0, 1.6820973851161087E9, 0.0, 2023-04-21 12:16:25.116
137.0, -34024.16068603524, -25632.511154712578, 187500.0, 187500.0, -187500.02235174447, 187500.0, 187500.0, 187500.0, 0.008, 0.874, 0.36, 192.0, 0.0, 0.0, 0.0, 0.0, 0.0, 0.0, 0.0, 0.0, 0.0, 1.682097385116118E9, 0.0, 2023-04-21 12:16:25.116
138.0, -33311.475314077776, -24575.43010418774, 187500.0, 187500.0, -187500.02235174447, 187500.0, 187500.0, 187500.0, 0.008, 0.874, 0.36, 192.0, 0.0, 0.0, 0.0, 0.0, 0.0, 0.0, 0.0, 0.0, 0.0, 1.6820973851161275E9, 0.0, 2023-04-21 12:16:25.116
139.0, -33529.47187775039, -23820.455231720833, 187500.0, 187500.0, -187500.02235174447, 187500.0, 187500.0, 187500.0, 0.008, 0.874, 0.36, 192.0, 0.0, 0.0, 0.0, 0.0, 0.0, 0.0, 0.0, 0.0, 0.0, 1.6820973851161373E9, 0.0, 2023-04-21 12:16:25.116
140.0, -34276.780101869124, -24575.966546054668, 187500.0, 187500.0, -187500.02235174447, 187500.0, 187500.0, 187500.0, 0.008, 0.874, 0.36, 192.0, 0.0, 0.0, 0.0, 0.0, 0.0, 0.0, 0.0, 0.0, 0.0, 1.6820973851161468E9, 0.0, 2023-04-21 12:16:25.116
141.0, -34306.9996603727, -25542.321865835413, 187500.0, 187500.0, -187500.02235174447, 187500.0, 187500.0, 187500.0, 0.03, 0.964, 0.368, 192.0, 0.0, 240.0, 30.0, 32.0, 11.0, 128.0, 0.0, 0.0, 0.0, 1.682097385116156E9, 0.0, 2023-04-21 12:16:25.116
142.0, -33686.82815871575, -24663.943012230757, 187500.0, 187500.0, -187500.02235174447, 187500.0, 187500.0, 187500.0, 0.03, 0.964, 0.368, 192.0, 0.0, 0.0, 0.0, 0.0, 0.0, 0.0, 0.0, 0.0, 0.0, 1.6820973851161664E9, 0.0, 2023-04-21 12:16:25.116
143.0, -33847.60425658277, -23680.086276541508, 187500.0, 187500.0, -187500.02235174447, 187500.0, 187500.0, 187500.0, 0.03, 0.964, 0.368, 192.0, 0.0, 0.0, 0.0, 0.0, 0.0, 0.0, 0.0, 0.0, 0.0, 1.682097385116176E9, 0.0, 2023-04-21 12:16:25.116
144.0, -34695.36122028366, -24167.376657411656, 187500.0, 187500.0, -187500.02235174447, 187500.0, 187500.0, 187500.0, 0.03, 0.964, 0.368, 192.0, 0.0, 0.0, 0.0, 0.0, 0.0, 0.0, 0.0, 0.0, 0.0, 1.6820973851161854E9, 0.0, 2023-04-21 12:16:25.116
145.0, -34887.89914702167, -25197.23328318993, 187500.0, 187500.0, -187500.02235174447, 187500.0, 187500.0, 187500.0, 0.03, 0.964, 0.368, 192.0, 0.0, 0.0, 0.0, 0.0, 0.0, 0.0, 0.0, 0.0, 0.0, 1.6820973851161947E9, 0.0, 2023-04-21 12:16:25.116
146.0, -34147.36350147289, -24434.122375741288, 187500.0, 187500.0, -187500.02235174447, 187500.0, 187500.0, 187500.0, 0.03, 0.964, 0.368, 192.0, 0.0, 0.0, 0.0, 0.0, 0.0, 0.0, 0.0, 0.0, 0.0, 1.6820973851162045E9, 0.0, 2023-04-21 12:16:25.116
147.0, -34098.07790494894, -23328.98507463754, 187500.0, 187500.0, -187500.02235174447, 187500.0, 187500.0, 187500.0, 0.03, 0.964, 0.368, 192.0, 0.0, 0.0, 0.0, 0.0, 0.0, 0.0, 0.0, 0.0, 0.0, 1.6820973851162138E9, 0.0, 2023-04-21 12:16:25.116
148.0, -34891.341315667785, -23801.255083233726, 187500.0, 187500.0, -187500.02235174447, 187500.0, 187500.0, 187500.0, 0.03, 0.964, 0.368, 192.0, 0.0, 0.0, 0.0, 0.0, 0.0, 0.0, 0.0, 0.0, 0.0, 1.6820973851162696E9, 0.0, 2023-04-21 12:16:25.116
149.0, -35222.862389428905, -25076.95854627592, 187500.0, 187500.0, -187500.02235174447, 187500.0, 187500.0, 187500.0, 0.03, 0.964, 0.368, 192.0, 0.0, 0.0, 0.0, 0.0, 0.0, 0.0, 0.0, 0.0, 0.0, 1.6820973851162794E9, 0.0, 2023-04-21 12:16:25.116
150.0, -34511.56282562767, -24676.92937575929, 187500.0, 187500.0, -187500.02235174447, 187500.0, 187500.0, 187500.0, 0.03, 0.964, 0.368, 192.0, 0.0, 0.0, 0.0, 0.0, 0.0, 0.0, 0.0, 0.0, 0.0, 1.6820973851163049E9, 0.0, 2023-04-21 12:16:25.116
151.0, -34212.78705749357, -23267.897757041188, 187500.0, 187500.0, -187500.02235174447, 187500.0, 187500.0, 187500.0, 0.004, 0.864, 0.352, 192.0, 0.0, 32.0, 27.0, 0.0, 11.0, 0.0, 0.0, 0.0, 0.0, 1.6820973851163146E9, 0.0, 2023-04-21 12:16:25.116
152.0, -34897.13041748171, -23218.54510528387, 187500.0, 187500.0, -187500.02235174447, 187500.0, 187500.0, 187500.0, 0.004, 0.864, 0.352, 192.0, 0.0, 0.0, 0.0, 0.0, 0.0, 0.0, 0.0, 0.0, 0.0, 1.6820973851163294E9, 0.0, 2023-04-21 12:16:25.116
153.0, -35364.93007718684, -24454.261297495523, 187500.0, 187500.0, -187500.02235174447, 187500.0, 187500.0, 187500.0, 0.004, 0.864, 0.352, 192.0, 0.0, 0.0, 0.0, 0.0, 0.0, 0.0, 0.0, 0.0, 0.0, 1.682097385116339E9, 0.0, 2023-04-21 12:16:25.116
154.0, -34693.573080727234, -24687.12177123091, 187500.0, 187500.0, -187500.02235174447, 187500.0, 187500.0, 187500.0, 0.004, 0.864, 0.352, 192.0, 0.0, 0.0, 0.0, 0.0, 0.0, 0.0, 0.0, 0.0, 0.0, 1.6820973851163497E9, 0.0, 2023-04-21 12:16:25.116
155.0, -34179.86293791091, -23528.8543735569, 187500.0, 187500.0, -187500.02235174447, 187500.0, 187500.0, 187500.0, 0.004, 0.864, 0.352, 192.0, 0.0, 0.0, 0.0, 0.0, 0.0, 0.0, 0.0, 0.0, 0.0, 1.6820973851163611E9, 0.0, 2023-04-21 12:16:25.116
156.0, -34676.98808634139, -23164.029200557376, 187500.0, 187500.0, -187500.02235174447, 187500.0, 187500.0, 187500.0, 0.004, 0.864, 0.352, 192.0, 0.0, 0.0, 0.0, 0.0, 0.0, 0.0, 0.0, 0.0, 0.0, 1.682097385116371E9, 0.0, 2023-04-21 12:16:25.116
157.0, -35203.19285430823, -24491.499303758064, 187500.0, 187500.0, -187500.02235174447, 187500.0, 187500.0, 187500.0, 0.004, 0.864, 0.352, 192.0, 0.0, 0.0, 0.0, 0.0, 0.0, 0.0, 0.0, 0.0, 0.0, 1.6820973851163805E9, 0.0, 2023-04-21 12:16:25.116
158.0, -34656.178612253505, -25710.67520507279, 187500.0, 187500.0, -187500.02235174447, 187500.0, 187500.0, 187500.0, 0.004, 0.864, 0.352, 192.0, 0.0, 0.0, 0.0, 0.0, 0.0, 0.0, 0.0, 0.0, 0.0, 1.6820973851163898E9, 0.0, 2023-04-21 12:16:25.116
159.0, -33892.061876304375, -25015.08891762363, 187500.0, 187500.0, -187500.02235174447, 187500.0, 187500.0, 187500.0, 0.004, 0.864, 0.352, 192.0, 0.0, 0.0, 0.0, 0.0, 0.0, 0.0, 0.0, 0.0, 0.0, 1.6820973851163993E9, 0.0, 2023-04-21 12:16:25.116
160.0, -34195.6209177519, -24172.651669103107, 187500.0, 187500.0, -187500.02235174447, 187500.0, 187500.0, 187500.0, 0.004, 0.864, 0.352, 192.0, 0.0, 0.0, 0.0, 0.0, 0.0, 0.0, 0.0, 0.0, 0.0, 1.6820973851164088E9, 0.0, 2023-04-21 12:16:25.116
161.0, -34757.85669778069, -25254.94548737353, 187500.0, 187500.0, -187500.02235174447, 187500.0, 187500.0, 187500.0, 0.004, 0.864, 0.352, 192.0, 0.0, 0.0, 0.0, 0.0, 0.0, 0.0, 0.0, 0.0, 0.0, 1.6820973851164184E9, 0.0, 2023-04-21 12:16:25.116
162.0, -34357.91693424188, -26961.210603858308, 187500.0, 187500.0, -187500.02235174447, 187500.0, 187500.0, 187500.0, 0.048, 0.914, 0.364, 192.0, 1.0, 128.0, 28.0, 144.0, 11.0, 96.0, 0.0, 0.0, 0.0, 1.6820973851164277E9, 0.0, 2023-04-21 12:16:25.116
163.0, -33493.9549558109, -26596.698355281158, 187500.0, 187500.0, -187500.02235174447, 187500.0, 187500.0, 187500.0, 0.048, 0.914, 0.364, 192.0, 0.0, 0.0, 0.0, 0.0, 0.0, 0.0, 0.0, 0.0, 0.0, 1.682097385116438E9, 0.0, 2023-04-21 12:16:25.116
164.0, -33726.63661559065, -25935.153774637434, 187500.0, 187500.0, -187500.02235174447, 187500.0, 187500.0, 187500.0, 0.048, 0.914, 0.364, 192.0, 0.0, 0.0, 0.0, 0.0, 0.0, 0.0, 0.0, 0.0, 0.0, 1.6820973851164477E9, 0.0, 2023-04-21 12:16:25.116
165.0, -34466.077025661114, -26975.33690635406, 187500.0, 187500.0, -187500.02235174447, 187500.0, 187500.0, 187500.0, 0.048, 0.914, 0.364, 192.0, 0.0, 0.0, 0.0, 0.0, 0.0, 0.0, 0.0, 0.0, 0.0, 1.6820973851164696E9, 0.0, 2023-04-21 12:16:25.116
166.0, -34305.88207314993, -28452.80956659431, 187500.0, 187500.0, -187500.02235174447, 187500.0, 187500.0, 187500.0, 0.048, 0.914, 0.364, 192.0, 0.0, 0.0, 0.0, 0.0, 0.0, 0.0, 0.0, 0.0, 0.0, 1.6820973851164794E9, 0.0, 2023-04-21 12:16:25.116
167.0, -33359.442157678866, -27305.40511672558, 187500.0, 187500.0, -187500.02235174447, 187500.0, 187500.0, 187500.0, 0.048, 0.914, 0.364, 192.0, 0.0, 0.0, 0.0, 0.0, 0.0, 0.0, 0.0, 0.0, 0.0, 1.682097385594138E9, 0.0, 2023-04-21 12:16:25.594
168.0, -33329.20024743083, -25318.178572437595, 187500.0, 187500.0, -187500.02235174447, 187500.0, 187500.0, 187500.0, 0.048, 0.914, 0.364, 192.0, 0.0, 0.0, 0.0, 0.0, 0.0, 0.0, 0.0, 0.0, 0.0, 1.682097385594175E9, 0.0, 2023-04-21 12:16:25.594
169.0, -33879.969582554055, -24929.057053215154, 187500.0, 187500.0, -187500.02235174447, 187500.0, 187500.0, 187500.0, 0.048, 0.914, 0.364, 192.0, 0.0, 0.0, 0.0, 0.0, 0.0, 0.0, 0.0, 0.0, 0.0, 1.6820973855941956E9, 0.0, 2023-04-21 12:16:25.594
170.0, -33890.51960593696, -26096.3098521602, 187500.0, 187500.0, -187500.02235174447, 187500.0, 187500.0, 187500.0, 0.048, 0.914, 0.364, 192.0, 0.0, 0.0, 0.0, 0.0, 0.0, 0.0, 0.0, 0.0, 0.0, 1.682097385594214E9, 0.0, 2023-04-21 12:16:25.594
171.0, -32972.891089068784, -24679.946861260756, 187500.0, 187500.0, -187500.02235174447, 187500.0, 187500.0, 187500.0, 0.048, 0.914, 0.364, 192.0, 0.0, 0.0, 0.0, 0.0, 0.0, 0.0, 0.0, 0.0, 0.0, 1.6820973855942342E9, 0.0, 2023-04-21 12:16:25.594
172.0, -32623.510971487878, -22658.05276132259, 187500.0, 187500.0, -187500.02235174447, 187500.0, 187500.0, 187500.0, -0.05, 0.85, 0.384, 192.0, 254.0, 112.0, 26.0, 144.0, 12.0, 0.0, 0.0, 0.0, 0.0, 1.6820973855942528E9, 0.0, 2023-04-21 12:16:25.594
173.0, -32462.265486987293, -22309.74552747554, 187500.0, 187500.0, -187500.02235174447, 187500.0, 187500.0, 187500.0, -0.05, 0.85, 0.384, 192.0, 0.0, 0.0, 0.0, 0.0, 0.0, 0.0, 0.0, 0.0, 0.0, 1.6820973855942705E9, 0.0, 2023-04-21 12:16:25.594
174.0, -31851.12409009029, -22471.795674776517, 187500.0, 187500.0, -187500.02235174447, 187500.0, 187500.0, 187500.0, -0.05, 0.85, 0.384, 192.0, 0.0, 0.0, 0.0, 0.0, 0.0, 0.0, 0.0, 0.0, 0.0, 1.6820973855942826E9, 0.0, 2023-04-21 12:16:25.594
175.0, -30979.741332500143, -20892.980205175903, 187500.0, 187500.0, -187500.02235174447, 187500.0, 187500.0, 187500.0, -0.05, 0.85, 0.384, 192.0, 0.0, 0.0, 0.0, 0.0, 0.0, 0.0, 0.0, 0.0, 0.0, 1.6820973855942948E9, 0.0, 2023-04-21 12:16:25.594
176.0, -31179.02948606366, -18905.93247484356, 187500.0, 187500.0, -187500.02235174447, 187500.0, 187500.0, 187500.0, -0.05, 0.85, 0.384, 192.0, 0.0, 0.0, 0.0, 0.0, 0.0, 0.0, 0.0, 0.0, 0.0, 1.682097385594316E9, 0.0, 2023-04-21 12:16:25.594
177.0, -32522.7269557389, -18600.20531418387, 187500.0, 187500.0, -187500.02235174447, 187500.0, 187500.0, 187500.0, -0.05, 0.85, 0.384, 192.0, 0.0, 0.0, 0.0, 0.0, 0.0, 0.0, 0.0, 0.0, 0.0, 1.682097385594328E9, 0.0, 2023-04-21 12:16:25.594
178.0, -33259.70867391928, -19399.682509861294, 187500.0, 187500.0, -187500.02235174447, 187500.0, 187500.0, 187500.0, -0.05, 0.85, 0.384, 192.0, 0.0, 0.0, 0.0, 0.0, 0.0, 0.0, 0.0, 0.0, 0.0, 1.6820973855943403E9, 0.0, 2023-04-21 12:16:25.594
179.0, -32466.109987033607, -19093.77653524596, 187500.0, 187500.0, -187500.02235174447, 187500.0, 187500.0, 187500.0, -0.05, 0.85, 0.384, 192.0, 0.0, 0.0, 0.0, 0.0, 0.0, 0.0, 0.0, 0.0, 0.0, 1.6820973855943525E9, 0.0, 2023-04-21 12:16:25.594
180.0, -32188.009582520677, -18052.319354095383, 187500.0, 187500.0, -187500.02235174447, 187500.0, 187500.0, 187500.0, -0.05, 0.85, 0.384, 192.0, 0.0, 0.0, 0.0, 0.0, 0.0, 0.0, 0.0, 0.0, 0.0, 1.682097385594454E9, 0.0, 2023-04-21 12:16:25.594
181.0, -33166.65836175184, -18188.30736736147, 187500.0, 187500.0, -187500.02235174447, 187500.0, 187500.0, 187500.0, -0.05, 0.85, 0.384, 192.0, 0.0, 0.0, 0.0, 0.0, 0.0, 0.0, 0.0, 0.0, 0.0, 1.6820973855944667E9, 0.0, 2023-04-21 12:16:25.594
182.0, -34450.38610105349, -19681.493303953805, 187500.0, 187500.0, -187500.02235174447, 187500.0, 187500.0, 187500.0, 0.058, 1.082, 0.36, 192.0, 1.0, 208.0, 33.0, 208.0, 11.0, 64.0, 0.0, 0.0, 0.0, 1.6820973855944784E9, 0.0, 2023-04-21 12:16:25.594
183.0, -34856.45024257305, -20822.97454154188, 187500.0, 187500.0, -187500.02235174447, 187500.0, 187500.0, 187500.0, 0.058, 1.082, 0.36, 192.0, 0.0, 0.0, 0.0, 0.0, 0.0, 0.0, 0.0, 0.0, 0.0, 1.682097385594493E9, 0.0, 2023-04-21 12:16:25.594
184.0, -35450.336092750564, -20671.586176346085, 187500.0, 187500.0, -187500.02235174447, 187500.0, 187500.0, 187500.0, 0.058, 1.082, 0.36, 192.0, 0.0, 0.0, 0.0, 0.0, 0.0, 0.0, 0.0, 0.0, 0.0, 1.6820973855945053E9, 0.0, 2023-04-21 12:16:25.594
185.0, -38096.67087753664, -21409.037281160032, 187500.0, 187500.0, -187500.02235174447, 187500.0, 187500.0, 187500.0, 0.058, 1.082, 0.36, 192.0, 0.0, 0.0, 0.0, 0.0, 0.0, 0.0, 0.0, 0.0, 0.0, 1.6820973855945172E9, 0.0, 2023-04-21 12:16:25.594
186.0, -37251.28319874802, -23030.097547781177, 187500.0, 187500.0, -187500.02235174447, 187500.0, 187500.0, 187500.0, 0.058, 1.082, 0.36, 192.0, 0.0, 0.0, 0.0, 0.0, 0.0, 0.0, 0.0, 0.0, 0.0, 1.6820973855945292E9, 0.0, 2023-04-21 12:16:25.594
187.0, -36386.9412406613, -23930.26935222976, 187500.0, 187500.0, -187500.02235174447, 187500.0, 187500.0, 187500.0, 0.058, 1.082, 0.36, 192.0, 0.0, 0.0, 0.0, 0.0, 0.0, 0.0, 0.0, 0.0, 0.0, 1.6820973855945413E9, 0.0, 2023-04-21 12:16:25.594
188.0, -37758.0643007832, -23003.118992223623, 187500.0, 187500.0, -187500.02235174447, 187500.0, 187500.0, 187500.0, 0.058, 1.082, 0.36, 192.0, 0.0, 0.0, 0.0, 0.0, 0.0, 0.0, 0.0, 0.0, 0.0, 1.6820973855945537E9, 0.0, 2023-04-21 12:16:25.594
189.0, -40038.67984279154, -22766.190500997367, 187500.0, 187500.0, -187500.02235174447, 187500.0, 187500.0, 187500.0, 0.058, 1.082, 0.36, 192.0, 0.0, 0.0, 0.0, 0.0, 0.0, 0.0, 0.0, 0.0, 0.0, 1.6820973855945656E9, 0.0, 2023-04-21 12:16:25.594
190.0, -41229.06669724783, -23757.155091423403, 187500.0, 187500.0, -187500.02235174447, 187500.0, 187500.0, 187500.0, 0.058, 1.082, 0.36, 192.0, 0.0, 0.0, 0.0, 0.0, 0.0, 0.0, 0.0, 0.0, 0.0, 1.6820973855945776E9, 0.0, 2023-04-21 12:16:25.594
191.0, -41526.52371245906, -24453.814262606415, 187500.0, 187500.0, -187500.02235174447, 187500.0, 187500.0, 187500.0, 0.058, 1.082, 0.36, 192.0, 0.0, 0.0, 0.0, 0.0, 0.0, 0.0, 0.0, 0.0, 0.0, 1.68209738559459E9, 0.0, 2023-04-21 12:16:25.594
192.0, -41502.62969763633, -23310.053147083898, 187500.0, 187500.0, -187500.02235174447, 187500.0, 187500.0, 187500.0, 0.068, 0.924, 0.304, 192.0, 2.0, 32.0, 28.0, 224.0, 9.0, 128.0, 0.0, 0.0, 0.0, 1.682097385594602E9, 0.0, 2023-04-21 12:16:25.594
193.0, -42335.85802744127, -22376.420781185723, 187500.0, 187500.0, -187500.02235174447, 187500.0, 187500.0, 187500.0, 0.068, 0.924, 0.304, 192.0, 0.0, 0.0, 0.0, 0.0, 0.0, 0.0, 0.0, 0.0, 0.0, 1.6820973855946147E9, 0.0, 2023-04-21 12:16:25.594
194.0, -43281.85090802323, -22550.205594325733, 187500.0, 187500.0, -187500.02235174447, 187500.0, 187500.0, 187500.0, 0.068, 0.924, 0.304, 192.0, 0.0, 0.0, 0.0, 0.0, 0.0, 0.0, 0.0, 0.0, 0.0, 1.682097385594627E9, 0.0, 2023-04-21 12:16:25.594
195.0, -43229.07843936425, -23074.108132613677, 187500.0, 187500.0, -187500.02235174447, 187500.0, 187500.0, 187500.0, 0.068, 0.924, 0.304, 192.0, 0.0, 0.0, 0.0, 0.0, 0.0, 0.0, 0.0, 0.0, 0.0, 1.6820973855946577E9, 0.0, 2023-04-21 12:16:25.594
196.0, -42518.9858697636, -21808.060623176174, 187500.0, 187500.0, -187500.02235174447, 187500.0, 187500.0, 187500.0, 0.068, 0.924, 0.304, 192.0, 0.0, 0.0, 0.0, 0.0, 0.0, 0.0, 0.0, 0.0, 0.0, 1.68209738559467E9, 0.0, 2023-04-21 12:16:25.594
197.0, -42376.15822269419, -20503.948092931285, 187500.0, 187500.0, -187500.02235174447, 187500.0, 187500.0, 187500.0, 0.068, 0.924, 0.304, 192.0, 0.0, 0.0, 0.0, 0.0, 0.0, 0.0, 0.0, 0.0, 0.0, 1.682097385594686E9, 0.0, 2023-04-21 12:16:25.594
198.0, -41484.5918398609, -20928.720644559937, 187500.0, 187500.0, -187500.02235174447, 187500.0, 187500.0, 187500.0, 0.068, 0.924, 0.304, 192.0, 0.0, 0.0, 0.0, 0.0, 0.0, 0.0, 0.0, 0.0, 0.0, 1.6820973855946982E9, 0.0, 2023-04-21 12:16:25.594
199.0, -38956.67659719904, -21839.934210769443, 187500.0, 187500.0, -187500.02235174447, 187500.0, 187500.0, 187500.0, 0.068, 0.924, 0.304, 192.0, 0.0, 0.0, 0.0, 0.0, 0.0, 0.0, 0.0, 0.0, 0.0, 1.6820973855947104E9, 0.0, 2023-04-21 12:16:25.594
200.0, -37213.374640151815, -21101.969015833023, 187500.0, 187500.0, -187500.02235174447, 187500.0, 187500.0, 187500.0, 0.068, 0.924, 0.304, 192.0, 0.0, 0.0, 0.0, 0.0, 0.0, 0.0, 0.0, 0.0, 0.0, 1.6820973855947227E9, 0.0, 2023-04-21 12:16:25.594
201.0, -36634.37505178154, -19963.549967235325, 187500.0, 187500.0, -187500.02235174447, 187500.0, 187500.0, 187500.0, 0.068, 0.924, 0.304, 192.0, 0.0, 0.0, 0.0, 0.0, 0.0, 0.0, 0.0, 0.0, 0.0, 1.682097385594735E9, 0.0, 2023-04-21 12:16:25.594
202.0, -37336.26453116709, -20767.29634610371, 187500.0, 187500.0, -187500.02235174447, 187500.0, 187500.0, 187500.0, -0.026000000000000002, 0.87, 0.29, 192.0, 255.0, 48.0, 27.0, 48.0, 9.0, 16.0, 0.0, 0.0, 0.0, 1.6820973855947468E9, 0.0, 2023-04-21 12:16:25.594
203.0, -37764.121623530584, -22523.159983534813, 187500.0, 187500.0, -187500.02235174447, 187500.0, 187500.0, 187500.0, -0.026000000000000002, 0.87, 0.29, 192.0, 0.0, 0.0, 0.0, 0.0, 0.0, 0.0, 0.0, 0.0, 0.0, 1.68209738559476E9, 0.0, 2023-04-21 12:16:25.594
204.0, -36807.19873990998, -22473.606166077396, 187500.0, 187500.0, -187500.02235174447, 187500.0, 187500.0, 187500.0, -0.026000000000000002, 0.87, 0.29, 192.0, 0.0, 0.0, 0.0, 0.0, 0.0, 0.0, 0.0, 0.0, 0.0, 1.682097385594772E9, 0.0, 2023-04-21 12:16:25.594
205.0, -36055.554277366915, -21020.899238693626, 187500.0, 187500.0, -187500.02235174447, 187500.0, 187500.0, 187500.0, -0.026000000000000002, 0.87, 0.29, 192.0, 0.0, 0.0, 0.0, 0.0, 0.0, 0.0, 0.0, 0.0, 0.0, 1.6820973855947845E9, 0.0, 2023-04-21 12:16:25.594
206.0, -36632.25163605829, -21165.112693919265, 187500.0, 187500.0, -187500.02235174447, 187500.0, 187500.0, 187500.0, -0.026000000000000002, 0.87, 0.29, 192.0, 0.0, 0.0, 0.0, 0.0, 0.0, 0.0, 0.0, 0.0, 0.0, 1.6820973855947964E9, 0.0, 2023-04-21 12:16:25.594
207.0, -37061.405129600185, -22402.080583820414, 187500.0, 187500.0, -187500.02235174447, 187500.0, 187500.0, 187500.0, -0.026000000000000002, 0.87, 0.29, 192.0, 0.0, 0.0, 0.0, 0.0, 0.0, 0.0, 0.0, 0.0, 0.0, 1.6820973855948088E9, 0.0, 2023-04-21 12:16:25.594
208.0, -36150.75035700206, -22252.659172136686, 187500.0, 187500.0, -187500.02235174447, 187500.0, 187500.0, 187500.0, -0.026000000000000002, 0.87, 0.29, 192.0, 0.0, 0.0, 0.0, 0.0, 0.0, 0.0, 0.0, 0.0, 0.0, 1.6820973855948207E9, 0.0, 2023-04-21 12:16:25.594
209.0, -35097.290289078985, -20425.761690826617, 187500.0, 187500.0, -187500.02235174447, 187500.0, 187500.0, 187500.0, -0.026000000000000002, 0.87, 0.29, 192.0, 0.0, 0.0, 0.0, 0.0, 0.0, 0.0, 0.0, 0.0, 0.0, 1.6820973855948327E9, 0.0, 2023-04-21 12:16:25.594
210.0, -35313.23049226171, -20182.99939429753, 187500.0, 187500.0, -187500.02235174447, 187500.0, 187500.0, 187500.0, -0.026000000000000002, 0.87, 0.29, 192.0, 0.0, 0.0, 0.0, 0.0, 0.0, 0.0, 0.0, 0.0, 0.0, 1.6820973855948715E9, 0.0, 2023-04-21 12:16:25.594
211.0, -35656.75445279532, -21386.9984611271, 187500.0, 187500.0, -187500.02235174447, 187500.0, 187500.0, 187500.0, -0.026000000000000002, 0.87, 0.29, 192.0, 0.0, 0.0, 0.0, 0.0, 0.0, 0.0, 0.0, 0.0, 0.0, 1.682097385594885E9, 0.0, 2023-04-21 12:16:25.594
212.0, -34876.90208874966, -21881.486103711857, 187500.0, 187500.0, -187500.02235174447, 187500.0, 187500.0, 187500.0, -0.026000000000000002, 0.87, 0.29, 192.0, 0.0, 0.0, 0.0, 0.0, 0.0, 0.0, 0.0, 0.0, 0.0, 1.682097385594897E9, 0.0, 2023-04-21 12:16:25.594
213.0, -33930.21630408958, -20481.37283103142, 187500.0, 187500.0, -187500.02235174447, 187500.0, 187500.0, 187500.0, -0.004, 0.894, 0.34400000000000003, 192.0, 255.0, 224.0, 27.0, 240.0, 10.0, 192.0, 0.0, 0.0, 0.0, 1.6820973855949123E9, 0.0, 2023-04-21 12:16:25.594
214.0, -34380.55925137511, -19831.674674949012, 187500.0, 187500.0, -187500.02235174447, 187500.0, 187500.0, 187500.0, -0.004, 0.894, 0.34400000000000003, 192.0, 0.0, 0.0, 0.0, 0.0, 0.0, 0.0, 0.0, 0.0, 0.0, 1.682097385594929E9, 0.0, 2023-04-21 12:16:25.594
215.0, -35280.1275587234, -21092.178951761598, 187500.0, 187500.0, -187500.02235174447, 187500.0, 187500.0, 187500.0, -0.004, 0.894, 0.34400000000000003, 192.0, 0.0, 0.0, 0.0, 0.0, 0.0, 0.0, 0.0, 0.0, 0.0, 1.6820973855949447E9, 0.0, 2023-04-21 12:16:25.594
216.0, -35022.41194515371, -22446.02411341955, 187500.0, 187500.0, -187500.02235174447, 187500.0, 187500.0, 187500.0, -0.004, 0.894, 0.34400000000000003, 192.0, 0.0, 0.0, 0.0, 0.0, 0.0, 0.0, 0.0, 0.0, 0.0, 1.6820973855949607E9, 0.0, 2023-04-21 12:16:25.594
217.0, -33993.359982175825, -21519.141974346876, 187500.0, 187500.0, -187500.02235174447, 187500.0, 187500.0, 187500.0, -0.004, 0.894, 0.34400000000000003, 192.0, 0.0, 0.0, 0.0, 0.0, 0.0, 0.0, 0.0, 0.0, 0.0, 1.6820973855949788E9, 0.0, 2023-04-21 12:16:25.594
218.0, -34197.431409052784, -20844.722788896896, 187500.0, 187500.0, -187500.02235174447, 187500.0, 187500.0, 187500.0, -0.004, 0.894, 0.34400000000000003, 192.0, 0.0, 0.0, 0.0, 0.0, 0.0, 0.0, 0.0, 0.0, 0.0, 1.682097385594998E9, 0.0, 2023-04-21 12:16:25.594
219.0, -35120.916082968244, -21764.340611021595, 187500.0, 187500.0, -187500.02235174447, 187500.0, 187500.0, 187500.0, -0.004, 0.894, 0.34400000000000003, 192.0, 0.0, 0.0, 0.0, 0.0, 0.0, 0.0, 0.0, 0.0, 0.0, 1.6820973855950315E9, 0.0, 2023-04-21 12:16:25.595
220.0, -35117.47391432213, -23377.935394994664, 187500.0, 187500.0, -187500.02235174447, 187500.0, 187500.0, 187500.0, -0.004, 0.894, 0.34400000000000003, 192.0, 0.0, 0.0, 0.0, 0.0, 0.0, 0.0, 0.0, 0.0, 0.0, 1.6820973855950472E9, 0.0, 2023-04-21 12:16:25.595
221.0, -34071.859308702864, -23011.79146907228, 187500.0, 187500.0, -187500.02235174447, 187500.0, 187500.0, 187500.0, -0.004, 0.894, 0.34400000000000003, 192.0, 0.0, 0.0, 0.0, 0.0, 0.0, 0.0, 0.0, 0.0, 0.0, 1.6820973855950625E9, 0.0, 2023-04-21 12:16:25.595
222.0, -33883.545861666906, -21561.92321323433, 187500.0, 187500.0, -187500.02235174447, 187500.0, 187500.0, 187500.0, -0.004, 0.894, 0.34400000000000003, 192.0, 0.0, 0.0, 0.0, 0.0, 0.0, 0.0, 0.0, 0.0, 0.0, 1.6820973855950785E9, 0.0, 2023-04-21 12:16:25.595
223.0, -34605.73072501788, -21460.37923817387, 187500.0, 187500.0, -187500.02235174447, 187500.0, 187500.0, 187500.0, -0.064, 0.8260000000000001, 0.358, 192.0, 254.0, 0.0, 25.0, 208.0, 11.0, 48.0, 0.0, 0.0, 0.0, 1.6820973855950942E9, 0.0, 2023-04-21 12:16:25.595
224.0, -34587.804625964716, -22219.01979673145, 187500.0, 187500.0, -187500.02235174447, 187500.0, 187500.0, 187500.0, -0.064, 0.8260000000000001, 0.358, 192.0, 0.0, 0.0, 0.0, 0.0, 0.0, 0.0, 0.0, 0.0, 0.0, 1.6820973855951104E9, 0.0, 2023-04-21 12:16:25.595
225.0, -33366.03592229318, -21001.76614543988, 187500.0, 187500.0, -187500.02235174447, 187500.0, 187500.0, 187500.0, -0.064, 0.8260000000000001, 0.358, 192.0, 0.0, 0.0, 0.0, 0.0, 0.0, 0.0, 0.0, 0.0, 0.0, 1.6820973855951483E9, 0.0, 2023-04-21 12:16:25.595
226.0, -32762.561173744343, -19368.658288557326, 187500.0, 187500.0, -187500.02235174447, 187500.0, 187500.0, 187500.0, -0.064, 0.8260000000000001, 0.358, 192.0, 0.0, 0.0, 0.0, 0.0, 0.0, 0.0, 0.0, 0.0, 0.0, 1.6820973855951648E9, 0.0, 2023-04-21 12:16:25.595
227.0, -33360.805614090634, -19781.47265690239, 187500.0, 187500.0, -187500.02235174447, 187500.0, 187500.0, 187500.0, -0.064, 0.8260000000000001, 0.358, 192.0, 0.0, 0.0, 0.0, 0.0, 0.0, 0.0, 0.0, 0.0, 0.0, 1.6820973855951807E9, 0.0, 2023-04-21 12:16:25.595
228.0, -33458.683903060424, -21024.430814317562, 187500.0, 187500.0, -187500.02235174447, 187500.0, 187500.0, 187500.0, -0.064, 0.8260000000000001, 0.358, 192.0, 0.0, 0.0, 0.0, 0.0, 0.0, 0.0, 0.0, 0.0, 0.0, 1.6820973855951965E9, 0.0, 2023-04-21 12:16:25.595
229.0, -32457.61632414059, -20490.782915447107, 187500.0, 187500.0, -187500.02235174447, 187500.0, 187500.0, 187500.0, -0.064, 0.8260000000000001, 0.358, 192.0, 0.0, 0.0, 0.0, 0.0, 0.0, 0.0, 0.0, 0.0, 0.0, 1.6820973855952115E9, 0.0, 2023-04-21 12:16:25.595
230.0, -32047.752386063625, -18925.93728613106, 187500.0, 187500.0, -187500.02235174447, 187500.0, 187500.0, 187500.0, -0.064, 0.8260000000000001, 0.358, 192.0, 0.0, 0.0, 0.0, 0.0, 0.0, 0.0, 0.0, 0.0, 0.0, 1.6820973855952268E9, 0.0, 2023-04-21 12:16:25.595
231.0, -32765.802176690362, -19166.196187281155, 187500.0, 187500.0, -187500.02235174447, 187500.0, 187500.0, 187500.0, -0.064, 0.8260000000000001, 0.358, 192.0, 0.0, 0.0, 0.0, 0.0, 0.0, 0.0, 0.0, 0.0, 0.0, 1.6820973855952418E9, 0.0, 2023-04-21 12:16:25.595
232.0, -33240.97791206573, -20528.82558451004, 187500.0, 187500.0, -187500.02235174447, 187500.0, 187500.0, 187500.0, -0.064, 0.8260000000000001, 0.358, 192.0, 0.0, 0.0, 0.0, 0.0, 0.0, 0.0, 0.0, 0.0, 0.0, 1.6820973855952575E9, 0.0, 2023-04-21 12:16:25.595
233.0, -32674.80822501281, -20609.35891978251, 187500.0, 187500.0, -187500.02235174447, 187500.0, 187500.0, 187500.0, 0.156, 1.08, 0.384, 192.0, 4.0, 224.0, 33.0, 192.0, 12.0, 0.0, 0.0, 0.0, 0.0, 1.6820973855952733E9, 0.0, 2023-04-21 12:16:25.595
234.0, -32216.105725300997, -18817.06193888926, 187500.0, 187500.0, -187500.02235174447, 187500.0, 187500.0, 187500.0, 0.156, 1.08, 0.384, 192.0, 0.0, 0.0, 0.0, 0.0, 0.0, 0.0, 0.0, 0.0, 0.0, 1.6820973855952892E9, 0.0, 2023-04-21 12:16:25.595
235.0, -33017.30400530148, -18094.54179937146, 187500.0, 187500.0, -187500.02235174447, 187500.0, 187500.0, 187500.0, 0.156, 1.08, 0.384, 192.0, 0.0, 0.0, 0.0, 0.0, 0.0, 0.0, 0.0, 0.0, 0.0, 1.6820973855953047E9, 0.0, 2023-04-21 12:16:25.595
236.0, -33876.01332378547, -19227.842298488893, 187500.0, 187500.0, -187500.02235174447, 187500.0, 187500.0, 187500.0, 0.156, 1.08, 0.384, 192.0, 0.0, 0.0, 0.0, 0.0, 0.0, 0.0, 0.0, 0.0, 0.0, 1.6820973855953205E9, 0.0, 2023-04-21 12:16:25.595
237.0, -33503.521502437776, -20125.98009419204, 187500.0, 187500.0, -187500.02235174447, 187500.0, 187500.0, 187500.0, 0.156, 1.08, 0.384, 192.0, 0.0, 0.0, 0.0, 0.0, 0.0, 0.0, 0.0, 0.0, 0.0, 1.6820973855953355E9, 0.0, 2023-04-21 12:16:25.595
238.0, -33035.610084010375, -19059.332497040334, 187500.0, 187500.0, -187500.02235174447, 187500.0, 187500.0, 187500.0, 0.156, 1.08, 0.384, 192.0, 0.0, 0.0, 0.0, 0.0, 0.0, 0.0, 0.0, 0.0, 0.0, 1.6820973855953512E9, 0.0, 2023-04-21 12:16:25.595
239.0, -34148.972827073674, -19126.901820528725, 187500.0, 187500.0, -187500.02235174447, 187500.0, 187500.0, 187500.0, 0.156, 1.08, 0.384, 192.0, 0.0, 0.0, 0.0, 0.0, 0.0, 0.0, 0.0, 0.0, 0.0, 1.6820973855953667E9, 0.0, 2023-04-21 12:16:25.595
240.0, -35482.299087321655, -20943.271630200343, 187500.0, 187500.0, -187500.02235174447, 187500.0, 187500.0, 187500.0, 0.156, 1.08, 0.384, 192.0, 0.0, 0.0, 0.0, 0.0, 0.0, 0.0, 0.0, 0.0, 0.0, 1.6820973855953827E9, 0.0, 2023-04-21 12:16:25.595
241.0, -35497.811197973635, -22345.307152903933, 187500.0, 187500.0, -187500.02235174447, 187500.0, 187500.0, 187500.0, 0.156, 1.08, 0.384, 192.0, 0.0, 0.0, 0.0, 0.0, 0.0, 0.0, 0.0, 0.0, 0.0, 1.6820973855954237E9, 0.0, 2023-04-21 12:16:25.595
242.0, -34603.09321917215, -21405.885685191835, 187500.0, 187500.0, -187500.02235174447, 187500.0, 187500.0, 187500.0, 0.156, 1.08, 0.384, 192.0, 0.0, 0.0, 0.0, 0.0, 0.0, 0.0, 0.0, 0.0, 0.0, 1.6820973855954392E9, 0.0, 2023-04-21 12:16:25.595
243.0, -34900.03614426091, -20996.714651192982, 187500.0, 187500.0, -187500.02235174447, 187500.0, 187500.0, 187500.0, -0.008, 0.908, 0.318, 192.0, 255.0, 192.0, 28.0, 96.0, 9.0, 240.0, 0.0, 0.0, 0.0, 1.682097385595455E9, 0.0, 2023-04-21 12:16:25.595
244.0, -35931.07741249531, -22456.708247269184, 187500.0, 187500.0, -187500.02235174447, 187500.0, 187500.0, 187500.0, -0.008, 0.908, 0.318, 192.0, 0.0, 0.0, 0.0, 0.0, 0.0, 0.0, 0.0, 0.0, 0.0, 1.6820973855954745E9, 0.0, 2023-04-21 12:16:25.595
245.0, -36014.22590186905, -23820.43287997638, 187500.0, 187500.0, -187500.02235174447, 187500.0, 187500.0, 187500.0, -0.008, 0.908, 0.318, 192.0, 0.0, 0.0, 0.0, 0.0, 0.0, 0.0, 0.0, 0.0, 0.0, 1.6820973855954907E9, 0.0, 2023-04-21 12:16:25.595
246.0, -34902.71835359554, -22849.115472926555, 187500.0, 187500.0, -187500.02235174447, 187500.0, 187500.0, 187500.0, -0.008, 0.908, 0.318, 192.0, 0.0, 0.0, 0.0, 0.0, 0.0, 0.0, 0.0, 0.0, 0.0, 1.6820973855955093E9, 0.0, 2023-04-21 12:16:25.595
247.0, -34697.976374384925, -21980.4372764155, 187500.0, 187500.0, -187500.02235174447, 187500.0, 187500.0, 187500.0, -0.008, 0.908, 0.318, 192.0, 0.0, 0.0, 0.0, 0.0, 0.0, 0.0, 0.0, 0.0, 0.0, 1.6820973855955257E9, 0.0, 2023-04-21 12:16:25.595
248.0, -35559.36790220355, -23122.745528548425, 187500.0, 187500.0, -187500.02235174447, 187500.0, 187500.0, 187500.0, -0.008, 0.908, 0.318, 192.0, 0.0, 0.0, 0.0, 0.0, 0.0, 0.0, 0.0, 0.0, 0.0, 1.6820973855955408E9, 0.0, 2023-04-21 12:16:25.595
249.0, -35790.06025672678, -24622.614636732895, 187500.0, 187500.0, -187500.02235174447, 187500.0, 187500.0, 187500.0, -0.008, 0.908, 0.318, 192.0, 0.0, 0.0, 0.0, 0.0, 0.0, 0.0, 0.0, 0.0, 0.0, 1.6820973855955565E9, 0.0, 2023-04-21 12:16:25.595
250.0, -34808.438695483055, -23995.759963483808, 187500.0, 187500.0, -187500.02235174447, 187500.0, 187500.0, 187500.0, -0.008, 0.908, 0.318, 192.0, 0.0, 0.0, 0.0, 0.0, 0.0, 0.0, 0.0, 0.0, 0.0, 1.6820973855955737E9, 0.0, 2023-04-21 12:16:25.595
251.0, -34463.14894713747, -22886.86756931157, 187500.0, 187500.0, -187500.02235174447, 187500.0, 187500.0, 187500.0, -0.008, 0.908, 0.318, 192.0, 0.0, 0.0, 0.0, 0.0, 0.0, 0.0, 0.0, 0.0, 0.0, 1.6820973855955887E9, 0.0, 2023-04-21 12:16:25.595
252.0, -35277.78062555559, -23882.928357473418, 187500.0, 187500.0, -187500.02235174447, 187500.0, 187500.0, 187500.0, -0.008, 0.908, 0.318, 192.0, 0.0, 0.0, 0.0, 0.0, 0.0, 0.0, 0.0, 0.0, 0.0, 1.6820973855956008E9, 0.0, 2023-04-21 12:16:25.595
253.0, -35690.25971773383, -25660.048503881517, 187500.0, 187500.0, -187500.02235174447, 187500.0, 187500.0, 187500.0, -0.008, 0.908, 0.318, 192.0, 0.0, 0.0, 0.0, 0.0, 0.0, 0.0, 0.0, 0.0, 0.0, 1.6820973855956156E9, 0.0, 2023-04-21 12:16:25.595
254.0, -34830.79043993836, -25454.18893744814, 187500.0, 187500.0, -187500.02235174447, 187500.0, 187500.0, 187500.0, 0.018000000000000002, 0.888, 0.332, 192.0, 0.0, 144.0, 27.0, 192.0, 10.0, 96.0, 0.0, 0.0, 0.0, 1.6820973855956275E9, 0.0, 2023-04-21 12:16:25.595
255.0, -34157.779414389064, -23785.966490026294, 187500.0, 187500.0, -187500.02235174447, 187500.0, 187500.0, 187500.0, 0.018000000000000002, 0.888, 0.332, 192.0, 0.0, 0.0, 0.0, 0.0, 0.0, 0.0, 0.0, 0.0, 0.0, 1.6820973855956419E9, 0.0, 2023-04-21 12:16:25.595
0.0, -34756.64970358011, -23855.838043193584, 187500.0, 187500.0, -187500.02235174447, 187500.0, 187500.0, 187500.0, 0.018000000000000002, 0.888, 0.332, 192.0, 0.0, 0.0, 0.0, 0.0, 0.0, 0.0, 0.0, 0.0, 0.0, 1.6820973855956693E9, 0.0, 2023-04-21 12:16:25.595
1.0, -35355.56469626006, -25013.99368214532, 187500.0, 187500.0, -187500.02235174447, 187500.0, 187500.0, 187500.0, 0.018000000000000002, 0.888, 0.332, 192.0, 0.0, 0.0, 0.0, 0.0, 0.0, 0.0, 0.0, 0.0, 0.0, 1.682097385595682E9, 0.0, 2023-04-21 12:16:25.595
2.0, -34653.85403083015, -24552.318400420954, 187500.0, 187500.0, -187500.02235174447, 187500.0, 187500.0, 187500.0, 0.018000000000000002, 0.888, 0.332, 192.0, 0.0, 0.0, 0.0, 0.0, 0.0, 0.0, 0.0, 0.0, 0.0, 1.6820973855956936E9, 0.0, 2023-04-21 12:16:25.595
3.0, -33734.19150521654, -22317.412175823712, 187500.0, 187500.0, -187500.02235174447, 187500.0, 187500.0, 187500.0, 0.018000000000000002, 0.888, 0.332, 192.0, 0.0, 0.0, 0.0, 0.0, 0.0, 0.0, 0.0, 0.0, 0.0, 1.6820973855957055E9, 0.0, 2023-04-21 12:16:25.595
4.0, -34171.39162676235, -21995.502352178377, 187500.0, 187500.0, -187500.02235174447, 187500.0, 187500.0, 187500.0, 0.018000000000000002, 0.888, 0.332, 192.0, 0.0, 0.0, 0.0, 0.0, 0.0, 0.0, 0.0, 0.0, 0.0, 1.6820973855957172E9, 0.0, 2023-04-21 12:16:25.595
5.0, -34951.132232085736, -23185.039840345366, 187500.0, 187500.0, -187500.02235174447, 187500.0, 187500.0, 187500.0, 0.018000000000000002, 0.888, 0.332, 192.0, 0.0, 0.0, 0.0, 0.0, 0.0, 0.0, 0.0, 0.0, 0.0, 1.6820973855957296E9, 0.0, 2023-04-21 12:16:25.595
6.0, -34525.107982767586, -22940.9140874045, 187500.0, 187500.0, -187500.02235174447, 187500.0, 187500.0, 187500.0, 0.018000000000000002, 0.888, 0.332, 192.0, 0.0, 0.0, 0.0, 0.0, 0.0, 0.0, 0.0, 0.0, 0.0, 1.6820973855957417E9, 0.0, 2023-04-21 12:16:25.595
7.0, -33613.00034677987, -20625.02749264568, 187500.0, 187500.0, -187500.02235174447, 187500.0, 187500.0, 187500.0, 0.018000000000000002, 0.888, 0.332, 192.0, 0.0, 0.0, 0.0, 0.0, 0.0, 0.0, 0.0, 0.0, 0.0, 1.682097385595754E9, 0.0, 2023-04-21 12:16:25.595
8.0, -33942.398004817725, -20175.33274594936, 187500.0, 187500.0, -187500.02235174447, 187500.0, 187500.0, 187500.0, 0.018000000000000002, 0.9460000000000001, 0.342, 192.0, 0.0, 144.0, 29.0, 144.0, 10.0, 176.0, 0.0, 0.0, 0.0, 1.6820973855957656E9, 0.0, 2023-04-21 12:16:25.595
9.0, -34783.22592773747, -21443.123691454377, 187500.0, 187500.0, -187500.02235174447, 187500.0, 187500.0, 187500.0, 0.018000000000000002, 0.9460000000000001, 0.342, 192.0, 0.0, 0.0, 0.0, 0.0, 0.0, 0.0, 0.0, 0.0, 0.0, 1.682097385595778E9, 0.0, 2023-04-21 12:16:25.595
10.0, -34644.04161501427, -21542.924230447323, 187500.0, 187500.0, -187500.02235174447, 187500.0, 187500.0, 187500.0, 0.018000000000000002, 0.9460000000000001, 0.342, 192.0, 0.0, 0.0, 0.0, 0.0, 0.0, 0.0, 0.0, 0.0, 0.0, 1.68209738559579E9, 0.0, 2023-04-21 12:16:25.595
11.0, -33721.1604381991, -19259.42531340424, 187500.0, 187500.0, -187500.02235174447, 187500.0, 187500.0, 187500.0, 0.018000000000000002, 0.9460000000000001, 0.342, 192.0, 0.0, 0.0, 0.0, 0.0, 0.0, 0.0, 0.0, 0.0, 0.0, 1.6820973855958014E9, 0.0, 2023-04-21 12:16:25.595
12.0, -33762.77938637488, -18631.02836978774, 187500.0, 187500.0, -187500.02235174447, 187500.0, 187500.0, 187500.0, 0.018000000000000002, 0.9460000000000001, 0.342, 192.0, 0.0, 0.0, 0.0, 0.0, 0.0, 0.0, 0.0, 0.0, 0.0, 1.6820973855958133E9, 0.0, 2023-04-21 12:16:25.595
13.0, -34610.0669634422, -20103.918922414654, 187500.0, 187500.0, -187500.02235174447, 187500.0, 187500.0, 187500.0, 0.018000000000000002, 0.9460000000000001, 0.342, 192.0, 0.0, 0.0, 0.0, 0.0, 0.0, 0.0, 0.0, 0.0, 0.0, 1.6820973855958247E9, 0.0, 2023-04-21 12:16:25.595
14.0, -34717.064764149756, -20689.266406210234, 187500.0, 187500.0, -187500.02235174447, 187500.0, 187500.0, 187500.0, 0.018000000000000002, 0.9460000000000001, 0.342, 192.0, 0.0, 0.0, 0.0, 0.0, 0.0, 0.0, 0.0, 0.0, 0.0, 1.6820973855958383E9, 0.0, 2023-04-21 12:16:25.595
15.0, -33800.285613570886, -18618.98077952633, 187500.0, 187500.0, -187500.02235174447, 187500.0, 187500.0, 187500.0, 0.018000000000000002, 0.9460000000000001, 0.342, 192.0, 0.0, 0.0, 0.0, 0.0, 0.0, 0.0, 0.0, 0.0, 0.0, 1.6820973855958662E9, 0.0, 2023-04-21 12:16:25.595
16.0, -33681.41903655756, -17686.957739228936, 187500.0, 187500.0, -187500.02235174447, 187500.0, 187500.0, 187500.0, 0.018000000000000002, 0.9460000000000001, 0.342, 192.0, 0.0, 0.0, 0.0, 0.0, 0.0, 0.0, 0.0, 0.0, 0.0, 1.6820973855958784E9, 0.0, 2023-04-21 12:16:25.595
17.0, -34529.220703747356, -19287.63321490684, 187500.0, 187500.0, -187500.02235174447, 187500.0, 187500.0, 187500.0, 0.018000000000000002, 0.9460000000000001, 0.342, 192.0, 0.0, 0.0, 0.0, 0.0, 0.0, 0.0, 0.0, 0.0, 0.0, 1.6820973855958903E9, 0.0, 2023-04-21 12:16:25.595
18.0, -34849.16357388062, -20278.977784988616, 187500.0, 187500.0, -187500.02235174447, 187500.0, 187500.0, 187500.0, 0.01, 0.934, 0.338, 192.0, 0.0, 80.0, 29.0, 48.0, 10.0, 144.0, 0.0, 0.0, 0.0, 1.682097385595902E9, 0.0, 2023-04-21 12:16:25.595
19.0, -33996.578633377394, -18427.35927431098, 187500.0, 187500.0, -187500.02235174447, 187500.0, 187500.0, 187500.0, 0.01, 0.934, 0.338, 192.0, 0.0, 0.0, 0.0, 0.0, 0.0, 0.0, 0.0, 0.0, 0.0, 1.6820973855959127E9, 0.0, 2023-04-21 12:16:25.595
20.0, -33614.184989236, -17042.959277982627, 187500.0, 187500.0, -187500.02235174447, 187500.0, 187500.0, 187500.0, 0.01, 0.934, 0.338, 192.0, 0.0, 0.0, 0.0, 0.0, 0.0, 0.0, 0.0, 0.0, 0.0, 1.6820973855959227E9, 0.0, 2023-04-21 12:16:25.595
21.0, -34330.960730428786, -18541.599040222056, 187500.0, 187500.0, -187500.02235174447, 187500.0, 187500.0, 187500.0, 0.01, 0.934, 0.338, 192.0, 0.0, 0.0, 0.0, 0.0, 0.0, 0.0, 0.0, 0.0, 0.0, 1.682097385595933E9, 0.0, 2023-04-21 12:16:25.595
22.0, -34830.96925389401, -19891.28677741132, 187500.0, 187500.0, -187500.02235174447, 187500.0, 187500.0, 187500.0, 0.01, 0.934, 0.338, 192.0, 0.0, 0.0, 0.0, 0.0, 0.0, 0.0, 0.0, 0.0, 0.0, 1.6820973855959432E9, 0.0, 2023-04-21 12:16:25.595
23.0, -34143.317835726484, -18441.239707617726, 187500.0, 187500.0, -187500.02235174447, 187500.0, 187500.0, 187500.0, 0.01, 0.934, 0.338, 192.0, 0.0, 0.0, 0.0, 0.0, 0.0, 0.0, 0.0, 0.0, 0.0, 1.682097385595953E9, 0.0, 2023-04-21 12:16:25.595
24.0, -33566.79929099075, -16588.391850995045, 187500.0, 187500.0, -187500.02235174447, 187500.0, 187500.0, 187500.0, 0.01, 0.934, 0.338, 192.0, 0.0, 0.0, 0.0, 0.0, 0.0, 0.0, 0.0, 0.0, 0.0, 1.6820973855959632E9, 0.0, 2023-04-21 12:16:25.595
25.0, -34168.418844749795, -17908.30706456984, 187500.0, 187500.0, -187500.02235174447, 187500.0, 187500.0, 187500.0, 0.01, 0.934, 0.338, 192.0, 0.0, 0.0, 0.0, 0.0, 0.0, 0.0, 0.0, 0.0, 0.0, 1.682097385595973E9, 0.0, 2023-04-21 12:16:25.595
26.0, -34799.85562561222, -19578.563520737116, 187500.0, 187500.0, -187500.02235174447, 187500.0, 187500.0, 187500.0, 0.01, 0.934, 0.338, 192.0, 0.0, 0.0, 0.0, 0.0, 0.0, 0.0, 0.0, 0.0, 0.0, 1.682097385595983E9, 0.0, 2023-04-21 12:16:25.595
27.0, -34282.77036938314, -18575.618395283032, 187500.0, 187500.0, -187500.02235174447, 187500.0, 187500.0, 187500.0, 0.01, 0.934, 0.338, 192.0, 0.0, 0.0, 0.0, 0.0, 0.0, 0.0, 0.0, 0.0, 0.0, 1.6820973855959933E9, 0.0, 2023-04-21 12:16:25.595
28.0, -33515.747906654826, -16342.120330586475, 187500.0, 187500.0, -187500.02235174447, 187500.0, 187500.0, 187500.0, 0.018000000000000002, 0.928, 0.338, 192.0, 0.0, 144.0, 29.0, 0.0, 10.0, 144.0, 0.0, 0.0, 0.0, 1.6820973855960033E9, 0.0, 2023-04-21 12:16:25.596
29.0, -33992.06358099742, -17302.395975875377, 187500.0, 187500.0, -187500.02235174447, 187500.0, 187500.0, 187500.0, 0.018000000000000002, 0.928, 0.338, 192.0, 0.0, 0.0, 0.0, 0.0, 0.0, 0.0, 0.0, 0.0, 0.0, 1.6820973855960138E9, 0.0, 2023-04-21 12:16:25.596
30.0, -34744.49035459642, -19227.216449644144, 187500.0, 187500.0, -187500.02235174447, 187500.0, 187500.0, 187500.0, 0.018000000000000002, 0.928, 0.338, 192.0, 0.0, 0.0, 0.0, 0.0, 0.0, 0.0, 0.0, 0.0, 0.0, 1.682097385596037E9, 0.0, 2023-04-21 12:16:25.596
31.0, -34457.136327878994, -18730.828908780684, 187500.0, 187500.0, -187500.02235174447, 187500.0, 187500.0, 187500.0, 0.018000000000000002, 0.928, 0.338, 192.0, 0.0, 0.0, 0.0, 0.0, 0.0, 0.0, 0.0, 0.0, 0.0, 1.6820973860750792E9, 0.0, 2023-04-21 12:16:26.075
32.0, -33632.982806322914, -16225.243058829674, 187500.0, 187500.0, -187500.02235174447, 187500.0, 187500.0, 187500.0, 0.018000000000000002, 0.928, 0.338, 192.0, 0.0, 0.0, 0.0, 0.0, 0.0, 0.0, 0.0, 0.0, 0.0, 1.6820973860751276E9, 0.0, 2023-04-21 12:16:26.075
33.0, -33869.6430766157, -16722.7481869159, 187500.0, 187500.0, -187500.02235174447, 187500.0, 187500.0, 187500.0, 0.018000000000000002, 0.928, 0.338, 192.0, 0.0, 0.0, 0.0, 0.0, 0.0, 0.0, 0.0, 0.0, 0.0, 1.6820973860751495E9, 0.0, 2023-04-21 12:16:26.075
34.0, -34654.09990001916, -18807.405985284568, 187500.0, 187500.0, -187500.02235174447, 187500.0, 187500.0, 187500.0, 0.018000000000000002, 0.928, 0.338, 192.0, 0.0, 0.0, 0.0, 0.0, 0.0, 0.0, 0.0, 0.0, 0.0, 1.682097386075172E9, 0.0, 2023-04-21 12:16:26.075
35.0, -34582.32844857317, -18869.70029708151, 187500.0, 187500.0, -187500.02235174447, 187500.0, 187500.0, 187500.0, 0.018000000000000002, 0.928, 0.338, 192.0, 0.0, 0.0, 0.0, 0.0, 0.0, 0.0, 0.0, 0.0, 0.0, 1.6820973860751925E9, 0.0, 2023-04-21 12:16:26.075
36.0, -33699.85922573319, -16351.843339424533, 187500.0, 187500.0, -187500.02235174447, 187500.0, 187500.0, 187500.0, 0.018000000000000002, 0.928, 0.338, 192.0, 0.0, 0.0, 0.0, 0.0, 0.0, 0.0, 0.0, 0.0, 0.0, 1.6820973860752156E9, 0.0, 2023-04-21 12:16:26.075
37.0, -33700.59683330022, -16251.416951586838, 187500.0, 187500.0, -187500.02235174447, 187500.0, 187500.0, 187500.0, 0.018000000000000002, 0.928, 0.338, 192.0, 0.0, 0.0, 0.0, 0.0, 0.0, 0.0, 0.0, 0.0, 0.0, 1.6820973860752356E9, 0.0, 2023-04-21 12:16:26.075
38.0, -34519.78826758722, -18387.193189524794, 187500.0, 187500.0, -187500.02235174447, 187500.0, 187500.0, 187500.0, 0.018000000000000002, 0.928, 0.338, 192.0, 0.0, 0.0, 0.0, 0.0, 0.0, 0.0, 0.0, 0.0, 0.0, 1.6820973860752597E9, 0.0, 2023-04-21 12:16:26.075
39.0, -34708.10171462318, -19016.394795941687, 187500.0, 187500.0, -187500.02235174447, 187500.0, 187500.0, 187500.0, 0.022, 0.9380000000000001, 0.338, 192.0, 0.0, 176.0, 29.0, 80.0, 10.0, 144.0, 0.0, 0.0, 0.0, 1.682097386075281E9, 0.0, 2023-04-21 12:16:26.075
40.0, -33851.247590928986, -16663.96309899844, 187500.0, 187500.0, -187500.02235174447, 187500.0, 187500.0, 187500.0, 0.022, 0.9380000000000001, 0.338, 192.0, 0.0, 0.0, 0.0, 0.0, 0.0, 0.0, 0.0, 0.0, 0.0, 1.6820973860753033E9, 0.0, 2023-04-21 12:16:26.075
41.0, -33596.281241927296, -15970.321413316897, 187500.0, 187500.0, -187500.02235174447, 187500.0, 187500.0, 187500.0, 0.022, 0.9380000000000001, 0.338, 192.0, 0.0, 0.0, 0.0, 0.0, 0.0, 0.0, 0.0, 0.0, 0.0, 1.6820973860753248E9, 0.0, 2023-04-21 12:16:26.075
42.0, -34316.45444827729, -18032.180432341152, 187500.0, 187500.0, -187500.02235174447, 187500.0, 187500.0, 187500.0, 0.022, 0.9380000000000001, 0.338, 192.0, 0.0, 0.0, 0.0, 0.0, 0.0, 0.0, 0.0, 0.0, 0.0, 1.6820973860753407E9, 0.0, 2023-04-21 12:16:26.075
43.0, -34734.83440099173, -19124.35372166082, 187500.0, 187500.0, -187500.02235174447, 187500.0, 187500.0, 187500.0, 0.022, 0.9380000000000001, 0.338, 192.0, 0.0, 0.0, 0.0, 0.0, 0.0, 0.0, 0.0, 0.0, 0.0, 1.682097386075358E9, 0.0, 2023-04-21 12:16:26.075
44.0, -34064.393826054795, -17086.56753141493, 187500.0, 187500.0, -187500.02235174447, 187500.0, 187500.0, 187500.0, 0.022, 0.9380000000000001, 0.338, 192.0, 0.0, 0.0, 0.0, 0.0, 0.0, 0.0, 0.0, 0.0, 0.0, 1.6820973860753713E9, 0.0, 2023-04-21 12:16:26.075
45.0, -33538.43492727696, -15767.434628896073, 187500.0, 187500.0, -187500.02235174447, 187500.0, 187500.0, 187500.0, 0.022, 0.9380000000000001, 0.338, 192.0, 0.0, 0.0, 0.0, 0.0, 0.0, 0.0, 0.0, 0.0, 0.0, 1.6820973860754216E9, 0.0, 2023-04-21 12:16:26.075
46.0, -34103.21880617366, -17649.987953899858, 187500.0, 187500.0, -187500.02235174447, 187500.0, 187500.0, 187500.0, 0.022, 0.9380000000000001, 0.338, 192.0, 0.0, 0.0, 0.0, 0.0, 0.0, 0.0, 0.0, 0.0, 0.0, 1.6820973860754344E9, 0.0, 2023-04-21 12:16:26.075
47.0, -34751.21822967747, -19177.260300786533, 187500.0, 187500.0, -187500.02235174447, 187500.0, 187500.0, 187500.0, 0.022, 0.9380000000000001, 0.338, 192.0, 0.0, 0.0, 0.0, 0.0, 0.0, 0.0, 0.0, 0.0, 0.0, 1.6820973860754468E9, 0.0, 2023-04-21 12:16:26.075
48.0, -34270.16398551035, -17626.518622221785, 187500.0, 187500.0, -187500.02235174447, 187500.0, 187500.0, 187500.0, 0.022, 0.9380000000000001, 0.338, 192.0, 0.0, 0.0, 0.0, 0.0, 0.0, 0.0, 0.0, 0.0, 0.0, 1.6820973860754592E9, 0.0, 2023-04-21 12:16:26.075
49.0, -33573.66127653853, -15745.485215840963, 187500.0, 187500.0, -187500.02235174447, 187500.0, 187500.0, 187500.0, 0.02, 0.92, 0.338, 192.0, 0.0, 160.0, 28.0, 192.0, 10.0, 144.0, 0.0, 0.0, 0.0, 1.6820973860754712E9, 0.0, 2023-04-21 12:16:26.075
50.0, -33938.15117337122, -17252.953917140236, 187500.0, 187500.0, -187500.02235174447, 187500.0, 187500.0, 187500.0, 0.02, 0.92, 0.338, 192.0, 0.0, 0.0, 0.0, 0.0, 0.0, 0.0, 0.0, 0.0, 0.0, 1.6820973860754848E9, 0.0, 2023-04-21 12:16:26.075
51.0, -34705.28539482181, -19070.083686123337, 187500.0, 187500.0, -187500.02235174447, 187500.0, 187500.0, 187500.0, 0.02, 0.92, 0.338, 192.0, 0.0, 0.0, 0.0, 0.0, 0.0, 0.0, 0.0, 0.0, 0.0, 1.682097386075497E9, 0.0, 2023-04-21 12:16:26.075
52.0, -34464.91473494944, -18135.02080858002, 187500.0, 187500.0, -187500.02235174447, 187500.0, 187500.0, 187500.0, 0.02, 0.92, 0.338, 192.0, 0.0, 0.0, 0.0, 0.0, 0.0, 0.0, 0.0, 0.0, 0.0, 1.6820973860755088E9, 0.0, 2023-04-21 12:16:26.075
53.0, -33649.03135884182, -15891.553865856395, 187500.0, 187500.0, -187500.02235174447, 187500.0, 187500.0, 187500.0, 0.02, 0.92, 0.338, 192.0, 0.0, 0.0, 0.0, 0.0, 0.0, 0.0, 0.0, 0.0, 0.0, 1.6820973860755208E9, 0.0, 2023-04-21 12:16:26.075
54.0, -33755.09038628225, -16881.356165570756, 187500.0, 187500.0, -187500.02235174447, 187500.0, 187500.0, 187500.0, 0.02, 0.92, 0.338, 192.0, 0.0, 0.0, 0.0, 0.0, 0.0, 0.0, 0.0, 0.0, 0.0, 1.682097386075533E9, 0.0, 2023-04-21 12:16:26.075
55.0, -34620.99696648085, -18888.65457637961, 187500.0, 187500.0, -187500.02235174447, 187500.0, 187500.0, 187500.0, 0.02, 0.92, 0.338, 192.0, 0.0, 0.0, 0.0, 0.0, 0.0, 0.0, 0.0, 0.0, 0.0, 1.6820973860755448E9, 0.0, 2023-04-21 12:16:26.075
56.0, -34700.65858371957, -18581.47455233032, 187500.0, 187500.0, -187500.02235174447, 187500.0, 187500.0, 187500.0, 0.02, 0.92, 0.338, 192.0, 0.0, 0.0, 0.0, 0.0, 0.0, 0.0, 0.0, 0.0, 0.0, 1.6820973860755565E9, 0.0, 2023-04-21 12:16:26.075
57.0, -33816.96001493454, -16150.968212004687, 187500.0, 187500.0, -187500.02235174447, 187500.0, 187500.0, 187500.0, 0.02, 0.92, 0.338, 192.0, 0.0, 0.0, 0.0, 0.0, 0.0, 0.0, 0.0, 0.0, 0.0, 1.6820973860755684E9, 0.0, 2023-04-21 12:16:26.075
58.0, -33537.697319709936, -16567.649432140523, 187500.0, 187500.0, -187500.02235174447, 187500.0, 187500.0, 187500.0, 0.02, 0.92, 0.338, 192.0, 0.0, 0.0, 0.0, 0.0, 0.0, 0.0, 0.0, 0.0, 0.0, 1.6820973860755804E9, 0.0, 2023-04-21 12:16:26.075
59.0, -34378.74876007423, -18650.876718864052, 187500.0, 187500.0, -187500.02235174447, 187500.0, 187500.0, 187500.0, 0.016, 0.92, 0.336, 192.0, 0.0, 128.0, 28.0, 192.0, 10.0, 128.0, 0.0, 0.0, 0.0, 1.6820973860755925E9, 0.0, 2023-04-21 12:16:26.075
60.0, -34845.25201860094, -18902.333843986256, 187500.0, 187500.0, -187500.02235174447, 187500.0, 187500.0, 187500.0, 0.016, 0.92, 0.336, 192.0, 0.0, 0.0, 0.0, 0.0, 0.0, 0.0, 0.0, 0.0, 0.0, 1.682097386075621E9, 0.0, 2023-04-21 12:16:26.075
61.0, -34073.35687558137, -16554.350144189615, 187500.0, 187500.0, -187500.02235174447, 187500.0, 187500.0, 187500.0, 0.016, 0.92, 0.336, 192.0, 0.0, 0.0, 0.0, 0.0, 0.0, 0.0, 0.0, 0.0, 0.0, 1.6820973860756328E9, 0.0, 2023-04-21 12:16:26.075
62.0, -33388.38766674849, -16338.655810195902, 187500.0, 187500.0, -187500.02235174447, 187500.0, 187500.0, 187500.0, 0.016, 0.92, 0.336, 192.0, 0.0, 0.0, 0.0, 0.0, 0.0, 0.0, 0.0, 0.0, 0.0, 1.6820973860756447E9, 0.0, 2023-04-21 12:16:26.075
63.0, -34050.17811658122, -18353.553814119558, 187500.0, 187500.0, -187500.02235174447, 187500.0, 187500.0, 187500.0, 0.016, 0.92, 0.336, 192.0, 0.0, 0.0, 0.0, 0.0, 0.0, 0.0, 0.0, 0.0, 0.0, 1.6820973860756567E9, 0.0, 2023-04-21 12:16:26.075
64.0, -34863.55809730984, -19140.938716046658, 187500.0, 187500.0, -187500.02235174447, 187500.0, 187500.0, 187500.0, 0.016, 0.92, 0.336, 192.0, 0.0, 0.0, 0.0, 0.0, 0.0, 0.0, 0.0, 0.0, 0.0, 1.6820973860756683E9, 0.0, 2023-04-21 12:16:26.075
65.0, -34286.9948490852, -17027.693036519653, 187500.0, 187500.0, -187500.02235174447, 187500.0, 187500.0, 187500.0, 0.016, 0.92, 0.336, 192.0, 0.0, 0.0, 0.0, 0.0, 0.0, 0.0, 0.0, 0.0, 0.0, 1.6820973860756805E9, 0.0, 2023-04-21 12:16:26.075
66.0, -33222.537722890105, -16194.889389859367, 187500.0, 187500.0, -187500.02235174447, 187500.0, 187500.0, 187500.0, 0.016, 0.92, 0.336, 192.0, 0.0, 0.0, 0.0, 0.0, 0.0, 0.0, 0.0, 0.0, 0.0, 1.682097386075692E9, 0.0, 2023-04-21 12:16:26.075
67.0, -33600.818646051724, -18087.299834167938, 187500.0, 187500.0, -187500.02235174447, 187500.0, 187500.0, 187500.0, 0.016, 0.92, 0.336, 192.0, 0.0, 0.0, 0.0, 0.0, 0.0, 0.0, 0.0, 0.0, 0.0, 1.6820973860757036E9, 0.0, 2023-04-21 12:16:26.075
68.0, -34694.556557483265, -19395.346271436963, 187500.0, 187500.0, -187500.02235174447, 187500.0, 187500.0, 187500.0, 0.016, 0.92, 0.336, 192.0, 0.0, 0.0, 0.0, 0.0, 0.0, 0.0, 0.0, 0.0, 0.0, 1.6820973860757153E9, 0.0, 2023-04-21 12:16:26.075
69.0, -34474.32481936512, -17865.369363471196, 187500.0, 187500.0, -187500.02235174447, 187500.0, 187500.0, 187500.0, 0.008, 0.93, 0.34400000000000003, 192.0, 0.0, 64.0, 29.0, 16.0, 10.0, 192.0, 0.0, 0.0, 0.0, 1.6820973860757275E9, 0.0, 2023-04-21 12:16:26.075
70.0, -33253.517240705165, -16618.00791239833, 187500.0, 187500.0, -187500.02235174447, 187500.0, 187500.0, 187500.0, 0.008, 0.93, 0.34400000000000003, 192.0, 0.0, 0.0, 0.0, 0.0, 0.0, 0.0, 0.0, 0.0, 0.0, 1.68209738607574E9, 0.0, 2023-04-21 12:16:26.075
71.0, -33252.55611569359, -18132.092730056374, 187500.0, 187500.0, -187500.02235174447, 187500.0, 187500.0, 187500.0, 0.008, 0.93, 0.34400000000000003, 192.0, 0.0, 0.0, 0.0, 0.0, 0.0, 0.0, 0.0, 0.0, 0.0, 1.6820973860757515E9, 0.0, 2023-04-21 12:16:26.075
72.0, -34591.33620158866, -19650.245565205285, 187500.0, 187500.0, -187500.02235174447, 187500.0, 187500.0, 187500.0, 0.008, 0.93, 0.34400000000000003, 192.0, 0.0, 0.0, 0.0, 0.0, 0.0, 0.0, 0.0, 0.0, 0.0, 1.6820973860757637E9, 0.0, 2023-04-21 12:16:26.075
73.0, -34998.1603024197, -18645.69111415042, 187500.0, 187500.0, -187500.02235174447, 187500.0, 187500.0, 187500.0, 0.008, 0.93, 0.34400000000000003, 192.0, 0.0, 0.0, 0.0, 0.0, 0.0, 0.0, 0.0, 0.0, 0.0, 1.6820973860757756E9, 0.0, 2023-04-21 12:16:26.075
74.0, -33918.213417317085, -16919.979979989526, 187500.0, 187500.0, -187500.02235174447, 187500.0, 187500.0, 187500.0, 0.008, 0.93, 0.34400000000000003, 192.0, 0.0, 0.0, 0.0, 0.0, 0.0, 0.0, 0.0, 0.0, 0.0, 1.682097386075788E9, 0.0, 2023-04-21 12:16:26.075
75.0, -30648.24261048348, -17800.839877228722, 187500.0, 187500.0, -187500.02235174447, 187500.0, 187500.0, 187500.0, 0.008, 0.93, 0.34400000000000003, 192.0, 0.0, 0.0, 0.0, 0.0, 0.0, 0.0, 0.0, 0.0, 0.0, 1.6820973860758E9, 0.0, 2023-04-21 12:16:26.075
76.0, -30850.4811943151, -19494.632720307436, 187500.0, 187500.0, -187500.02235174447, 187500.0, 187500.0, 187500.0, 0.008, 0.93, 0.34400000000000003, 192.0, 0.0, 0.0, 0.0, 0.0, 0.0, 0.0, 0.0, 0.0, 0.0, 1.6820973860758247E9, 0.0, 2023-04-21 12:16:26.075
77.0, -43759.842963199975, -19721.078243384152, 187500.0, 187500.0, -187500.02235174447, 187500.0, 187500.0, 187500.0, 0.008, 0.93, 0.34400000000000003, 192.0, 0.0, 0.0, 0.0, 0.0, 0.0, 0.0, 0.0, 0.0, 0.0, 1.6820973860758348E9, 0.0, 2023-04-21 12:16:26.075
78.0, -44439.87243650823, -17652.49134927885, 187500.0, 187500.0, -187500.02235174447, 187500.0, 187500.0, 187500.0, 0.008, 0.93, 0.34400000000000003, 192.0, 0.0, 0.0, 0.0, 0.0, 0.0, 0.0, 0.0, 0.0, 0.0, 1.6820973860758448E9, 0.0, 2023-04-21 12:16:26.075
79.0, -26179.234824089388, -17007.799983954428, 187500.0, 187500.0, -187500.02235174447, 187500.0, 187500.0, 187500.0, 0.008, 0.93, 0.34400000000000003, 192.0, 0.0, 0.0, 0.0, 0.0, 0.0, 0.0, 0.0, 0.0, 0.0, 1.6820973860758543E9, 0.0, 2023-04-21 12:16:26.075
80.0, -24733.74751016468, -18716.501440584834, 187500.0, 187500.0, -187500.02235174447, 187500.0, 187500.0, 187500.0, -0.01, 0.936, 0.334, 192.0, 255.0, 176.0, 29.0, 64.0, 10.0, 112.0, 0.0, 0.0, 0.0, 1.6820973860758643E9, 0.0, 2023-04-21 12:16:26.075
81.0, -41188.65474327264, -19877.004012704376, 187500.0, 187500.0, -187500.02235174447, 187500.0, 187500.0, 187500.0, -0.01, 0.936, 0.334, 192.0, 0.0, 0.0, 0.0, 0.0, 0.0, 0.0, 0.0, 0.0, 0.0, 1.6820973860758748E9, 0.0, 2023-04-21 12:16:26.075
82.0, -46388.51986986636, -18098.96744477361, 187500.0, 187500.0, -187500.02235174447, 187500.0, 187500.0, 187500.0, -0.01, 0.936, 0.334, 192.0, 0.0, 0.0, 0.0, 0.0, 0.0, 0.0, 0.0, 0.0, 0.0, 1.6820973860758848E9, 0.0, 2023-04-21 12:16:26.075
83.0, -27876.805111981048, -16663.493712364878, 187500.0, 187500.0, -187500.02235174447, 187500.0, 187500.0, 187500.0, -0.01, 0.936, 0.334, 192.0, 0.0, 0.0, 0.0, 0.0, 0.0, 0.0, 0.0, 0.0, 0.0, 1.6820973860758944E9, 0.0, 2023-04-21 12:16:26.075
84.0, -22495.399116921322, -17858.529729667873, 187500.0, 187500.0, -187500.02235174447, 187500.0, 187500.0, 187500.0, -0.01, 0.936, 0.334, 192.0, 0.0, 0.0, 0.0, 0.0, 0.0, 0.0, 0.0, 0.0, 0.0, 1.6820973860759041E9, 0.0, 2023-04-21 12:16:26.075
85.0, -38416.54669243654, -19757.399828124027, 187500.0, 187500.0, -187500.02235174447, 187500.0, 187500.0, 187500.0, -0.01, 0.936, 0.334, 192.0, 0.0, 0.0, 0.0, 0.0, 0.0, 0.0, 0.0, 0.0, 0.0, 1.682097386075914E9, 0.0, 2023-04-21 12:16:26.075
86.0, -47913.288821374044, -18917.35421626022, 187500.0, 187500.0, -187500.02235174447, 187500.0, 187500.0, 187500.0, -0.01, 0.936, 0.334, 192.0, 0.0, 0.0, 0.0, 0.0, 0.0, 0.0, 0.0, 0.0, 0.0, 1.682097386075924E9, 0.0, 2023-04-21 12:16:26.075
87.0, -31070.24354579968, -16874.807104445354, 187500.0, 187500.0, -187500.02235174447, 187500.0, 187500.0, 187500.0, -0.01, 0.936, 0.334, 192.0, 0.0, 0.0, 0.0, 0.0, 0.0, 0.0, 0.0, 0.0, 0.0, 1.6820973860759337E9, 0.0, 2023-04-21 12:16:26.075
88.0, -21264.890881167757, -17169.268985899565, 187500.0, 187500.0, -187500.02235174447, 187500.0, 187500.0, 187500.0, -0.01, 0.936, 0.334, 192.0, 0.0, 0.0, 0.0, 0.0, 0.0, 0.0, 0.0, 0.0, 0.0, 1.6820973860759437E9, 0.0, 2023-04-21 12:16:26.075
89.0, -35303.105152023454, -19321.45140426772, 187500.0, 187500.0, -187500.02235174447, 187500.0, 187500.0, 187500.0, -0.01, 0.936, 0.334, 192.0, 0.0, 0.0, 0.0, 0.0, 0.0, 0.0, 0.0, 0.0, 0.0, 1.6820973860759566E9, 0.0, 2023-04-21 12:16:26.075
90.0, -48339.111904992096, -19327.151099103823, 187500.0, 187500.0, -187500.02235174447, 187500.0, 187500.0, 187500.0, -0.006, 0.926, 0.324, 192.0, 255.0, 208.0, 28.0, 240.0, 10.0, 32.0, 0.0, 0.0, 0.0, 1.6820973860759664E9, 0.0, 2023-04-21 12:16:26.075
91.0, -34612.03391695427, -17657.565195270206, 187500.0, 187500.0, -187500.02235174447, 187500.0, 187500.0, 187500.0, -0.006, 0.926, 0.324, 192.0, 0.0, 0.0, 0.0, 0.0, 0.0, 0.0, 0.0, 0.0, 0.0, 1.6820973860759883E9, 0.0, 2023-04-21 12:16:26.075
92.0, -20808.40120415702, -18114.390148447772, 187500.0, 187500.0, -187500.02235174447, 187500.0, 187500.0, 187500.0, -0.006, 0.926, 0.324, 192.0, 0.0, 0.0, 0.0, 0.0, 0.0, 0.0, 0.0, 0.0, 0.0, 1.6820973860759983E9, 0.0, 2023-04-21 12:16:26.075
93.0, -32059.934086791767, -20785.3565556236, 187500.0, 187500.0, -187500.02235174447, 187500.0, 187500.0, 187500.0, -0.006, 0.926, 0.324, 192.0, 0.0, 0.0, 0.0, 0.0, 0.0, 0.0, 0.0, 0.0, 0.0, 1.682097386076008E9, 0.0, 2023-04-21 12:16:26.076
94.0, -47762.16867711171, -21641.584830473046, 187500.0, 187500.0, -187500.02235174447, 187500.0, 187500.0, 187500.0, -0.006, 0.926, 0.324, 192.0, 0.0, 0.0, 0.0, 0.0, 0.0, 0.0, 0.0, 0.0, 0.0, 1.6820973860760183E9, 0.0, 2023-04-21 12:16:26.076
95.0, -38227.89796923375, -20162.81576905439, 187500.0, 187500.0, -187500.02235174447, 187500.0, 187500.0, 187500.0, -0.006, 0.926, 0.324, 192.0, 0.0, 0.0, 0.0, 0.0, 0.0, 0.0, 0.0, 0.0, 0.0, 1.682097386076028E9, 0.0, 2023-04-21 12:16:26.076
96.0, -20944.836252312216, -20100.186181090616, 187500.0, 187500.0, -187500.02235174447, 187500.0, 187500.0, 187500.0, -0.006, 0.926, 0.324, 192.0, 0.0, 0.0, 0.0, 0.0, 0.0, 0.0, 0.0, 0.0, 0.0, 1.682097386076038E9, 0.0, 2023-04-21 12:16:26.076
97.0, -28841.14877476082, -22462.989087461126, 187500.0, 187500.0, -187500.02235174447, 187500.0, 187500.0, 187500.0, -0.006, 0.926, 0.324, 192.0, 0.0, 0.0, 0.0, 0.0, 0.0, 0.0, 0.0, 0.0, 0.0, 1.6820973860760477E9, 0.0, 2023-04-21 12:16:26.076
98.0, -47023.53292984163, -23678.476950940723, 187500.0, 187500.0, -187500.02235174447, 187500.0, 187500.0, 187500.0, -0.006, 0.926, 0.324, 192.0, 0.0, 0.0, 0.0, 0.0, 0.0, 0.0, 0.0, 0.0, 0.0, 1.6820973860760577E9, 0.0, 2023-04-21 12:16:26.076
99.0, -42634.656147319816, -22015.820087888253, 187500.0, 187500.0, -187500.02235174447, 187500.0, 187500.0, 187500.0, -0.006, 0.926, 0.324, 192.0, 0.0, 0.0, 0.0, 0.0, 0.0, 0.0, 0.0, 0.0, 0.0, 1.6820973860760672E9, 0.0, 2023-04-21 12:16:26.076
100.0, -23389.558302111425, -21218.19808700062, 187500.0, 187500.0, -187500.02235174447, 187500.0, 187500.0, 187500.0, -0.042, 0.902, 0.322, 192.0, 254.0, 176.0, 28.0, 48.0, 10.0, 16.0, 0.0, 0.0, 0.0, 1.682097386076077E9, 0.0, 2023-04-21 12:16:26.076
101.0, -27057.323105016127, -22964.137549893567, 187500.0, 187500.0, -187500.02235174447, 187500.0, 187500.0, 187500.0, -0.042, 0.902, 0.322, 192.0, 0.0, 0.0, 0.0, 0.0, 0.0, 0.0, 0.0, 0.0, 0.0, 1.6820973860760872E9, 0.0, 2023-04-21 12:16:26.076
102.0, -45148.19921829691, -24037.33420817068, 187500.0, 187500.0, -187500.02235174447, 187500.0, 187500.0, 187500.0, -0.042, 0.902, 0.322, 192.0, 0.0, 0.0, 0.0, 0.0, 0.0, 0.0, 0.0, 0.0, 0.0, 1.682097386076097E9, 0.0, 2023-04-21 12:16:26.076
103.0, -45675.052186852954, -22119.934513561075, 187500.0, 187500.0, -187500.02235174447, 187500.0, 187500.0, 187500.0, -0.042, 0.902, 0.322, 192.0, 0.0, 0.0, 0.0, 0.0, 0.0, 0.0, 0.0, 0.0, 0.0, 1.6820973860761068E9, 0.0, 2023-04-21 12:16:26.076
104.0, -25855.58156437654, -20826.12613751008, 187500.0, 187500.0, -187500.02235174447, 187500.0, 187500.0, 187500.0, -0.042, 0.902, 0.322, 192.0, 0.0, 0.0, 0.0, 0.0, 0.0, 0.0, 0.0, 0.0, 0.0, 1.6820973860761163E9, 0.0, 2023-04-21 12:16:26.076
105.0, -25076.511511386816, -22294.345175545834, 187500.0, 187500.0, -187500.02235174447, 187500.0, 187500.0, 187500.0, -0.042, 0.902, 0.322, 192.0, 0.0, 0.0, 0.0, 0.0, 0.0, 0.0, 0.0, 0.0, 0.0, 1.6820973860761263E9, 0.0, 2023-04-21 12:16:26.076
106.0, -42444.44280200515, -23759.390265868937, 187500.0, 187500.0, -187500.02235174447, 187500.0, 187500.0, 187500.0, -0.042, 0.902, 0.322, 192.0, 0.0, 0.0, 0.0, 0.0, 0.0, 0.0, 0.0, 0.0, 0.0, 1.6820973860762048E9, 0.0, 2023-04-21 12:16:26.076
107.0, -47714.13477827726, -22183.68168874761, 187500.0, 187500.0, -187500.02235174447, 187500.0, 187500.0, 187500.0, -0.042, 0.902, 0.322, 192.0, 0.0, 0.0, 0.0, 0.0, 0.0, 0.0, 0.0, 0.0, 0.0, 1.6820973860762148E9, 0.0, 2023-04-21 12:16:26.076
108.0, -28922.15149666685, -20566.3541634505, 187500.0, 187500.0, -187500.02235174447, 187500.0, 187500.0, 187500.0, -0.042, 0.902, 0.322, 192.0, 0.0, 0.0, 0.0, 0.0, 0.0, 0.0, 0.0, 0.0, 0.0, 1.6820973860762248E9, 0.0, 2023-04-21 12:16:26.076
