%OpenBCI Raw EEG Data
%Number of channels = 8
%Sample Rate = 250 Hz
%Board = OpenBCI_GUI$BoardCytonSerial
Sample Index, EXG Channel 0, EXG Channel 1, EXG Channel 2, EXG Channel 3, EXG Channel 4, EXG Channel 5, EXG Channel 6, EXG Channel 7, Accel Channel 0, Accel Channel 1, Accel Channel 2, Other, Other, Other, Other, Other, Other, Other, Analog Channel 0, Analog Channel 1, Analog Channel 2, Timestamp, Other, Timestamp (Formatted)
121.0, 48113.82867262705, 54765.75252601535, 70110.046280628, 871.9639029459838, -3145.493941961997, -5903.6992077468885, 24043.637400107076, 17026.016655685504, 0.0, 0.0, 0.0, 196.0, 0.0, 0.0, 0.0, 13.0, 20.0, 173.0, 0.0, 0.0, 0.0, 1.68780325031836E9, 0.0, 2023-06-26 13:14:10.318
122.0, 48193.28912416567, 54848.23046305543, 67334.31724719015, 986.1366136236923, -3059.4173740646097, -5788.81124124661, 24130.80920348277, 17138.96002041817, 0.0, 0.0, 0.0, 196.0, 0.0, 0.0, 0.0, 13.0, 20.0, 177.0, 0.0, 0.0, 0.0, 1.6878032503184001E9, 0.0, 2023-06-26 13:14:10.318
123.0, 48162.04138541716, 54828.225651767934, 67807.95071219812, 946.2163980265138, -3053.7400309729614, -5818.069674738607, 24143.862622244673, 17135.87547968334, 0.0, 0.0, 0.0, 196.0, 0.0, 0.0, 0.0, 13.0, 20.0, 181.0, 0.0, 0.0, 0.0, 1.687803250318418E9, 0.0, 2023-06-26 13:14:10.318
124.0, 48108.06192255759, 54771.92160748501, 69602.37110881461, 864.0737371532605, -3115.5649561363407, -5902.894544946497, 24081.702420914462, 17055.967993255617, 0.0, 0.0, 0.0, 196.0, 0.0, 0.0, 0.0, 13.0, 20.0, 185.0, 0.0, 0.0, 0.0, 1.6878032503184345E9, 0.0, 2023-06-26 13:14:10.318
125.0, 48096.103739273996, 54757.683546266984, 70384.50335079472, 857.636434750132, -3145.404534984176, -5908.035446171218, 24050.499385654854, 17039.830033758884, 0.0, 0.0, 0.0, 196.0, 0.0, 0.0, 0.0, 13.0, 20.0, 189.0, 0.0, 0.0, 0.0, 1.6878032503184512E9, 0.0, 2023-06-26 13:14:10.318
126.0, 48183.543763583155, 54842.57547170824, 67686.87131248371, 973.7313954509968, -3074.1695254051124, -5794.399177360437, 24115.788831208807, 17136.702494228186, 0.0, 0.0, 0.0, 196.0, 0.0, 0.0, 0.0, 13.0, 20.0, 193.0, 0.0, 0.0, 0.0, 1.6878032503184676E9, 0.0, 2023-06-26 13:14:10.318
127.0, 48168.14341165345, 54841.793160652305, 67499.11665905913, 972.8820291616952, -3040.105466855224, -5786.956046456819, 24159.19591894101, 17168.620785310362, 0.0, 0.0, 0.0, 196.0, 253.0, 192.0, 0.0, 13.0, 20.0, 197.0, 0.0, 0.0, 0.0, 1.6878032503184843E9, 0.0, 2023-06-26 13:14:10.318
0.0, 0.0, 0.0, 0.0, 0.0, 0.0, 0.0, 0.0, 0.0, 0.0, 0.0, 0.0, 196.0, 0.0, 0.0, 0.0, 13.0, 135.0, 42.0, 0.0, 0.0, 0.0, 1.6878032504229045E9, 0.0, 2023-06-26 13:14:10.422
1.0, 48173.843106489556, 55178.41043214923, 71416.41633706288, -19.535424653938374, -1814.4475596484615, -5404.361236615328, 24485.196111821668, 17054.783350799484, 0.0, 0.0, 0.0, 196.0, 0.0, 0.0, 0.0, 13.0, 135.0, 57.0, 0.0, 0.0, 0.0, 1.6878032504319482E9, 0.0, 2023-06-26 13:14:10.431
2.0, 48091.81220433858, 55122.419312288686, 74527.77916524162, -139.69840284566914, -1925.871005758167, -5577.296683466039, 24419.526686611975, 16947.4502739251, 0.0, 0.0, 0.0, 196.0, 0.0, 0.0, 0.0, 13.0, 135.0, 61.0, 0.0, 0.0, 0.0, 1.6878032504379802E9, 0.0, 2023-06-26 13:14:10.437
3.0, 48014.564575501034, 55032.85587225627, 77445.24061027057, -229.70887776719067, -2053.2088939200517, -5665.653129297868, 24332.377234980733, 16866.156979341147, 0.0, 0.0, 0.0, 196.0, 0.0, 0.0, 0.0, 13.0, 135.0, 64.0, 0.0, 0.0, 0.0, 1.6878032504410074E9, 0.0, 2023-06-26 13:14:10.441
4.0, 48101.84813759901, 55096.82656488736, 74929.77528927033, -120.61001308083691, -2028.286698852384, -5562.924511781277, 24372.364505811278, 16939.269535454456, 0.0, 0.0, 0.0, 196.0, 0.0, 0.0, 0.0, 13.0, 135.0, 68.0, 0.0, 0.0, 0.0, 1.6878032504450204E9, 0.0, 2023-06-26 13:14:10.445
5.0, 48168.83631573157, 55161.825437763386, 71482.73396286178, -27.537349168938302, -1920.7301045334466, -5442.426257422717, 24494.494437515074, 17046.736722795573, 0.0, 0.0, 0.0, 196.0, 0.0, 0.0, 0.0, 13.0, 135.0, 72.0, 0.0, 0.0, 0.0, 1.6878032504480307E9, 0.0, 2023-06-26 13:14:10.448
6.0, 48098.405968952895, 55121.94992565512, 73755.36993209958, -130.22126319661893, -2037.2050448900516, -5558.208293701207, 24464.118416800313, 16971.478399214557, 0.0, 0.0, 0.0, 196.0, 0.0, 0.0, 0.0, 13.0, 135.0, 76.0, 0.0, 0.0, 0.0, 1.6878032504520204E9, 0.0, 2023-06-26 13:14:10.452
7.0, 48011.860014421945, 55032.989982723, 77300.93774806711, -227.76427599957896, -2044.379954860205, -5682.014606239153, 24369.749351710005, 16878.53984576939, 0.0, 0.0, 0.0, 196.0, 255.0, 80.0, 0.0, 13.0, 135.0, 80.0, 0.0, 0.0, 0.0, 1.687803250456061E9, 0.0, 2023-06-26 13:14:10.456
8.0, 48083.85498331249, 55077.06762278886, 75635.50926870218, -132.9258242757111, -1955.777639839368, -5535.320107378973, 24371.87276743326, 16925.031474236428, 0.0, 0.0, 0.0, 196.0, 29.0, 192.0, 0.0, 13.0, 135.0, 84.0, 0.0, 0.0, 0.0, 1.6878032504601047E9, 0.0, 2023-06-26 13:14:10.460
9.0, 48165.036519174166, 55150.090771924355, 71752.20659401496, -15.623869374259638, -1887.5377640173156, -5409.256268651041, 24492.639242725283, 17058.203167701147, 0.0, 0.0, 0.0, 196.0, 6.0, 224.0, 0.0, 13.0, 135.0, 88.0, 0.0, 0.0, 0.0, 1.6878032504640985E9, 0.0, 2023-06-26 13:14:10.464
10.0, 48110.34180049203, 55125.57090825688, 73004.57483584581, -110.37291412030628, -1946.8816455461558, -5556.688375078246, 24469.41578023622, 16992.89137040274, 0.0, 0.0, 0.0, 196.0, 0.0, 0.0, 0.0, 13.0, 135.0, 92.0, 0.0, 0.0, 0.0, 1.6878032504681246E9, 0.0, 2023-06-26 13:14:10.468
11.0, 48002.60639221745, 55017.120244159734, 76978.15620638803, -228.1889591442298, -2009.2653643209178, -5615.294649040062, 24340.893249618202, 16861.932499639093, 0.0, 0.0, 0.0, 196.0, 0.0, 0.0, 0.0, 13.0, 135.0, 96.0, 0.0, 0.0, 0.0, 1.6878032504742107E9, 0.0, 2023-06-26 13:14:10.474
12.0, 48037.76568624564, 55026.64208729769, 76255.63606687023, -177.2269817861297, -2024.7551232284457, -5573.608645630914, 24339.261572272968, 16876.796409701874, 0.0, 0.0, 0.0, 196.0, 0.0, 0.0, 0.0, 13.0, 135.0, 100.0, 0.0, 0.0, 0.0, 1.6878032504772055E9, 0.0, 2023-06-26 13:14:10.477
13.0, 48154.53119928017, 55125.34739081233, 72198.57093078743, -23.938718311633863, -1910.9400404620221, -5444.862597568345, 24472.45561748214, 17029.749397009542, 0.0, 0.0, 0.0, 196.0, 0.0, 0.0, 0.0, 13.0, 135.0, 104.0, 0.0, 0.0, 0.0, 1.6878032504811895E9, 0.0, 2023-06-26 13:14:10.481
14.0, 48134.72755369277, 55131.203547859615, 72372.17692997181, -65.73648044305807, -1917.7796742653459, -5500.585496495426, 24495.544969504474, 17017.612399770307, 0.0, 0.0, 0.0, 196.0, 0.0, 0.0, 0.0, 13.0, 135.0, 108.0, 0.0, 0.0, 0.0, 1.6878032504842124E9, 0.0, 2023-06-26 13:14:10.484
15.0, 48030.74723848668, 55036.02981996892, 76487.64717431631, -192.24735406009606, -2020.4635882930265, -5641.557948775047, 24398.06901193488, 16909.854639751273, 0.0, 0.0, 0.0, 196.0, 0.0, 0.0, 0.0, 13.0, 135.0, 112.0, 0.0, 0.0, 0.0, 1.687803250488228E9, 0.0, 2023-06-26 13:14:10.488
16.0, 48020.13015987041, 54996.08725262729, 76757.14215721395, -195.71187445066863, -2092.123281016741, -5651.906806457854, 24340.222697284546, 16880.43974404809, 0.0, 0.0, 0.0, 196.0, 0.0, 0.0, 0.0, 13.0, 135.0, 116.0, 0.0, 0.0, 0.0, 1.6878032504922519E9, 0.0, 2023-06-26 13:14:10.492
17.0, 48120.37773375246, 55075.65946288818, 72767.31106845273, -57.37692801677323, -2046.3469083722723, -5479.328987518428, 24441.721968856094, 17006.45887928711, 0.0, 0.0, 0.0, 196.0, 255.0, 192.0, 0.0, 13.0, 135.0, 120.0, 0.0, 0.0, 0.0, 1.6878032504982824E9, 0.0, 2023-06-26 13:14:10.498
18.0, 48121.13769306394, 55089.29402700592, 71879.05274379882, -57.287521038952, -1830.6078708896484, -5467.706080401669, 24469.438131980674, 17016.293646847447, 0.0, 0.0, 0.0, 196.0, 29.0, 160.0, 0.0, 13.0, 135.0, 124.0, 0.0, 0.0, 0.0, 1.687803250501281E9, 0.0, 2023-06-26 13:14:10.501
19.0, 48021.56067151555, 55009.1853748781, 75860.94896327841, -179.68567367621347, -1905.5309183038378, -5578.078994521975, 24373.884424434236, 16897.04709017838, 0.0, 0.0, 0.0, 196.0, 6.0, 240.0, 0.0, 13.0, 135.0, 128.0, 0.0, 0.0, 0.0, 1.6878032505042841E9, 0.0, 2023-06-26 13:14:10.504
20.0, 48010.47420626572, 54981.31274954233, 77087.43388503003, -190.861545903867, -2025.224509862007, -5616.121663584908, 24328.599790167784, 16865.48642700749, 0.0, 0.0, 0.0, 196.0, 0.0, 0.0, 0.0, 13.0, 135.0, 132.0, 0.0, 0.0, 0.0, 1.6878032505082955E9, 0.0, 2023-06-26 13:14:10.508
21.0, 48100.70819863179, 55047.20569219658, 73423.55828566055, -70.94443690114461, -1973.2790557478734, -5490.303694045984, 24415.458669121108, 16981.581387708353, 0.0, 0.0, 0.0, 196.0, 0.0, 0.0, 0.0, 13.0, 135.0, 136.0, 0.0, 0.0, 0.0, 1.6878032505123296E9, 0.0, 2023-06-26 13:14:10.512
22.0, 48134.682850203855, 55092.28916076293, 71521.24601855827, -28.118494524776285, -1884.9226099160446, -5464.241560011096, 24502.1834376077, 17058.85136829035, 0.0, 0.0, 0.0, 196.0, 0.0, 0.0, 0.0, 13.0, 135.0, 140.0, 0.0, 0.0, 0.0, 1.6878032505163713E9, 0.0, 2023-06-26 13:14:10.516
23.0, 48033.65296526587, 55010.615886523236, 75113.39486997067, -183.97720861163242, -2006.3819892861832, -5664.535542075103, 24399.991261958035, 16921.052863723384, 0.0, 0.0, 0.0, 196.0, 0.0, 0.0, 0.0, 13.0, 135.0, 144.0, 0.0, 0.0, 0.0, 1.687803250520352E9, 0.0, 2023-06-26 13:14:10.520
24.0, 47987.40720598784, 54948.27687123739, 77250.84748874277, -213.83913920392266, -2105.7578451344784, -5601.280105266584, 24335.595886182295, 16863.56417698433, 0.0, 0.0, 0.0, 196.0, 0.0, 0.0, 0.0, 13.0, 135.0, 148.0, 0.0, 0.0, 0.0, 1.6878032505243871E9, 0.0, 2023-06-26 13:14:10.524
25.0, 48075.51778263066, 55010.77234873443, 74127.81704995836, -91.4633383111165, -1998.648285704647, -5479.820725896446, 24377.281889591442, 16946.06446576887, 0.0, 0.0, 0.0, 196.0, 0.0, 0.0, 0.0, 13.0, 135.0, 152.0, 0.0, 0.0, 0.0, 1.687803250529724E9, 0.0, 2023-06-26 13:14:10.529
26.0, 48149.14442886644, 55088.37760548325, 71385.45917099228, -9.857119304790414, -1860.6933189264917, -5419.873347267312, 24491.27578631351, 17045.976763484094, 0.0, 0.0, 0.0, 196.0, 0.0, 0.0, 0.0, 13.0, 135.0, 156.0, 0.0, 0.0, 0.0, 1.687803250532415E9, 0.0, 2023-06-26 13:14:10.532
27.0, 48058.41869812235, 55023.13286341821, 74343.95841884118, -141.41948716872778, -1964.2489509879294, -5598.374378487394, 24431.73073908457, 16936.095587741806, 0.0, 0.0, 0.0, 196.0, 0.0, 16.0, 0.0, 13.0, 135.0, 160.0, 0.0, 0.0, 0.0, 1.687803250535437E9, 0.0, 2023-06-26 13:14:10.535
28.0, 47974.107918036934, 54931.15543498462, 77237.63760776969, -237.17436041526324, -2185.8888490067543, -5688.094280730997, 24328.555086678876, 16843.402903485647, 0.0, 0.0, 0.0, 196.0, 29.0, 240.0, 0.0, 13.0, 135.0, 164.0, 0.0, 0.0, 0.0, 1.6878032505394907E9, 0.0, 2023-06-26 13:14:10.539
29.0, 48044.35945085996, 54974.31665352782, 74840.99416029385, -143.49819940307134, -1958.9962910409322, -5551.301604664517, 24352.67261894615, 16918.86239276676, 0.0, 0.0, 0.0, 196.0, 6.0, 240.0, 0.0, 13.0, 135.0, 168.0, 0.0, 0.0, 0.0, 1.6878032505444956E9, 0.0, 2023-06-26 13:14:10.544
30.0, 48116.82380638407, 55052.52540737694, 71443.88663099846, -36.36628822878459, -1865.8342201512123, -5431.0045160060545, 24475.249585539055, 17045.797949528453, 0.0, 0.0, 0.0, 196.0, 0.0, 0.0, 0.0, 13.0, 135.0, 172.0, 0.0, 0.0, 0.0, 1.6878032505485146E9, 0.0, 2023-06-26 13:14:10.548
31.0, 48055.55767483207, 55017.47787207102, 73569.85045312053, -122.19698693716371, -1972.3626342252057, -5552.620357587381, 24451.69084688316, 16959.74373337552, 0.0, 0.0, 0.0, 196.0, 0.0, 0.0, 0.0, 13.0, 135.0, 176.0, 0.0, 0.0, 0.0, 1.687803250552508E9, 0.0, 2023-06-26 13:14:10.552
32.0, 47964.29550222105, 54916.42563538857, 77105.76231548337, -230.4017818453052, -2029.6725070086131, -5650.789219235089, 24346.43648224312, 16851.516586722923, 0.0, 0.0, 0.0, 196.0, 0.0, 0.0, 0.0, 13.0, 135.0, 180.0, 0.0, 0.0, 0.0, 1.6878032505565534E9, 0.0, 2023-06-26 13:14:10.556
33.0, 48042.90658747037, 54977.334139029284, 75554.05951190705, -132.81406555343457, -2021.2011958600517, -5538.404648113805, 24356.897098648205, 16926.327875414834, 0.0, 0.0, 0.0, 196.0, 0.0, 0.0, 0.0, 13.0, 135.0, 184.0, 0.0, 0.0, 0.0, 1.6878032505595524E9, 0.0, 2023-06-26 13:14:10.559
34.0, 48125.65274544391, 55046.266918929454, 71738.12499500811, -11.533500138938445, -1895.0926536432094, -5396.851050478345, 24467.51588195752, 17053.017562987516, 0.0, 0.0, 0.0, 196.0, 0.0, 0.0, 0.0, 13.0, 135.0, 188.0, 0.0, 0.0, 0.0, 1.687803250563576E9, 0.0, 2023-06-26 13:14:10.563
35.0, 48081.17277397785, 55022.082331428806, 72853.81231949477, -91.66450401121426, -1886.911915172567, -5508.743883221613, 24448.31573347041, 16981.804905152905, 0.0, 0.0, 0.0, 196.0, 0.0, 0.0, 0.0, 13.0, 135.0, 192.0, 0.0, 0.0, 0.0, 1.6878032505675893E9, 0.0, 2023-06-26 13:14:10.567
36.0, 47977.460679705226, 54923.019400002886, 76777.43754117937, -216.63310726083606, -2023.3022598388507, -5661.898036229377, 24356.271249803456, 16874.203607345058, 0.0, 0.0, 0.0, 196.0, 0.0, 0.0, 0.0, 13.0, 135.0, 196.0, 0.0, 0.0, 0.0, 1.6878032505726185E9, 0.0, 2023-06-26 13:14:10.572
37.0, 48010.4295027768, 54927.690914594044, 76162.29518202486, -179.52921146502632, -2112.6198306822575, -5631.723181214712, 24353.85726140228, 16910.033453706917, 0.0, 0.0, 0.0, 196.0, 0.0, 128.0, 0.0, 13.0, 135.0, 200.0, 0.0, 0.0, 0.0, 1.6878032505776513E9, 0.0, 2023-06-26 13:14:10.577
38.0, 48092.86273632798, 54996.55663926085, 72155.94615411117, -41.66365166469237, -1973.4578697035158, -5435.899548041767, 24463.023181322, 17027.60362954183, 0.0, 0.0, 0.0, 196.0, 29.0, 240.0, 0.0, 13.0, 135.0, 204.0, 0.0, 0.0, 0.0, 1.6878032505806606E9, 0.0, 2023-06-26 13:14:10.580
39.0, 48085.46430891327, 55017.88020347121, 72246.2024982217, -51.61017794730401, -1964.6736341325802, -5471.081193814421, 24481.552777475452, 17012.65031250123, 0.0, 0.0, 0.0, 196.0, 6.0, 224.0, 0.0, 13.0, 135.0, 208.0, 0.0, 0.0, 0.0, 1.6878032505866761E9, 0.0, 2023-06-26 13:14:10.586
40.0, 47970.73280462418, 54912.670542320084, 76315.62814898827, -191.66620870425805, -1983.650265175136, -5607.359779758427, 24363.043828373415, 16890.162752886146, 0.0, 0.0, 0.0, 196.0, 0.0, 0.0, 0.0, 13.0, 135.0, 212.0, 0.0, 0.0, 0.0, 1.6878032505896957E9, 0.0, 2023-06-26 13:14:10.589
41.0, 47972.565647669515, 54884.32853035075, 76681.3026882771, -201.74684545360154, -2008.4607015205268, -5660.288710628594, 24309.779621336416, 16872.63898523319, 0.0, 0.0, 0.0, 196.0, 0.0, 0.0, 0.0, 13.0, 135.0, 216.0, 0.0, 0.0, 0.0, 1.6878032505927043E9, 0.0, 2023-06-26 13:14:10.592
42.0, 48054.95417773178, 54941.884272323165, 72769.83681557619, -87.55178303143776, -1936.3539739077062, -5556.420154144783, 24430.613151861806, 17014.952542180126, 0.0, 0.0, 0.0, 196.0, 0.0, 0.0, 0.0, 13.0, 135.0, 220.0, 0.0, 0.0, 0.0, 1.6878032505957115E9, 0.0, 2023-06-26 13:14:10.595
43.0, 48052.24961665268, 54963.23018827799, 71813.83035347825, -69.04453862244351, -1912.169386407064, -5437.642984109281, 24463.55962318893, 17017.45593755912, 0.0, 0.0, 0.0, 196.0, 0.0, 0.0, 0.0, 13.0, 135.0, 224.0, 0.0, 0.0, 0.0, 1.6878032505997453E9, 0.0, 2023-06-26 13:14:10.599
44.0, 47946.816438057, 54875.074908146256, 75743.80347058814, -183.9548568671771, -1996.8824978926777, -5523.965421195677, 24371.850415688805, 16891.48150580901, 0.0, 0.0, 0.0, 196.0, 0.0, 0.0, 0.0, 13.0, 135.0, 228.0, 0.0, 0.0, 0.0, 1.6878032506047468E9, 0.0, 2023-06-26 13:14:10.604
45.0, 47913.13235916285, 54819.75434061937, 77037.45538442796, -221.14815964080807, -2112.41866498216, -5590.037177805564, 24300.973034021026, 16843.46995871901, 0.0, 0.0, 0.0, 196.0, 0.0, 0.0, 0.0, 13.0, 135.0, 232.0, 0.0, 0.0, 0.0, 1.6878032506087961E9, 0.0, 2023-06-26 13:14:10.608
46.0, 48012.86584292243, 54892.129289165656, 73455.07424534253, -97.00657093603265, -2033.2711378659176, -5491.08600510192, 24393.598663043816, 16964.906986344693, 0.0, 0.0, 0.0, 196.0, 0.0, 0.0, 0.0, 13.0, 135.0, 236.0, 0.0, 0.0, 0.0, 1.6878032506118028E9, 0.0, 2023-06-26 13:14:10.611
47.0, 48054.06010795356, 54942.510121167914, 71502.80582938265, -51.23019829156379, -1919.5454620773153, -5465.537961189504, 24485.21846356612, 17034.80089125644, 0.0, 0.0, 0.0, 196.0, 0.0, 240.0, 0.0, 13.0, 135.0, 240.0, 0.0, 0.0, 0.0, 1.6878032506158104E9, 0.0, 2023-06-26 13:14:10.615
48.0, 47957.478220162186, 54864.39077429662, 75039.14237489014, -183.64193244480282, -1949.452096158516, -5641.826169708511, 24382.19927337161, 16902.992654203495, 0.0, 0.0, 0.0, 196.0, 30.0, 48.0, 0.0, 13.0, 135.0, 244.0, 0.0, 0.0, 0.0, 1.6878032506198268E9, 0.0, 2023-06-26 13:14:10.619
49.0, 47903.74462649162, 54792.66402633954, 77263.230355171, -239.5883488164364, -2009.354771298739, -5633.73483821569, 24298.603749108763, 16861.5301682389, 0.0, 0.0, 0.0, 196.0, 6.0, 192.0, 0.0, 13.0, 135.0, 248.0, 0.0, 0.0, 0.0, 1.6878032506238544E9, 0.0, 2023-06-26 13:14:10.623
50.0, 48016.91150866885, 54889.38002459765, 74213.44658296664, -97.52066105850471, -1971.4462127025383, -5459.212417508652, 24379.11473263678, 16967.946823590617, 0.0, 0.0, 0.0, 196.0, 0.0, 0.0, 0.0, 13.0, 135.0, 252.0, 0.0, 0.0, 0.0, 1.6878032506278863E9, 0.0, 2023-06-26 13:14:10.627
51.0, 48057.32346264404, 54939.716153111, 71406.84979043601, -32.633546904748314, -1925.423970869061, -5422.935536257689, 24476.143655317268, 17037.48310059108, 0.0, 0.0, 0.0, 196.0, 0.0, 0.0, 0.0, 13.0, 136.0, 0.0, 0.0, 0.0, 0.0, 1.6878032506319025E9, 0.0, 2023-06-26 13:14:10.631
52.0, 47963.96022605422, 54872.86208544518, 74305.9828050116, -175.0365108295096, -1952.8048578268122, -5624.794140433567, 24415.905704010216, 16945.863300068773, 0.0, 0.0, 0.0, 196.0, 0.0, 0.0, 0.0, 13.0, 136.0, 4.0, 0.0, 0.0, 0.0, 1.6878032506369655E9, 0.0, 2023-06-26 13:14:10.636
53.0, 47891.607629252394, 54791.74760481687, 77289.51600665045, -248.90902625429945, -2065.904684770666, -5620.256736309139, 24319.614388896753, 16846.778016898395, 0.0, 0.0, 0.0, 196.0, 0.0, 0.0, 0.0, 13.0, 136.0, 8.0, 0.0, 0.0, 0.0, 1.6878032506399212E9, 0.0, 2023-06-26 13:14:10.639
54.0, 47971.49276393566, 54846.129399076635, 74957.60321111718, -142.29120520248475, -1968.3393202232505, -5502.418339540761, 24333.852450114784, 16901.62919779172, 0.0, 0.0, 0.0, 196.0, 0.0, 0.0, 0.0, 13.0, 136.0, 12.0, 0.0, 0.0, 0.0, 1.6878032506439552E9, 0.0, 2023-06-26 13:14:10.643
55.0, 48053.30014864208, 54921.67829533557, 71514.83106789959, -44.3011575104186, -1871.9585981319665, -5467.057879812465, 24461.100931298846, 17014.50550729102, 0.0, 0.0, 0.0, 196.0, 0.0, 0.0, 0.0, 13.0, 136.0, 16.0, 0.0, 0.0, 0.0, 1.6878032506489787E9, 0.0, 2023-06-26 13:14:10.648
56.0, 47991.69874092326, 54891.995178698926, 73575.21487178981, -145.35339419286183, -1921.8029882673013, -5553.067392476487, 24422.83474479136, 16948.16552974767, 0.0, 0.0, 0.0, 196.0, 0.0, 0.0, 0.0, 13.0, 136.0, 20.0, 0.0, 0.0, 0.0, 1.6878032506529953E9, 0.0, 2023-06-26 13:14:10.652
57.0, 47904.95162069221, 54808.66787536954, 77158.28891495334, -234.55920631399232, -2056.136972443697, -5621.955468887743, 24331.505516946974, 16861.08313334979, 0.0, 0.0, 0.0, 196.0, 0.0, 240.0, 0.0, 13.0, 136.0, 24.0, 0.0, 0.0, 0.0, 1.6878032506580186E9, 0.0, 2023-06-26 13:14:10.658
58.0, 47954.30427244953, 54831.17608203603, 75676.6588302444, -182.0326068440207, -2075.0688999973418, -5585.075090536487, 24330.61144716876, 16881.780848715407, 0.0, 0.0, 0.0, 196.0, 30.0, 112.0, 0.0, 13.0, 136.0, 28.0, 0.0, 0.0, 0.0, 1.6878032506620371E9, 0.0, 2023-06-26 13:14:10.662
59.0, 48035.37404958893, 54896.465527589986, 71823.26278963838, -79.61691374980376, -1930.1848924380413, -5503.46887153016, 24437.519840898498, 17004.402518797222, 0.0, 0.0, 0.0, 196.0, 6.0, 224.0, 0.0, 13.0, 136.0, 32.0, 0.0, 0.0, 0.0, 1.6878032506660748E9, 0.0, 2023-06-26 13:14:10.666
60.0, 47989.53062171109, 54881.556914038294, 72885.97647976596, -141.86652205783392, -1901.9993426798992, -5518.958630437688, 24421.337177912854, 16968.952652091106, 0.0, 0.0, 0.0, 196.0, 0.0, 0.0, 0.0, 13.0, 136.0, 36.0, 0.0, 0.0, 0.0, 1.6878032506690793E9, 0.0, 2023-06-26 13:14:10.669
61.0, 47889.640675740324, 54784.63975008008, 76810.8310473956, -255.92747401326588, -2022.2517278494513, -5628.549233502059, 24326.252856999978, 16854.936403624582, 0.0, 0.0, 0.0, 196.0, 0.0, 0.0, 0.0, 13.0, 136.0, 40.0, 0.0, 0.0, 0.0, 1.687803250673104E9, 0.0, 2023-06-26 13:14:10.673
62.0, 47934.120647206386, 54804.71161660095, 76278.99363982602, -207.91592692326628, -2014.2050998455406, -5599.089634309964, 24295.29569092938, 16858.490330992976, 0.0, 0.0, 0.0, 196.0, 0.0, 0.0, 0.0, 13.0, 136.0, 44.0, 0.0, 0.0, 0.0, 1.687803250676112E9, 0.0, 2023-06-26 13:14:10.676
63.0, 48021.44891279327, 54878.42766981455, 72274.32099274648, -82.72380622909144, -1927.7038488035023, -5488.18027832273, 24408.10494519531, 16993.74073669204, 0.0, 0.0, 0.0, 196.0, 0.0, 0.0, 0.0, 13.0, 136.0, 48.0, 0.0, 0.0, 0.0, 1.6878032506801894E9, 0.0, 2023-06-26 13:14:10.680
64.0, 48003.14283408438, 54878.561780281285, 72271.14704503382, -122.30874565944025, -1900.591182779215, -5545.177226683763, 24446.773463102993, 16978.295681273423, 0.0, 0.0, 0.0, 196.0, 0.0, 0.0, 0.0, 13.0, 136.0, 52.0, 0.0, 0.0, 0.0, 1.6878032506841755E9, 0.0, 2023-06-26 13:14:10.684
65.0, 47900.838899712435, 54796.486174641395, 76351.7709197725, -233.17339815776327, -2025.0456959063645, -5626.805797434545, 24365.994258641513, 16884.843037705785, 0.0, 0.0, 0.0, 196.0, 0.0, 0.0, 0.0, 13.0, 136.0, 56.0, 0.0, 0.0, 0.0, 1.6878032506883311E9, 0.0, 2023-06-26 13:14:10.688
66.0, 47892.43464379724, 54760.49986606835, 76773.34717194404, -225.86437772087785, -2072.1631732181518, -5615.406407762338, 24313.087679515804, 16857.19392981457, 0.0, 0.0, 0.0, 196.0, 0.0, 0.0, 0.0, 13.0, 136.0, 60.0, 0.0, 0.0, 0.0, 1.6878032506932037E9, 0.0, 2023-06-26 13:14:10.693
67.0, 47999.6783136938, 54848.364573522165, 72883.74130532042, -100.42638783769463, -1946.1440379791306, -5492.471813258149, 24417.40327088872, 16989.292739545435, 0.0, 0.0, 0.0, 196.0, 1.0, 16.0, 0.0, 13.0, 136.0, 64.0, 0.0, 0.0, 0.0, 1.6878032506962216E9, 0.0, 2023-06-26 13:14:10.696
68.0, 47995.54324096957, 54866.78241095334, 71830.21418216398, -105.7237512736024, -1939.2820524313513, -5518.511595548582, 24473.394390749265, 17018.4170625707, 0.0, 0.0, 0.0, 196.0, 30.0, 80.0, 0.0, 13.0, 136.0, 68.0, 0.0, 0.0, 0.0, 1.6878032506992462E9, 0.0, 2023-06-26 13:14:10.699
69.0, 47858.30353001398, 54742.75258097084, 75721.36231915501, -245.6680233082799, -2022.095265638264, -5609.997285604154, 24347.777586910437, 16861.552519983354, 0.0, 0.0, 0.0, 196.0, 7.0, 32.0, 0.0, 13.0, 136.0, 72.0, 0.0, 0.0, 0.0, 1.6878032507032387E9, 0.0, 2023-06-26 13:14:10.703
70.0, 47835.482398925116, 54686.225019243364, 77136.8088885318, -269.3161689419948, -2002.001047372943, -5658.031184438609, 24276.028487208903, 16829.880098090183, 0.0, 0.0, 0.0, 196.0, 0.0, 0.0, 0.0, 13.0, 136.0, 76.0, 0.0, 0.0, 0.0, 1.6878032507082775E9, 0.0, 2023-06-26 13:14:10.708
71.0, 47936.691097818744, 54767.09363068267, 73587.28481379568, -123.69455381566928, -1963.8913230766445, -5474.1433828047975, 24362.753255695494, 16942.77875933394, 0.0, 0.0, 0.0, 196.0, 0.0, 0.0, 0.0, 13.0, 136.0, 80.0, 0.0, 0.0, 0.0, 1.6878032507133033E9, 0.0, 2023-06-26 13:14:10.713
72.0, 47948.090487490954, 54791.524087372316, 71522.4306610144, -94.3020098569405, -1930.1178372046754, -5458.1171820303425, 24444.65004737974, 17000.580370495365, 0.0, 0.0, 0.0, 196.0, 0.0, 0.0, 0.0, 13.0, 136.0, 84.0, 0.0, 0.0, 0.0, 1.6878032507163265E9, 0.0, 2023-06-26 13:14:10.716
73.0, 47873.41330926577, 54736.49409252335, 75028.19002010704, -198.7293599521351, -1954.0789072607647, -5548.150008696319, 24382.02045941597, 16909.228790906523, 0.0, 0.0, 0.0, 196.0, 0.0, 0.0, 0.0, 13.0, 136.0, 88.0, 0.0, 0.0, 0.0, 1.6878032507223723E9, 0.0, 2023-06-26 13:14:10.722
74.0, 47820.48437839561, 54676.43495517194, 77333.81716416088, -253.06645072298656, -1997.2177740595073, -5632.237271337184, 24288.05372572586, 16842.106502307237, 0.0, 0.0, 0.0, 196.0, 0.0, 0.0, 0.0, 13.0, 136.0, 92.0, 0.0, 0.0, 0.0, 1.6878032507253685E9, 0.0, 2023-06-26 13:14:10.725
75.0, 47871.80398366499, 54713.360037012106, 74326.65816863277, -154.4282024417165, -1999.609410716225, -5555.347270410928, 24318.5415051629, 16909.094680439794, 0.0, 0.0, 0.0, 196.0, 0.0, 0.0, 0.0, 13.0, 136.0, 96.0, 0.0, 0.0, 0.0, 1.687803250729398E9, 0.0, 2023-06-26 13:14:10.729
76.0, 47932.17604543878, 54773.977967974904, 71442.65728505341, -79.57221026089314, -1905.3968078371058, -5488.828478911934, 24435.239962964057, 17012.65031250123, 0.0, 0.0, 0.0, 196.0, 0.0, 0.0, 0.0, 13.0, 136.0, 100.0, 0.0, 0.0, 0.0, 1.6878032507334125E9, 0.0, 2023-06-26 13:14:10.733
77.0, 47850.45806771017, 54732.4707785214, 74286.5367873355, -193.65551396078038, -1973.4355179590605, -5607.136262313875, 24394.649195033217, 16920.87404976774, 0.0, 0.0, 0.0, 196.0, 1.0, 0.0, 0.0, 13.0, 136.0, 104.0, 0.0, 0.0, 0.0, 1.687803250737431E9, 0.0, 2023-06-26 13:14:10.737
78.0, 47769.29888359295, 54653.99380373881, 77324.92116986767, -278.4356806797601, -2128.2437000565174, -5649.7833907346, 24315.926351061626, 16849.929612866596, 0.0, 0.0, 0.0, 196.0, 30.0, 128.0, 0.0, 13.0, 136.0, 108.0, 0.0, 0.0, 0.0, 1.6878032507414465E9, 0.0, 2023-06-26 13:14:10.741
79.0, 47828.39689593278, 54670.221170213365, 75040.59523827974, -216.67781074974667, -1993.2391635464626, -5612.210108305229, 24302.202379966067, 16895.77304074443, 0.0, 0.0, 0.0, 196.0, 7.0, 32.0, 0.0, 13.0, 136.0, 112.0, 0.0, 0.0, 0.0, 1.6878032507454545E9, 0.0, 2023-06-26 13:14:10.745
80.0, 47885.79617569401, 54720.66905744899, 71557.52289980924, -122.66637357072516, -1911.4317788400388, -5471.260007770063, 24397.845494490328, 16997.071146615883, 0.0, 0.0, 0.0, 196.0, 0.0, 0.0, 0.0, 13.0, 136.0, 116.0, 0.0, 0.0, 0.0, 1.6878032507494836E9, 0.0, 2023-06-26 13:14:10.749
81.0, 47864.830239394934, 54735.041229133756, 73535.96520852628, -161.26783624504046, -1907.9225549605555, -5495.42224352625, 24382.64630826072, 16926.05965448137, 0.0, 0.0, 0.0, 196.0, 0.0, 0.0, 0.0, 13.0, 136.0, 120.0, 0.0, 0.0, 0.0, 1.6878032507535377E9, 0.0, 2023-06-26 13:14:10.753
82.0, 47799.809014774444, 54663.82857129915, 77153.6621038511, -241.5105988395928, -2004.3703322852054, -5633.488969026682, 24309.220827725036, 16838.686685405577, 0.0, 0.0, 0.0, 196.0, 0.0, 0.0, 0.0, 13.0, 136.0, 124.0, 0.0, 0.0, 0.0, 1.6878032507565265E9, 0.0, 2023-06-26 13:14:10.756
83.0, 47836.108247769866, 54665.21437945538, 75744.09404326607, -218.86828170636676, -2050.906664241155, -5632.550195759559, 24291.495894371976, 16852.455359990046, 0.0, 0.0, 0.0, 196.0, 0.0, 0.0, 0.0, 13.0, 136.0, 128.0, 0.0, 0.0, 0.0, 1.6878032507595472E9, 0.0, 2023-06-26 13:14:10.759
84.0, 47929.24796691513, 54763.11502016962, 71876.92932807557, -103.95796346163314, -1976.2071342715187, -5490.594266723903, 24413.156439442213, 16995.88650415975, 0.0, 0.0, 0.0, 196.0, 0.0, 0.0, 0.0, 13.0, 136.0, 132.0, 0.0, 0.0, 0.0, 1.6878032507635512E9, 0.0, 2023-06-26 13:14:10.763
85.0, 47900.99536192362, 54760.16458990152, 72867.69275280151, -136.30093768846245, -1938.0527064863095, -5520.009162427087, 24426.187506459657, 16962.515349687976, 0.0, 0.0, 0.0, 196.0, 0.0, 0.0, 0.0, 13.0, 136.0, 136.0, 0.0, 0.0, 0.0, 1.6878032507685804E9, 0.0, 2023-06-26 13:14:10.768
86.0, 47838.11990477084, 54696.4621182039, 76844.38101582302, -220.8799387073444, -1976.2518377604292, -5611.316038527017, 24339.61920018425, 16871.56610149933, 0.0, 0.0, 0.0, 196.0, 0.0, 0.0, 0.0, 13.0, 136.0, 140.0, 0.0, 0.0, 0.0, 1.6878032507726047E9, 0.0, 2023-06-26 13:14:10.772
87.0, 47831.146160500786, 54680.59237964063, 76393.79219934848, -217.7283427391461, -2113.022162082453, -5603.895259367855, 24305.421031167632, 16863.273604306414, 0.0, 0.0, 0.0, 196.0, 0.0, 224.0, 0.0, 13.0, 136.0, 144.0, 0.0, 0.0, 0.0, 1.6878032507766373E9, 0.0, 2023-06-26 13:14:10.776
88.0, 47859.443468981204, 54686.20266749891, 72384.96212780025, -193.16377558276363, -1950.614386870192, -5597.636770920369, 24341.407339740676, 16935.268573196958, 0.0, 0.0, 0.0, 196.0, 30.0, 0.0, 0.0, 13.0, 136.0, 148.0, 0.0, 0.0, 0.0, 1.6878032507796404E9, 0.0, 2023-06-26 13:14:10.779
89.0, 47873.05568135449, 54734.50478726683, 72283.03817308405, -194.46017676117145, -1889.8176419517567, -5587.958465571221, 24369.72699996555, 16946.06446576887, 0.0, 0.0, 0.0, 196.0, 7.0, 144.0, 0.0, 13.0, 136.0, 152.0, 0.0, 0.0, 0.0, 1.687803250783663E9, 0.0, 2023-06-26 13:14:10.783
90.0, 47782.53111631049, 54664.409716654984, 76322.80305895842, -309.61636419491344, -2023.6375360056802, -5635.187701605285, 24275.357934875243, 16817.608990384222, 0.0, 0.0, 0.0, 196.0, 0.0, 0.0, 0.0, 13.0, 136.0, 156.0, 0.0, 0.0, 0.0, 1.6878032507876844E9, 0.0, 2023-06-26 13:14:10.787
91.0, 47854.16845728975, 54704.30758050771, 76852.3382368491, -257.35798565840554, -2020.8882714376775, -5603.15765180083, 24288.076077470312, 16834.506909192434, 0.0, 0.0, 0.0, 196.0, 0.0, 0.0, 0.0, 13.0, 136.0, 160.0, 0.0, 0.0, 0.0, 1.6878032507916827E9, 0.0, 2023-06-26 13:14:10.791
92.0, 47935.90878676281, 54774.49205809737, 73017.65060635217, -74.78893694745743, -1946.971052523977, -5448.707097614658, 24392.101096165312, 16980.530855718953, 0.0, 0.0, 0.0, 196.0, 0.0, 0.0, 0.0, 13.0, 136.0, 164.0, 0.0, 0.0, 0.0, 1.6878032507957056E9, 0.0, 2023-06-26 13:14:10.795
93.0, 47940.87087403189, 54798.453128153466, 71871.31904021729, -112.80925426593474, -1909.3754183501505, -5504.877031430845, 24421.471288379587, 16987.862227900296, 0.0, 0.0, 0.0, 196.0, 0.0, 0.0, 0.0, 13.0, 136.0, 168.0, 0.0, 0.0, 0.0, 1.6878032508007371E9, 0.0, 2023-06-26 13:14:10.800
94.0, 47897.128510132854, 54776.481363353894, 75764.8364621206, -189.52044123654858, -1929.8943197601225, -5607.650352436346, 24388.77068624147, 16913.29680839739, 0.0, 0.0, 0.0, 196.0, 0.0, 0.0, 0.0, 13.0, 136.0, 172.0, 0.0, 0.0, 0.0, 1.6878032508047435E9, 0.0, 2023-06-26 13:14:10.804
95.0, 47849.251073509586, 54714.3658655126, 77201.15956081862, -246.67385180876875, -2100.1922607651068, -5641.40148656386, 24319.592037152295, 16856.38926701418, 0.0, 0.0, 0.0, 196.0, 0.0, 0.0, 0.0, 13.0, 136.0, 176.0, 0.0, 0.0, 0.0, 1.687803250808778E9, 0.0, 2023-06-26 13:14:10.808
96.0, 47926.856330258415, 54757.88471196708, 73696.92012034895, -174.03068232902078, -2042.1447804146744, -5538.292889391529, 24353.276116046443, 16932.094625484304, 0.0, 0.0, 0.0, 196.0, 0.0, 0.0, 0.0, 13.0, 136.0, 180.0, 0.0, 0.0, 0.0, 1.6878032508128045E9, 0.0, 2023-06-26 13:14:10.812
97.0, 47977.14775528285, 54829.52205294634, 71626.14275528703, -78.4769747825831, -1794.6439140610594, -5423.78490254699, 24421.24777093503, 16991.50556224651, 0.0, 0.0, 0.0, 196.0, 0.0, 240.0, 0.0, 13.0, 136.0, 184.0, 0.0, 0.0, 0.0, 1.6878032508168247E9, 0.0, 2023-06-26 13:14:10.816
98.0, 47885.729120460644, 54766.3783748601, 75041.01992142439, -234.93918596973253, -1919.0313719548433, -5599.134337798874, 24336.19938328259, 16876.86346493524, 0.0, 0.0, 0.0, 196.0, 29.0, 176.0, 0.0, 13.0, 136.0, 188.0, 0.0, 0.0, 0.0, 1.6878032508218455E9, 0.0, 2023-06-26 13:14:10.821
99.0, 47827.94986104368, 54690.851830345615, 77337.81812641837, -329.21884408221774, -2087.451766425582, -5714.357580465982, 24254.637867765174, 16810.210562969514, 0.0, 0.0, 0.0, 196.0, 7.0, 192.0, 0.0, 13.0, 136.0, 192.0, 0.0, 0.0, 0.0, 1.6878032508258495E9, 0.0, 2023-06-26 13:14:10.825
100.0, 47968.49763017865, 54814.68049462802, 74439.15449847633, -189.00635111407652, -1980.3645587402057, -5584.516296925103, 24345.58711595382, 16924.472680625044, 0.0, 0.0, 0.0, 196.0, 0.0, 0.0, 0.0, 13.0, 136.0, 196.0, 0.0, 0.0, 0.0, 1.6878032508298516E9, 0.0, 2023-06-26 13:14:10.829
101.0, 48036.379878089414, 54882.98742568344, 71559.60161204358, -18.395485686717713, -1887.2248395949412, -5437.128893986809, 24454.79773936245, 17039.628868058786, 0.0, 0.0, 0.0, 196.0, 0.0, 0.0, 0.0, 13.0, 136.0, 200.0, 0.0, 0.0, 0.0, 1.6878032508339014E9, 0.0, 2023-06-26 13:14:10.833
102.0, 47938.36747865289, 54818.860270841156, 74300.64073808679, -170.14147879379735, -1913.2869736298292, -5538.203482413707, 24387.183712385144, 16922.461023624066, 0.0, 0.0, 0.0, 196.0, 0.0, 0.0, 0.0, 13.0, 136.0, 204.0, 0.0, 0.0, 0.0, 1.6878032508369167E9, 0.0, 2023-06-26 13:14:10.836
103.0, 47851.10626829938, 54732.42607503248, 77358.62760050627, -273.115965499397, -2055.734641043501, -5621.620192720913, 24276.877853498205, 16823.33103696478, 0.0, 0.0, 0.0, 196.0, 0.0, 0.0, 0.0, 13.0, 136.0, 208.0, 0.0, 0.0, 0.0, 1.6878032508409383E9, 0.0, 2023-06-26 13:14:10.840
104.0, 47884.92445766026, 54741.23266234787, 75146.60956223126, -241.5329505840481, -2088.0999670147858, -5628.884509668888, 24262.215109135523, 16846.66625817612, 0.0, 0.0, 0.0, 196.0, 0.0, 0.0, 0.0, 13.0, 136.0, 212.0, 0.0, 0.0, 0.0, 1.6878032508439405E9, 0.0, 2023-06-26 13:14:10.843
105.0, 48012.46351152224, 54860.21099808348, 71688.77234325079, -84.91427718571153, -1912.5046625738935, -5503.647685485803, 24415.861000521305, 17003.55315250792, 0.0, 0.0, 0.0, 196.0, 0.0, 0.0, 0.0, 13.0, 136.0, 216.0, 0.0, 0.0, 0.0, 1.6878032508509572E9, 0.0, 2023-06-26 13:14:10.850
106.0, 47963.4237841873, 54835.26645127135, 73579.17113055839, -187.732301680124, -1912.9516974629996, -5534.582499811948, 24378.1536076252, 16936.2967534419, 0.0, 0.0, 0.0, 196.0, 0.0, 0.0, 0.0, 13.0, 136.0, 220.0, 0.0, 0.0, 0.0, 1.687803250854015E9, 0.0, 2023-06-26 13:14:10.854
107.0, 47855.688375912716, 54733.61071748862, 77176.72910412897, -321.887471900877, -2076.0747284978306, -5690.731786576723, 24273.390981363176, 16809.629417613676, 0.0, 0.0, 0.0, 196.0, 1.0, 80.0, 0.0, 13.0, 136.0, 224.0, 0.0, 0.0, 0.0, 1.6878032508590248E9, 0.0, 2023-06-26 13:14:10.859
108.0, 47888.47838502865, 54734.5718425002, 75833.21044840937, -277.34044520145005, -2104.193223022607, -5655.147809403874, 24240.6233239917, 16815.75379559443, 0.0, 0.0, 0.0, 196.0, 29.0, 144.0, 0.0, 13.0, 136.0, 228.0, 0.0, 0.0, 0.0, 1.6878032508620336E9, 0.0, 2023-06-26 13:14:10.862
109.0, 47992.63751419038, 54826.10223604468, 71973.66767807814, -137.0608969999429, -1919.1207789326645, -5498.082101116432, 24346.592944454307, 16941.951744789094, 0.0, 0.0, 0.0, 196.0, 7.0, 160.0, 0.0, 13.0, 136.0, 232.0, 0.0, 0.0, 0.0, 1.6878032508660412E9, 0.0, 2023-06-26 13:14:10.866
110.0, 47987.0272263321, 54865.061326630275, 72874.24181392691, -166.475792703127, -1861.7438509158912, -5531.81088349949, 24398.27017763498, 16932.16168071767, 0.0, 0.0, 0.0, 196.0, 0.0, 0.0, 0.0, 13.0, 136.0, 236.0, 0.0, 0.0, 0.0, 1.6878032508690677E9, 0.0, 2023-06-26 13:14:10.869
111.0, 47920.48608308865, 54794.541572873786, 76845.99034142379, -209.63701124632493, -1911.655296284592, -5638.048724895564, 24341.183822296123, 16859.09382809327, 0.0, 0.0, 0.0, 196.0, 0.0, 0.0, 0.0, 13.0, 136.0, 240.0, 0.0, 0.0, 0.0, 1.6878032508720853E9, 0.0, 2023-06-26 13:14:10.872
112.0, 47962.6191213869, 54803.6387328671, 76484.16030218129, -192.87320290484465, -1981.4374424740604, -5558.409459401305, 24325.269380243946, 16892.82261047633, 0.0, 0.0, 0.0, 196.0, 0.0, 0.0, 0.0, 13.0, 136.0, 244.0, 0.0, 0.0, 0.0, 1.6878032508761075E9, 0.0, 2023-06-26 13:14:10.876
113.0, 48060.51976210115, 54891.48108857645, 72491.5575971076, -59.74621292903578, -1912.3482003627064, -5451.612824393848, 24438.45861416562, 17016.763033481006, 0.0, 0.0, 0.0, 196.0, 0.0, 0.0, 0.0, 13.0, 136.0, 248.0, 0.0, 0.0, 0.0, 1.687803250880129E9, 0.0, 2023-06-26 13:14:10.880
114.0, 48034.25646236616, 54879.880533204145, 72303.40061228283, -92.69268425615839, -1924.7534185354018, -5486.794470166501, 24434.83763156386, 16990.075050601372, 0.0, 0.0, 0.0, 196.0, 0.0, 0.0, 0.0, 13.0, 136.0, 252.0, 0.0, 0.0, 0.0, 1.6878032508841865E9, 0.0, 2023-06-26 13:14:10.884
115.0, 47872.98862612112, 54734.3706768001, 76323.56301826991, -338.9418529202763, -2087.5635251478584, -5729.042676573119, 24286.980841992005, 16826.929667822085, 0.0, 0.0, 0.0, 196.0, 0.0, 0.0, 0.0, 13.0, 137.0, 0.0, 0.0, 0.0, 0.0, 1.6878032508881953E9, 0.0, 2023-06-26 13:14:10.888
116.0, 47922.944774978736, 54758.42115383401, 76965.5721742597, -256.19569494672953, -2048.805600262356, -5666.50249558717, 24263.60091729175, 16832.271734746904, 0.0, 0.0, 0.0, 196.0, 0.0, 0.0, 0.0, 13.0, 137.0, 4.0, 0.0, 0.0, 0.0, 1.6878032508931763E9, 0.0, 2023-06-26 13:14:10.893
117.0, 48047.93572997281, 54873.33147207874, 73149.90587829422, -80.62274225029257, -1896.165537377064, -5403.780091259491, 24397.621977045772, 16982.4084022532, 0.0, 0.0, 0.0, 196.0, 1.0, 16.0, 0.0, 13.0, 137.0, 8.0, 0.0, 0.0, 0.0, 1.6878032508972E9, 0.0, 2023-06-26 13:14:10.897
118.0, 48093.22036423926, 54947.02517354789, 71919.59880824076, -16.629697874748455, -1817.1297689830983, -5380.556628770427, 24483.855007154347, 17047.407275129233, 0.0, 0.0, 0.0, 196.0, 29.0, 208.0, 0.0, 13.0, 137.0, 12.0, 0.0, 0.0, 0.0, 1.6878032509012344E9, 0.0, 2023-06-26 13:14:10.901
119.0, 47966.485973177674, 54846.554082221286, 75707.39247887046, -204.58551699942555, -1925.871005758167, -5620.547308987058, 24360.316915549865, 16899.05874717936, 0.0, 0.0, 0.0, 196.0, 7.0, 80.0, 0.0, 13.0, 137.0, 16.0, 0.0, 0.0, 0.0, 1.6878032509052484E9, 0.0, 2023-06-26 13:14:10.905
120.0, 47923.23534765665, 54762.19859864695, 77217.20811333753, -337.22076859721767, -2039.0155361909315, -5740.5761767120575, 24257.65535326664, 16812.17751648158, 0.0, 0.0, 0.0, 196.0, 0.0, 0.0, 0.0, 13.0, 137.0, 20.0, 0.0, 0.0, 0.0, 1.6878032509092703E9, 0.0, 2023-06-26 13:14:10.909
121.0, 48057.47992485523, 54876.41601281357, 73802.6215198781, -104.02501869499908, -1883.1791738485306, -5433.686725340692, 24367.223604586557, 16951.54064316042, 0.0, 0.0, 0.0, 196.0, 0.0, 0.0, 0.0, 13.0, 137.0, 24.0, 0.0, 0.0, 0.0, 1.6878032509132812E9, 0.0, 2023-06-26 13:14:10.913
122.0, 48105.06678880058, 54948.43333344857, 71625.67336865347, -50.17966630216436, -1800.4777193638945, -5410.887945996278, 24438.45861416562, 17013.767899723996, 0.0, 0.0, 0.0, 196.0, 0.0, 0.0, 0.0, 13.0, 137.0, 28.0, 0.0, 0.0, 0.0, 1.687803250917292E9, 0.0, 2023-06-26 13:14:10.917
123.0, 48025.38281981741, 54889.98352169795, 75007.4028977636, -175.3717869963392, -1914.359857363684, -5595.468651708205, 24368.363543553776, 16898.388194845702, 0.0, 0.0, 0.0, 196.0, 0.0, 0.0, 0.0, 13.0, 137.0, 32.0, 0.0, 0.0, 0.0, 1.6878032509203331E9, 0.0, 2023-06-26 13:14:10.920
124.0, 47945.83296130097, 54804.376340434115, 77421.14542974776, -225.9537846986991, -2065.927036515121, -5623.967125888721, 24306.605673623762, 16848.52145296591, 0.0, 0.0, 0.0, 196.0, 0.0, 0.0, 0.0, 13.0, 137.0, 36.0, 0.0, 0.0, 0.0, 1.6878032509233308E9, 0.0, 2023-06-26 13:14:10.923
125.0, 48039.956157202265, 54867.56472200927, 74517.22914185871, -120.63236482529221, -1990.7357681674682, -5525.217118885174, 24349.901002633695, 16906.457174594067, 0.0, 0.0, 0.0, 196.0, 0.0, 0.0, 0.0, 13.0, 137.0, 40.0, 0.0, 0.0, 0.0, 1.6878032509273543E9, 0.0, 2023-06-26 13:14:10.927
126.0, 48092.54981190561, 54913.497556864924, 71531.0807861186, -61.087317596354204, -1838.229815748908, -5422.823777535413, 24432.937733285158, 17002.54732400743, 0.0, 0.0, 0.0, 196.0, 0.0, 0.0, 0.0, 13.0, 137.0, 44.0, 0.0, 0.0, 0.0, 1.687803250932377E9, 0.0, 2023-06-26 13:14:10.932
127.0, 48018.721999969726, 54879.27703610385, 74238.94992339014, -178.63514168681405, -1869.1869818195084, -5567.305453694517, 24369.145854609713, 16900.936293713607, 0.0, 0.0, 0.0, 196.0, 0.0, 224.0, 0.0, 13.0, 137.0, 48.0, 0.0, 0.0, 0.0, 1.6878032509363856E9, 0.0, 2023-06-26 13:14:10.936
128.0, 47966.24010398866, 54816.15570976207, 77407.30969992992, -245.2656919080844, -1991.3839687566722, -5636.461751039237, 24276.296708142367, 16814.747967093943, 0.0, 0.0, 0.0, 196.0, 29.0, 192.0, 0.0, 13.0, 137.0, 52.0, 0.0, 0.0, 0.0, 1.6878032509434345E9, 0.0, 2023-06-26 13:14:10.943
129.0, 48045.56644506055, 54869.37521331015, 75286.50913077702, -149.91315006174446, -1996.3907595146609, -5513.638915257325, 24336.981694338527, 16905.317235626844, 0.0, 0.0, 0.0, 196.0, 7.0, 48.0, 0.0, 13.0, 137.0, 56.0, 0.0, 0.0, 0.0, 1.6878032509464529E9, 0.0, 2023-06-26 13:14:10.946
130.0, 48115.95208835031, 54946.645193892145, 71664.63245923906, -59.99208211804416, -1814.4699113929166, -5445.868426068834, 24452.11553002781, 17026.620152785796, 0.0, 0.0, 0.0, 196.0, 0.0, 0.0, 0.0, 13.0, 137.0, 60.0, 0.0, 0.0, 0.0, 1.68780325094947E9, 0.0, 2023-06-26 13:14:10.949
131.0, 48052.24961665268, 54907.01555097289, 73441.32792250252, -164.26297000205162, -1900.0547409122876, -5619.340314786472, 24393.710421766096, 16928.96538126056, 0.0, 0.0, 0.0, 196.0, 0.0, 0.0, 0.0, 13.0, 137.0, 64.0, 0.0, 0.0, 0.0, 1.6878032509524736E9, 0.0, 2023-06-26 13:14:10.952
132.0, 47972.25272324714, 54825.90107034458, 77194.07405782629, -237.24141564862916, -1995.809614158823, -5627.431646279293, 24303.923464289128, 16836.138586537672, 0.0, 0.0, 0.0, 196.0, 0.0, 0.0, 0.0, 13.0, 137.0, 68.0, 0.0, 0.0, 0.0, 1.6878032509564922E9, 0.0, 2023-06-26 13:14:10.956
133.0, 48058.41869812235, 54892.15164091011, 75966.80682501875, -145.06282151494284, -1972.6308551586694, -5498.462080772171, 24334.5453541929, 16889.514552296943, 0.0, 0.0, 0.0, 196.0, 0.0, 0.0, 0.0, 13.0, 137.0, 72.0, 0.0, 0.0, 0.0, 1.6878032509595068E9, 0.0, 2023-06-26 13:14:10.959
134.0, 48118.43313198485, 54939.0679525218, 72008.53639942843, -29.861930592290236, -1855.4406589794946, -5422.063818223932, 24437.02810252048, 17006.525934520476, 0.0, 0.0, 0.0, 196.0, 0.0, 0.0, 0.0, 13.0, 137.0, 76.0, 0.0, 0.0, 0.0, 1.6878032509645295E9, 0.0, 2023-06-26 13:14:10.964
135.0, 48086.246619969206, 54927.60150761623, 72784.65602215004, -81.40505330622833, -1838.6992023824696, -5481.452403241683, 24428.0650529939, 16968.237396268534, 0.0, 0.0, 0.0, 196.0, 0.0, 0.0, 0.0, 13.0, 137.0, 80.0, 0.0, 0.0, 0.0, 1.687803250968539E9, 0.0, 2023-06-26 13:14:10.968
136.0, 47990.78231940059, 54840.2955937738, 76827.21487608134, -237.50963658209284, -1950.904959548111, -5607.225669291695, 24313.75823184946, 16850.44370298907, 0.0, 0.0, 0.0, 196.0, 0.0, 0.0, 0.0, 13.0, 137.0, 84.0, 0.0, 0.0, 0.0, 1.6878032509725857E9, 0.0, 2023-06-26 13:14:10.972
137.0, 48024.42169480583, 54846.93406187702, 76548.6674366793, -178.29986551998445, -2022.229376104996, -5597.525012198093, 24316.99923479548, 16875.589415501287, 0.0, 0.0, 0.0, 196.0, 0.0, 208.0, 0.0, 13.0, 137.0, 88.0, 0.0, 0.0, 0.0, 1.687803250976581E9, 0.0, 2023-06-26 13:14:10.976
138.0, 48122.97053610928, 54931.08837975126, 72510.10954500551, -28.38671545823997, -1817.554452127749, -5431.049219494966, 24403.813410259892, 17000.803887939917, 0.0, 0.0, 0.0, 196.0, 30.0, 0.0, 0.0, 13.0, 137.0, 92.0, 0.0, 0.0, 0.0, 1.6878032509806025E9, 0.0, 2023-06-26 13:14:10.980
139.0, 48116.06384707259, 54946.30991772532, 72204.71766051264, -55.49938148252744, -1794.2192309164086, -5440.548710888471, 24434.79292807495, 16994.433640770156, 0.0, 0.0, 0.0, 196.0, 7.0, 48.0, 0.0, 13.0, 137.0, 96.0, 0.0, 0.0, 0.0, 1.6878032509856272E9, 0.0, 2023-06-26 13:14:10.985
140.0, 47993.71039792424, 54844.83299789822, 76310.35313729681, -210.03934264652048, -1956.2023229840188, -5612.746550172156, 24323.86122034326, 16864.927633396106, 0.0, 0.0, 0.0, 196.0, 0.0, 0.0, 0.0, 13.0, 137.0, 100.0, 0.0, 0.0, 0.0, 1.687803250989616E9, 0.0, 2023-06-26 13:14:10.989
141.0, 47983.56270594153, 54816.37922720662, 77026.63714011159, -226.04319167652034, -2051.5995683192696, -5641.066210397031, 24270.75347551745, 16817.98897003996, 0.0, 0.0, 0.0, 196.0, 0.0, 0.0, 0.0, 13.0, 137.0, 104.0, 0.0, 0.0, 0.0, 1.6878032509936757E9, 0.0, 2023-06-26 13:14:10.993
142.0, 48103.72568413326, 54916.98442899995, 73127.46472686109, -67.59167523284856, -1922.875872001156, -5503.223002341152, 24405.333328882854, 16968.505617201998, 0.0, 0.0, 0.0, 196.0, 0.0, 0.0, 0.0, 13.0, 137.0, 108.0, 0.0, 0.0, 0.0, 1.6878032509976988E9, 0.0, 2023-06-26 13:14:10.997
143.0, 48142.014222385194, 54965.86769412371, 71755.58170742771, -39.49553245252758, -1825.9587080429446, -5460.46411519815, 24474.243757038566, 17032.27514413299, 0.0, 0.0, 0.0, 196.0, 0.0, 0.0, 0.0, 13.0, 137.0, 112.0, 0.0, 0.0, 0.0, 1.6878032510007021E9, 0.0, 2023-06-26 13:14:11.000
144.0, 48007.6802382088, 54849.884492145124, 75643.57824845055, -193.700217449691, -1913.0411044408208, -5545.71366855069, 24323.57064766534, 16865.01704037393, 0.0, 0.0, 0.0, 196.0, 0.0, 0.0, 0.0, 13.0, 137.0, 116.0, 0.0, 0.0, 0.0, 1.6878032510037105E9, 0.0, 2023-06-26 13:14:11.003
145.0, 47969.03407204558, 54799.59306712068, 77345.17185034417, -241.86822675087774, -1979.9622273400103, -5608.0973873254525, 24245.2724868384, 16808.534182135365, 0.0, 0.0, 0.0, 196.0, 0.0, 0.0, 0.0, 13.0, 137.0, 120.0, 0.0, 0.0, 0.0, 1.68780325100774E9, 0.0, 2023-06-26 13:14:11.007
146.0, 48069.19223894981, 54886.250780373906, 73854.72343620342, -103.86855648381191, -1940.9584332654995, -5508.56506926597, 24342.502575218987, 16930.97703826154, 0.0, 0.0, 0.0, 196.0, 0.0, 0.0, 0.0, 13.0, 137.0, 124.0, 0.0, 0.0, 0.0, 1.6878032510117621E9, 0.0, 2023-06-26 13:14:11.011
147.0, 48134.95107113732, 54952.791923617355, 71515.99335861127, -43.049459820921406, -1847.2822722533076, -5464.50978094456, 24448.40514044823, 17020.22755387158, 0.0, 0.0, 0.0, 196.0, 0.0, 224.0, 0.0, 13.0, 137.0, 128.0, 0.0, 0.0, 0.0, 1.6878032510157812E9, 0.0, 2023-06-26 13:14:11.015
148.0, 48030.16609313084, 54870.49280053292, 74912.6315012731, -208.47472053464898, -1918.941964977022, -5595.781576130578, 24354.885441647228, 16879.34450856978, 0.0, 0.0, 0.0, 196.0, 29.0, 224.0, 0.0, 13.0, 137.0, 132.0, 0.0, 0.0, 0.0, 1.687803251019797E9, 0.0, 2023-06-26 13:14:11.019
149.0, 47963.0214527871, 54793.46868913993, 77462.20558431216, -266.67866309626856, -2029.9630796865322, -5686.50730687467, 24273.502740085452, 16812.356330437226, 0.0, 0.0, 0.0, 196.0, 7.0, 48.0, 0.0, 13.0, 137.0, 136.0, 0.0, 0.0, 0.0, 1.6878032510238163E9, 0.0, 2023-06-26 13:14:11.023
150.0, 48043.6888985263, 54847.85048339969, 74583.61382289098, -132.50114113106028, -1990.5793059562811, -5542.606776071403, 24309.600807380775, 16890.788601730896, 0.0, 0.0, 0.0, 196.0, 0.0, 0.0, 0.0, 13.0, 137.0, 140.0, 0.0, 0.0, 0.0, 1.6878032510278225E9, 0.0, 2023-06-26 13:14:11.027
151.0, 48110.922945847866, 54917.6102778447, 71456.20244219333, -46.42457323367277, -1856.334728757707, -5428.814045049435, 24407.412041117197, 16980.642614441233, 0.0, 0.0, 0.0, 196.0, 0.0, 0.0, 0.0, 13.0, 137.0, 144.0, 0.0, 0.0, 0.0, 1.6878032510308337E9, 0.0, 2023-06-26 13:14:11.030
152.0, 48049.969738718246, 54891.92812346556, 74128.48760229202, -137.79850456696803, -1891.2705053413517, -5555.056697733009, 24369.525834265452, 16907.77592751693, 0.0, 0.0, 0.0, 196.0, 0.0, 0.0, 0.0, 13.0, 137.0, 148.0, 0.0, 0.0, 0.0, 1.687803251035844E9, 0.0, 2023-06-26 13:14:11.035
153.0, 47974.84552560396, 54813.07116902724, 77419.91608380272, -241.33178488395035, -2040.803675747356, -5672.358652634461, 24282.80106577886, 16822.772243353396, 0.0, 0.0, 0.0, 196.0, 0.0, 0.0, 0.0, 13.0, 137.0, 152.0, 0.0, 0.0, 0.0, 1.6878032510398824E9, 0.0, 2023-06-26 13:14:11.039
154.0, 48034.435276321805, 54849.90684388958, 75342.09791923738, -171.63904567230293, -2038.4120390906382, -5571.887561307855, 24310.874856814728, 16881.847903948772, 0.0, 0.0, 0.0, 196.0, 0.0, 0.0, 0.0, 13.0, 137.0, 156.0, 0.0, 0.0, 0.0, 1.6878032510438807E9, 0.0, 2023-06-26 13:14:11.043
155.0, 48137.67798396087, 54949.103885782235, 71664.27483132778, -35.85219810631253, -1823.947051041967, -5468.443687968694, 24441.20787873362, 17018.55117303743, 0.0, 0.0, 0.0, 196.0, 0.0, 0.0, 0.0, 13.0, 137.0, 160.0, 0.0, 0.0, 0.0, 1.6878032510479112E9, 0.0, 2023-06-26 13:14:11.047
156.0, 48075.60718960848, 54912.49172836444, 73390.16477944431, -102.79567274995718, -1829.780856344802, -5529.352191609406, 24384.2556338615, 16930.95468651708, 0.0, 0.0, 0.0, 196.0, 0.0, 0.0, 0.0, 13.0, 137.0, 164.0, 0.0, 0.0, 0.0, 1.687803251051926E9, 0.0, 2023-06-26 13:14:11.051
157.0, 47975.31491223752, 54815.574564406226, 77196.93508111658, -225.17147364276335, -1982.9797128414766, -5628.057495124041, 24277.883681998694, 16811.596371125743, 0.0, 0.0, 0.0, 196.0, 0.0, 240.0, 0.0, 13.0, 137.0, 168.0, 0.0, 0.0, 0.0, 1.6878032510700223E9, 0.0, 2023-06-26 13:14:11.070
158.0, 48034.569386788535, 54842.66487868606, 76048.30128530279, -180.6467986877917, -1993.194460057552, -5593.859326107422, 24297.77673456392, 16863.832397917795, 0.0, 0.0, 0.0, 196.0, 30.0, 16.0, 0.0, 13.0, 137.0, 172.0, 0.0, 0.0, 0.0, 1.687803251073032E9, 0.0, 2023-06-26 13:14:11.073
159.0, 48125.83155939956, 54917.74438831144, 72016.8512483658, -56.30404428291849, -1909.1071974166869, -5453.803295350468, 24415.838648776848, 17010.057510144416, 0.0, 0.0, 0.0, 196.0, 7.0, 96.0, 0.0, 13.0, 137.0, 176.0, 0.0, 0.0, 0.0, 1.6878032510760524E9, 0.0, 2023-06-26 13:14:11.076
160.0, 48101.04347479862, 54933.18944373005, 72699.3617653086, -76.21944859259709, -1896.6349240106256, -5492.158888835775, 24413.44701212013, 16968.125637546258, 0.0, 0.0, 0.0, 196.0, 0.0, 0.0, 0.0, 13.0, 137.0, 180.0, 0.0, 0.0, 0.0, 1.687803251080073E9, 0.0, 2023-06-26 13:14:11.080
161.0, 47983.09331930796, 54820.64841039758, 76819.16824807743, -214.8896711933221, -1979.068157561798, -5618.960335130731, 24290.735935060497, 16832.607010913733, 0.0, 0.0, 0.0, 196.0, 0.0, 0.0, 0.0, 13.0, 137.0, 184.0, 0.0, 0.0, 0.0, 1.687803251083086E9, 0.0, 2023-06-26 13:14:11.083
162.0, 48016.44212203528, 54828.89620410159, 76650.07730127304, -184.69246443420226, -2004.2809253073842, -5584.717462625202, 24254.391998576164, 16837.837319116275, 0.0, 0.0, 0.0, 196.0, 0.0, 0.0, 0.0, 13.0, 137.0, 188.0, 0.0, 0.0, 0.0, 1.6878032510861056E9, 0.0, 2023-06-26 13:14:11.086
163.0, 48131.888882146945, 54931.557766384816, 72545.47000473381, -39.294366752429816, -1936.5774913522591, -5451.188141249197, 24376.85720644679, 16985.82821915486, 0.0, 0.0, 0.0, 196.0, 0.0, 0.0, 0.0, 13.0, 137.0, 192.0, 0.0, 0.0, 0.0, 1.6878032510891187E9, 0.0, 2023-06-26 13:14:11.089
164.0, 48123.149350064916, 54946.19815900304, 72113.50019139054, -63.94834088663351, -1859.9333596150113, -5496.830403426934, 24433.36241642981, 17007.822335698886, 0.0, 0.0, 0.0, 196.0, 0.0, 0.0, 0.0, 13.0, 137.0, 196.0, 0.0, 0.0, 0.0, 1.687803251093201E9, 0.0, 2023-06-26 13:14:11.093
165.0, 48016.79974994657, 54855.494780003406, 76255.68077035913, -180.57974345442577, -1997.8883263931664, -5594.775747630089, 24317.692138873594, 16847.917955865618, 0.0, 0.0, 0.0, 196.0, 0.0, 0.0, 0.0, 13.0, 137.0, 200.0, 0.0, 0.0, 0.0, 1.687803251096181E9, 0.0, 2023-06-26 13:14:11.096
166.0, 47990.51409846712, 54812.5347271603, 77076.07919884672, -199.51167100807083, -2002.5374892398704, -5576.022634032087, 24264.874966725703, 16814.211525227016, 0.0, 0.0, 0.0, 196.0, 0.0, 0.0, 0.0, 13.0, 137.0, 204.0, 0.0, 0.0, 0.0, 1.687803251099203E9, 0.0, 2023-06-26 13:14:11.099
167.0, 48087.498317658705, 54883.85914371719, 73162.69107612266, -99.33115235938459, -1918.8302062547455, -5474.232789782619, 24340.33445600682, 16941.661172111177, 0.0, 0.0, 0.0, 196.0, 1.0, 112.0, 0.0, 13.0, 137.0, 208.0, 0.0, 0.0, 0.0, 1.687803251102183E9, 0.0, 2023-06-26 13:14:11.102
168.0, 48139.98021363976, 54950.37793521619, 71688.39236359506, -43.51884645448285, -1786.8431552461573, -5465.917940845245, 24411.435355119153, 16989.60566396781, 0.0, 0.0, 0.0, 196.0, 30.0, 48.0, 0.0, 13.0, 137.0, 212.0, 0.0, 0.0, 0.0, 1.6878032511062062E9, 0.0, 2023-06-26 13:14:11.106
169.0, 48040.33613685801, 54879.76877448187, 75610.05063176759, -164.41943221323876, -1883.5591535042709, -5594.842802863455, 24315.322853961334, 16858.959717626538, 0.0, 0.0, 0.0, 196.0, 7.0, 96.0, 0.0, 13.0, 137.0, 216.0, 0.0, 0.0, 0.0, 1.6878032511092033E9, 0.0, 2023-06-26 13:14:11.109
170.0, 47977.70654889424, 54796.955561274954, 77382.43220835117, -228.4571800776935, -2020.7318092264902, -5654.633719281402, 24244.579582760285, 16804.80144081133, 0.0, 0.0, 0.0, 196.0, 0.0, 0.0, 0.0, 13.0, 137.0, 220.0, 0.0, 0.0, 0.0, 1.6878032511122184E9, 0.0, 2023-06-26 13:14:11.112
171.0, 48091.14165200492, 54888.08362341925, 73922.76214632537, -113.2786408994962, -1983.3596924972169, -5556.24134018914, 24361.68037196164, 16939.850680810294, 0.0, 0.0, 0.0, 196.0, 0.0, 0.0, 0.0, 13.0, 137.0, 224.0, 0.0, 0.0, 0.0, 1.68780325111523E9, 0.0, 2023-06-26 13:14:11.115
172.0, 48129.38548676795, 54935.737542597955, 71456.29184917115, -36.03101206195498, -1847.7293071424137, -5481.98884510861, 24441.36434094481, 17000.110983861803, 0.0, 0.0, 0.0, 196.0, 0.0, 0.0, 0.0, 13.0, 137.0, 228.0, 0.0, 0.0, 0.0, 1.6878032511192443E9, 0.0, 2023-06-26 13:14:11.119
173.0, 48034.61409027745, 54867.20709409799, 74822.62102635158, -164.79941186897898, -1876.652464467581, -5575.240322976151, 24342.1449473077, 16866.04522061887, 0.0, 0.0, 0.0, 196.0, 0.0, 0.0, 0.0, 13.0, 137.0, 232.0, 0.0, 0.0, 0.0, 1.6878032511222742E9, 0.0, 2023-06-26 13:14:11.122
174.0, 47969.704624379236, 54790.51825887183, 77485.0937706344, -262.20831420520716, -2053.857094509255, -5643.346088331472, 24245.76422521642, 16800.018167497896, 0.0, 0.0, 0.0, 196.0, 0.0, 0.0, 0.0, 13.0, 137.0, 236.0, 0.0, 0.0, 0.0, 1.6878032511252725E9, 0.0, 2023-06-26 13:14:11.125
175.0, 48049.545055573595, 54851.76203867937, 74674.98775422428, -123.87336777131173, -2001.3304950392837, -5451.456362182661, 24342.122595563247, 16921.67871256813, 0.0, 0.0, 0.0, 196.0, 0.0, 0.0, 0.0, 13.0, 137.0, 240.0, 0.0, 0.0, 0.0, 1.687803251128284E9, 0.0, 2023-06-26 13:14:11.128
176.0, 48151.44665854534, 54944.67824038008, 71437.02464545067, 11.04176176092169, -1788.564239569216, -5364.888055907257, 24470.108684314335, 17035.89612673475, 0.0, 0.0, 0.0, 196.0, 0.0, 0.0, 0.0, 13.0, 137.0, 244.0, 0.0, 0.0, 0.0, 1.6878032511323156E9, 0.0, 2023-06-26 13:14:11.132
177.0, 48093.98032355074, 54921.834757546756, 74050.61412460972, -103.68974252816946, -1817.4650451499278, -5529.665116031781, 24389.64240427523, 16936.16264297517, 0.0, 0.0, 0.0, 196.0, 1.0, 96.0, 0.0, 13.0, 137.0, 248.0, 0.0, 0.0, 0.0, 1.6878032511353428E9, 0.0, 2023-06-26 13:14:11.135
178.0, 47991.385816500886, 54818.90497433007, 77439.71972939011, -243.00816571809838, -1997.5306984818815, -5669.274111899628, 24289.126609459712, 16844.4757872195, 0.0, 0.0, 0.0, 196.0, 30.0, 96.0, 0.0, 13.0, 137.0, 252.0, 0.0, 0.0, 0.0, 1.6878032511393447E9, 0.0, 2023-06-26 13:14:11.139
179.0, 48051.06497419655, 54855.00304162539, 75429.67205401327, -149.89079831728915, -1995.5637449698145, -5575.665006120802, 24309.62315912523, 16891.570912786832, 0.0, 0.0, 0.0, 196.0, 7.0, 112.0, 0.0, 13.0, 138.0, 0.0, 0.0, 0.0, 0.0, 1.6878032511433573E9, 0.0, 2023-06-26 13:14:11.143
180.0, 48108.30779174659, 54917.54322261134, 71613.04463303622, -46.46927672258338, -1914.8962992306115, -5430.333963672396, 24415.235151676556, 16981.93901561964, 0.0, 0.0, 0.0, 196.0, 0.0, 0.0, 0.0, 13.0, 138.0, 4.0, 0.0, 0.0, 0.0, 1.687803251148398E9, 0.0, 2023-06-26 13:14:11.148
181.0, 48056.58585507701, 54892.93395196604, 73248.3429608754, -169.40387122677222, -1879.6028947356815, -5638.3840010623935, 24363.87084291826, 16909.787584517908, 0.0, 0.0, 0.0, 196.0, 0.0, 0.0, 0.0, 13.0, 138.0, 8.0, 0.0, 0.0, 0.0, 1.6878032511524265E9, 0.0, 2023-06-26 13:14:11.152
182.0, 48013.08936036699, 54861.82032368426, 77189.0672670683, -218.3094880949841, -2046.9504054725655, -5628.482178268692, 24319.033243540915, 16848.72261866601, 0.0, 0.0, 0.0, 196.0, 0.0, 0.0, 0.0, 13.0, 138.0, 12.0, 0.0, 0.0, 0.0, 1.6878032511564667E9, 0.0, 2023-06-26 13:14:11.156
183.0, 48041.431372336316, 54871.27511158885, 76126.33122519628, -169.26976076004038, -1960.2032852415189, -5532.995525955621, 24286.71262105854, 16857.976240870506, 0.0, 0.0, 0.0, 196.0, 0.0, 0.0, 0.0, 13.0, 138.0, 16.0, 0.0, 0.0, 0.0, 1.6878032511604648E9, 0.0, 2023-06-26 13:14:11.160
184.0, 48128.22319605627, 54953.12719978419, 71997.18171324513, -25.972727057066805, -1786.8431552461573, -5374.365195556306, 24387.34017459633, 16986.901102888718, 0.0, 0.0, 0.0, 196.0, 0.0, 0.0, 0.0, 13.0, 138.0, 20.0, 0.0, 0.0, 0.0, 1.6878032511644857E9, 0.0, 2023-06-26 13:14:11.164
185.0, 48108.106626046494, 54961.48675221047, 72550.0744640916, -85.92010568620034, -1830.294946467274, -5478.792545651501, 24387.742505996528, 16949.841910581818, 0.0, 0.0, 0.0, 196.0, 0.0, 0.0, 0.0, 13.0, 138.0, 24.0, 0.0, 0.0, 0.0, 1.6878032511694949E9, 0.0, 2023-06-26 13:14:11.169
186.0, 47992.413996745825, 54851.56087297927, 76748.93906699885, -233.93335746924373, -2001.5093089949262, -5648.844617467477, 24277.95073723206, 16819.866516574206, 0.0, 0.0, 0.0, 196.0, 0.0, 0.0, 0.0, 13.0, 138.0, 28.0, 0.0, 0.0, 0.0, 1.687803251173524E9, 0.0, 2023-06-26 13:14:11.173
187.0, 48023.48292153871, 54858.66872771606, 76699.31819430807, -206.57482225594788, -2001.9563438840323, -5605.303419268539, 24243.79727170435, 16816.737272350463, 0.0, 0.0, 0.0, 196.0, 1.0, 144.0, 0.0, 13.0, 138.0, 32.0, 0.0, 0.0, 0.0, 1.6878032511765368E9, 0.0, 2023-06-26 13:14:11.176
188.0, 48106.07261730106, 54930.73075183997, 72545.73822566727, -57.73455592805814, -1909.0624939277761, -5450.830513337912, 24364.139063851722, 16950.959497804582, 0.0, 0.0, 0.0, 196.0, 29.0, 224.0, 0.0, 13.0, 138.0, 36.0, 0.0, 0.0, 0.0, 1.6878032511795685E9, 0.0, 2023-06-26 13:14:11.179
189.0, 48117.33789650654, 54967.94640635805, 71990.25267246398, -63.50130599752737, -1872.5620952322597, -5510.777891967045, 24417.291512166445, 16970.360811991788, 0.0, 0.0, 0.0, 196.0, 7.0, 176.0, 0.0, 13.0, 138.0, 40.0, 0.0, 0.0, 0.0, 1.687803251183552E9, 0.0, 2023-06-26 13:14:11.183
190.0, 48006.964982386235, 54876.393661069116, 76178.27667931041, -241.89057849533305, -2007.1195968532083, -5767.040642147141, 24302.112972988245, 16841.167729040113, 0.0, 0.0, 0.0, 196.0, 0.0, 0.0, 0.0, 13.0, 138.0, 44.0, 0.0, 0.0, 0.0, 1.687803251187568E9, 0.0, 2023-06-26 13:14:11.187
191.0, 47993.30806652404, 54856.50060850389, 77135.82541177576, -205.79251120001211, -2044.7822862604007, -5591.288875495062, 24239.237515835466, 16816.08907176126, 0.0, 0.0, 0.0, 196.0, 0.0, 0.0, 0.0, 13.0, 138.0, 48.0, 0.0, 0.0, 0.0, 1.6878032511915956E9, 0.0, 2023-06-26 13:14:11.191
192.0, 48098.31656197507, 54936.229280975975, 73247.49359458609, -59.14271582874249, -1882.329807559229, -5378.9696549141, 24314.965226050048, 16923.712721313565, 0.0, 0.0, 0.0, 196.0, 0.0, 0.0, 0.0, 13.0, 138.0, 52.0, 0.0, 0.0, 0.0, 1.6878032511956196E9, 0.0, 2023-06-26 13:14:11.195
193.0, 48138.61675722799, 54987.43712752308, 71599.4547724074, -46.78220114495768, -1813.1288067255982, -5423.673143824714, 24404.998052716026, 16971.813675381385, 0.0, 0.0, 0.0, 196.0, 0.0, 0.0, 0.0, 13.0, 138.0, 56.0, 0.0, 0.0, 0.0, 1.68780325119963E9, 0.0, 2023-06-26 13:14:11.199
194.0, 48033.094171654484, 54916.62680108867, 75507.88080786238, -183.217249300152, -1934.1187994621755, -5587.377320215383, 24328.264514000955, 16865.106447351747, 0.0, 0.0, 0.0, 196.0, 0.0, 0.0, 0.0, 13.0, 138.0, 60.0, 0.0, 0.0, 0.0, 1.6878032512026346E9, 0.0, 2023-06-26 13:14:11.202
195.0, 47999.83477590499, 54869.464620287974, 77425.66048212773, -219.42707531774943, -2062.0378329798978, -5641.155617374852, 24265.053780681348, 16829.589525412266, 0.0, 0.0, 0.0, 196.0, 0.0, 0.0, 0.0, 13.0, 138.0, 64.0, 0.0, 0.0, 0.0, 1.6878032512066607E9, 0.0, 2023-06-26 13:14:11.206
196.0, 48082.08919550052, 54927.914432038604, 73975.9145946401, -113.18923392167497, -1961.2761689753736, -5528.1451974088195, 24311.187781237102, 16908.938218228606, 0.0, 0.0, 0.0, 196.0, 0.0, 0.0, 0.0, 13.0, 138.0, 68.0, 0.0, 0.0, 0.0, 1.6878032512106795E9, 0.0, 2023-06-26 13:14:11.210
197.0, 48135.15223683742, 54989.76170894643, 71362.16865326985, -52.906579125711815, -1829.6467458780703, -5527.117017163875, 24359.556956238386, 16982.45310574211, 0.0, 0.0, 0.0, 196.0, 1.0, 224.0, 0.0, 13.0, 138.0, 72.0, 0.0, 0.0, 0.0, 1.6878032512157063E9, 0.0, 2023-06-26 13:14:11.215
198.0, 48051.981395719224, 54937.97271704349, 74739.31607476666, -173.69540616219118, -1911.0517991842985, -5603.58233494548, 24309.46669691404, 16877.042278890884, 0.0, 0.0, 0.0, 196.0, 29.0, 160.0, 0.0, 13.0, 138.0, 76.0, 0.0, 0.0, 0.0, 1.687803251219722E9, 0.0, 2023-06-26 13:14:11.219
199.0, 47976.074871549, 54858.95930039398, 77529.59609384491, -229.53006381154822, -2097.51005143047, -5577.810773588511, 24268.026562693904, 16814.43504267157, 0.0, 0.0, 0.0, 196.0, 8.0, 0.0, 0.0, 13.0, 138.0, 80.0, 0.0, 0.0, 0.0, 1.6878032512237492E9, 0.0, 2023-06-26 13:14:11.223
200.0, 48091.36516944947, 54949.796789860346, 74761.6007639886, -86.34478883085119, -1968.6075411567142, -5456.306690729462, 24334.433595470622, 16912.715663041552, 0.0, 0.0, 0.0, 196.0, 0.0, 0.0, 0.0, 13.0, 138.0, 84.0, 0.0, 0.0, 0.0, 1.6878032512277813E9, 0.0, 2023-06-26 13:14:11.227
201.0, 48153.212446357305, 55007.263124854944, 71382.93342386883, -10.527671638449627, -1785.3902918565623, -5464.532132689015, 24395.230340389055, 17016.47246080309, 0.0, 0.0, 0.0, 196.0, 0.0, 0.0, 0.0, 13.0, 138.0, 88.0, 0.0, 0.0, 0.0, 1.6878032512318013E9, 0.0, 2023-06-26 13:14:11.231
202.0, 48074.623712852444, 54957.3740312307, 73936.9555040545, -142.04533601347637, -1826.2939842097742, -5610.936058871277, 24343.463700230564, 16936.96730577556, 0.0, 0.0, 0.0, 196.0, 0.0, 0.0, 0.0, 13.0, 138.0, 92.0, 0.0, 0.0, 0.0, 1.6878032512358296E9, 0.0, 2023-06-26 13:14:11.235
203.0, 47977.86301110542, 54864.05549812979, 77430.8237350969, -238.09078193793084, -2028.5549197858477, -5586.192677759252, 24206.358099741712, 16779.32045213228, 0.0, 0.0, 0.0, 196.0, 0.0, 0.0, 0.0, 13.0, 138.0, 96.0, 0.0, 0.0, 0.0, 1.687803251240812E9, 0.0, 2023-06-26 13:14:11.240
204.0, 48053.16603817535, 54917.34205691124, 75500.92941533678, -134.31163243194013, -2034.7240012555126, -5503.401816296794, 24254.66021950963, 16860.14436008267, 0.0, 0.0, 0.0, 196.0, 0.0, 0.0, 0.0, 13.0, 138.0, 100.0, 0.0, 0.0, 0.0, 1.687803251244843E9, 0.0, 2023-06-26 13:14:11.244
205.0, 48143.89176891944, 54998.41183405064, 71590.98346125883, -14.908613551689811, -1902.7816537358349, -5410.485614596083, 24426.612189604308, 17017.970027681593, 0.0, 0.0, 0.0, 196.0, 0.0, 0.0, 0.0, 13.0, 138.0, 104.0, 0.0, 0.0, 0.0, 1.6878032512488704E9, 0.0, 2023-06-26 13:14:11.248
206.0, 48106.653762656904, 54994.63438923769, 73154.68915160766, -89.2505156100411, -1802.1541001980424, -5533.733133522646, 24390.26825311998, 16950.13248325974, 0.0, 0.0, 0.0, 196.0, 0.0, 0.0, 0.0, 13.0, 138.0, 108.0, 0.0, 0.0, 0.0, 1.687803251252892E9, 0.0, 2023-06-26 13:14:11.252
207.0, 48007.97081088672, 54901.18174567005, 77157.43954866404, -209.5029007795931, -1991.1828030565744, -5687.423728397337, 24276.76609477593, 16833.90341209214, 0.0, 0.0, 0.0, 196.0, 2.0, 0.0, 0.0, 13.0, 138.0, 112.0, 0.0, 0.0, 0.0, 1.6878032512569263E9, 0.0, 2023-06-26 13:14:11.256
208.0, 48024.82402620602, 54892.82219324377, 76170.38651351769, -180.42328124323862, -2030.521873297915, -5601.704788411234, 24249.295800840355, 16853.684705935088, 0.0, 0.0, 0.0, 196.0, 29.0, 64.0, 0.0, 13.0, 138.0, 116.0, 0.0, 0.0, 0.0, 1.687803251260924E9, 0.0, 2023-06-26 13:14:11.260
209.0, 48138.61675722799, 54993.74031945948, 72004.78130635993, -24.0504770339104, -1876.071319111743, -5385.474012550594, 24382.78041872745, 16997.294664060435, 0.0, 0.0, 0.0, 196.0, 8.0, 80.0, 0.0, 13.0, 138.0, 120.0, 0.0, 0.0, 0.0, 1.6878032512639432E9, 0.0, 2023-06-26 13:14:11.263
210.0, 48121.02593434166, 55009.900630700664, 72469.56348056358, -81.87443993978977, -1962.326700964773, -5513.951839679699, 24445.678227624685, 16986.141143577235, 0.0, 0.0, 0.0, 196.0, 0.0, 0.0, 0.0, 13.0, 138.0, 124.0, 0.0, 0.0, 0.0, 1.6878032512679722E9, 0.0, 2023-06-26 13:14:11.267
211.0, 47991.6763891788, 54887.0554431743, 76712.99746191473, -250.56305534399218, -1982.7561953969237, -5786.330197612071, 24288.05372572586, 16827.4214062001, 0.0, 0.0, 0.0, 196.0, 0.0, 0.0, 0.0, 13.0, 138.0, 128.0, 0.0, 0.0, 0.0, 1.687803251271981E9, 0.0, 2023-06-26 13:14:11.271
212.0, 47996.50436598115, 54869.08464063223, 76741.65239830643, -215.71668573816845, -1904.0557031697874, -5581.185887001263, 24198.46793394899, 16801.22516169848, 0.0, 0.0, 0.0, 196.0, 0.0, 0.0, 0.0, 13.0, 138.0, 132.0, 0.0, 0.0, 0.0, 1.687803251275004E9, 0.0, 2023-06-26 13:14:11.275
213.0, 48129.720762934776, 54993.80737469285, 72601.79640076117, -32.47708469356116, -1864.2025428059749, -5375.348672312341, 24346.928220621136, 16931.178203961637, 0.0, 0.0, 0.0, 196.0, 0.0, 0.0, 0.0, 13.0, 138.0, 136.0, 0.0, 0.0, 0.0, 1.687803251279021E9, 0.0, 2023-06-26 13:14:11.279
214.0, 48130.279556546164, 55018.64016278269, 71916.55897099483, -46.33516625585154, -1869.298740541785, -5462.498123943583, 24383.093343149823, 16908.11120368376, 0.0, 0.0, 0.0, 196.0, 0.0, 0.0, 0.0, 13.0, 138.0, 140.0, 0.0, 0.0, 0.0, 1.6878032512830453E9, 0.0, 2023-06-26 13:14:11.283
215.0, 47993.5762874575, 54899.21479215799, 76135.58484740077, -226.37846784334994, -2013.7804167008899, -5651.25860586865, 24259.04116142287, 16785.46718185749, 0.0, 0.0, 0.0, 196.0, 0.0, 0.0, 0.0, 13.0, 138.0, 144.0, 0.0, 0.0, 0.0, 1.6878032512870643E9, 0.0, 2023-06-26 13:14:11.287
216.0, 48003.00872361764, 54887.81540248578, 77191.1683310471, -215.49316829361538, -1983.0244163303873, -5656.600672793469, 24241.495042025454, 16834.23868825897, 0.0, 0.0, 0.0, 196.0, 0.0, 0.0, 0.0, 13.0, 138.0, 148.0, 0.0, 0.0, 0.0, 1.6878032512920916E9, 0.0, 2023-06-26 13:14:11.292
217.0, 48121.18239655285, 54986.96774088952, 73281.75881883608, -58.2262943060749, -1943.8194565557787, -5479.79837415199, 24363.71438070707, 17002.435565285155, 0.0, 0.0, 0.0, 196.0, 1.0, 208.0, 0.0, 13.0, 138.0, 152.0, 0.0, 0.0, 0.0, 1.6878032512961094E9, 0.0, 2023-06-26 13:14:11.296
218.0, 48136.73921069375, 55022.082331428806, 71551.37617008403, -14.729799596047354, -1900.5017758013937, -5388.603256774337, 24446.482890425075, 17031.783405754974, 0.0, 0.0, 0.0, 196.0, 29.0, 32.0, 0.0, 13.0, 138.0, 156.0, 0.0, 0.0, 0.0, 1.6878032513001995E9, 0.0, 2023-06-26 13:14:11.300
219.0, 48049.07566894003, 54955.74235388546, 75461.79151079553, -162.2960164899846, -1942.2995379328179, -5573.183962486263, 24361.85918591728, 16902.88089548122, 0.0, 0.0, 0.0, 196.0, 8.0, 80.0, 0.0, 13.0, 138.0, 160.0, 0.0, 0.0, 0.0, 1.687803251304194E9, 0.0, 2023-06-26 13:14:11.304
220.0, 48003.0310753621, 54895.9067339786, 77472.97912513961, -208.31825832346183, -2114.4973772165035, -5661.898036229377, 24292.077039727814, 16846.643906431666, 0.0, 0.0, 0.0, 196.0, 0.0, 0.0, 0.0, 13.0, 138.0, 164.0, 0.0, 0.0, 0.0, 1.6878032513081987E9, 0.0, 2023-06-26 13:14:11.308
221.0, 48073.12614597394, 54945.84053109176, 74081.70540114706, -96.80540523593488, -1840.7779146168132, -5509.392083810817, 24297.95554851956, 16901.271569880435, 0.0, 0.0, 0.0, 196.0, 0.0, 0.0, 0.0, 13.0, 138.0, 168.0, 0.0, 0.0, 0.0, 1.6878032513122103E9, 0.0, 2023-06-26 13:14:11.312
222.0, 48128.91610013439, 55014.12511040272, 71389.7507059277, -15.623869374259638, -1770.4816783048725, -5385.295198594952, 24392.794000243426, 16990.253864557013, 0.0, 0.0, 0.0, 196.0, 0.0, 0.0, 0.0, 13.0, 138.0, 172.0, 0.0, 0.0, 0.0, 1.6878032513161948E9, 0.0, 2023-06-26 13:14:11.316
223.0, 48052.07080269704, 54962.58198768878, 74688.8234840421, -143.14057149178643, -1902.9828194359327, -5561.471648391682, 24315.658130128162, 16872.169598599627, 0.0, 0.0, 0.0, 196.0, 0.0, 0.0, 0.0, 13.0, 138.0, 176.0, 0.0, 0.0, 0.0, 1.687803251321231E9, 0.0, 2023-06-26 13:14:11.321
224.0, 47990.37998800039, 54891.65990253209, 77560.3073907265, -219.2929648510176, -2019.5248150259038, -5650.990384935187, 24236.46589952301, 16803.639150099654, 0.0, 0.0, 0.0, 196.0, 0.0, 0.0, 0.0, 13.0, 138.0, 180.0, 0.0, 0.0, 0.0, 1.687803251325234E9, 0.0, 2023-06-26 13:14:11.325
225.0, 48088.01240778118, 54965.30890051233, 74855.23222151188, -119.67123981371401, -1983.8961343641442, -5595.446299963749, 24296.882664785706, 16894.275473865924, 0.0, 0.0, 0.0, 196.0, 0.0, 0.0, 0.0, 13.0, 138.0, 184.0, 0.0, 0.0, 0.0, 1.687803251328261E9, 0.0, 2023-06-26 13:14:11.328
226.0, 48166.0199959302, 55045.61871834025, 71408.43676429233, -14.439226918128362, -1938.4326861420498, -5448.327117958917, 24412.798811530927, 16997.629940227263, 0.0, 0.0, 0.0, 196.0, 0.0, 0.0, 0.0, 13.0, 138.0, 188.0, 0.0, 0.0, 0.0, 1.6878032513312595E9, 0.0, 2023-06-26 13:14:11.331
227.0, 48101.356399221, 55014.30392435836, 73901.10330594819, -85.71893998610258, -1903.6310200251366, -5472.422298481739, 24395.476209578064, 16929.390064405212, 0.0, 0.0, 0.0, 196.0, 1.0, 80.0, 0.0, 13.0, 138.0, 192.0, 0.0, 0.0, 0.0, 1.6878032513352768E9, 0.0, 2023-06-26 13:14:11.335
228.0, 47988.45773797724, 54891.36932985418, 77448.97335159461, -212.09570313640873, -1996.7036839370353, -5647.347050588972, 24271.89341448467, 16809.27178970239, 0.0, 0.0, 0.0, 196.0, 29.0, 80.0, 0.0, 13.0, 138.0, 196.0, 0.0, 0.0, 0.0, 1.6878032513393075E9, 0.0, 2023-06-26 13:14:11.339
229.0, 48049.27683464013, 54926.0145337599, 75609.40243117839, -156.50691467606006, -1969.322796979284, -5572.446354919238, 24270.015867950424, 16846.129816309192, 0.0, 0.0, 0.0, 196.0, 8.0, 96.0, 0.0, 13.0, 138.0, 200.0, 0.0, 0.0, 0.0, 1.6878032513433104E9, 0.0, 2023-06-26 13:14:11.343
230.0, 48138.63910897245, 55006.97255217702, 71659.33509580315, -43.004756332010786, -1847.3493274866735, -5524.2112903846855, 24382.62395651626, 16971.92543410366, 0.0, 0.0, 0.0, 196.0, 0.0, 0.0, 0.0, 13.0, 138.0, 204.0, 0.0, 0.0, 0.0, 1.6878032513473287E9, 0.0, 2023-06-26 13:14:11.347
231.0, 48105.267954500676, 55008.26895335543, 73124.64840705972, -89.36227433231764, -1925.5133778468821, -5513.4153978127715, 24362.82031092886, 16908.602942061778, 0.0, 0.0, 0.0, 196.0, 0.0, 0.0, 0.0, 13.0, 138.0, 207.0, 0.0, 0.0, 0.0, 1.6878032513513496E9, 0.0, 2023-06-26 13:14:11.351
232.0, 48002.137005583885, 54910.45771961901, 77164.34623770074, -214.28617409302882, -2007.678390464591, -5615.8757943959, 24257.588298033275, 16780.102763188217, 0.0, 0.0, 0.0, 196.0, 0.0, 0.0, 0.0, 13.0, 138.0, 211.0, 0.0, 0.0, 0.0, 1.6878032513553717E9, 0.0, 2023-06-26 13:14:11.355
233.0, 48061.30207315709, 54944.36531595771, 76272.1540060227, -145.77807733751266, -1956.448192173027, -5594.39576797435, 24274.016830207926, 16846.196871542557, 0.0, 0.0, 0.0, 196.0, 0.0, 0.0, 0.0, 13.0, 138.0, 215.0, 0.0, 0.0, 0.0, 1.687803251358382E9, 0.0, 2023-06-26 13:14:11.358
234.0, 48148.49622827724, 55017.679037771115, 72079.97257470759, -19.490721165027757, -1902.6028397801924, -5467.370804234839, 24406.339157383343, 16990.723251190575, 0.0, 0.0, 0.0, 196.0, 0.0, 0.0, 0.0, 13.0, 138.0, 219.0, 0.0, 0.0, 0.0, 1.6878032513634005E9, 0.0, 2023-06-26 13:14:11.363
235.0, 48124.04341984313, 55021.70235177307, 72437.37696854793, -54.225332048574934, -1839.4815134384053, -5426.020076992521, 24395.386802600242, 16943.024628522948, 0.0, 0.0, 0.0, 196.0, 0.0, 0.0, 0.0, 13.0, 138.0, 223.0, 0.0, 0.0, 0.0, 1.68780325136742E9, 0.0, 2023-06-26 13:14:11.367
236.0, 48006.87557540841, 54917.52087086688, 76687.80704591359, -203.57968849893672, -1959.7562503524127, -5595.8262796194895, 24257.52124279991, 16785.824809768776, 0.0, 0.0, 0.0, 196.0, 0.0, 0.0, 0.0, 13.0, 138.0, 227.0, 0.0, 0.0, 0.0, 1.6878032513715317E9, 0.0, 2023-06-26 13:14:11.371
237.0, 48049.56740731805, 54937.52568215438, 76830.52293426072, -159.36793796633935, -2097.420644452649, -5583.53282016907, 24258.258850366932, 16809.987045524962, 0.0, 0.0, 0.0, 196.0, 1.0, 0.0, 0.0, 13.0, 138.0, 231.0, 0.0, 0.0, 0.0, 1.6878032513754852E9, 0.0, 2023-06-26 13:14:11.375
238.0, 48144.15998985291, 55010.0347411674, 72676.13830281953, -40.76958188648008, -1948.2227502134742, -5531.833235243945, 24382.57925302735, 16971.63486142574, 0.0, 0.0, 0.0, 196.0, 30.0, 16.0, 0.0, 13.0, 138.0, 235.0, 0.0, 0.0, 0.0, 1.6878032513795128E9, 0.0, 2023-06-26 13:14:11.379
239.0, 48150.95492016732, 55037.21446242505, 71901.9185783766, -41.44013422013929, -1767.0618614032105, -5466.409679223261, 24413.89404700924, 16977.915701617683, 0.0, 0.0, 0.0, 196.0, 7.0, 224.0, 0.0, 13.0, 138.0, 239.0, 0.0, 0.0, 0.0, 1.6878032513845236E9, 0.0, 2023-06-26 13:14:11.384
240.0, 48017.82793019151, 54926.05923724881, 76073.22348037046, -201.56803149795908, -1969.680424890569, -5562.812753059001, 24301.107144487756, 16819.71005436302, 0.0, 0.0, 0.0, 196.0, 0.0, 0.0, 0.0, 13.0, 138.0, 243.0, 0.0, 0.0, 0.0, 1.687803251388548E9, 0.0, 2023-06-26 13:14:11.388
241.0, 48027.05920065155, 54922.77353081388, 77224.40537505214, -178.72454866463528, -2035.5063123114483, -5574.972102042688, 24291.048859482868, 16833.434025458577, 0.0, 0.0, 0.0, 196.0, 0.0, 0.0, 0.0, 13.0, 138.0, 247.0, 0.0, 0.0, 0.0, 1.6878032513925712E9, 0.0, 2023-06-26 13:14:11.392
242.0, 48135.867492659985, 55009.40889232265, 73375.21146240372, -39.49553245252758, -1939.8184942982787, -5464.196856522186, 24375.538453523932, 16962.090666543325, 0.0, 0.0, 0.0, 196.0, 0.0, 0.0, 0.0, 13.0, 138.0, 251.0, 0.0, 0.0, 0.0, 1.687803251396592E9, 0.0, 2023-06-26 13:14:11.396
243.0, 48169.372757598496, 55049.75379106448, 71532.31013206365, -29.571357914371244, -1744.598358225627, -5485.363958521361, 24409.244884162534, 16982.877788886763, 0.0, 0.0, 0.0, 196.0, 0.0, 0.0, 0.0, 13.0, 138.0, 255.0, 0.0, 0.0, 0.0, 1.6878032514006124E9, 0.0, 2023-06-26 13:14:11.400
244.0, 48045.87936948292, 54951.80844686132, 75354.0337507765, -194.88485990582228, -1942.456000144005, -5665.921350231332, 24314.20526673857, 16847.269755276415, 0.0, 0.0, 0.0, 196.0, 0.0, 0.0, 0.0, 13.0, 139.0, 3.0, 0.0, 0.0, 0.0, 1.687803251404631E9, 0.0, 2023-06-26 13:14:11.404
245.0, 47996.30320028105, 54895.21382990049, 77437.81983111141, -218.62241251735838, -2079.0251587659313, -5638.227538851206, 24249.318152584812, 16787.52354234738, 0.0, 0.0, 0.0, 196.0, 0.0, 0.0, 0.0, 13.0, 139.0, 7.0, 0.0, 0.0, 0.0, 1.6878032514096713E9, 0.0, 2023-06-26 13:14:11.409
246.0, 48101.065826543076, 54977.51295298493, 74121.26798883296, -80.60039050583727, -1962.192590498041, -5457.3572227188615, 24324.263551743457, 16893.470811065534, 0.0, 0.0, 0.0, 196.0, 0.0, 0.0, 0.0, 13.0, 139.0, 11.0, 0.0, 0.0, 0.0, 1.6878032514126687E9, 0.0, 2023-06-26 13:14:11.412
247.0, 48168.27752212018, 55049.73143932002, 71372.27164176365, -15.333296696340645, -1787.9830942133779, -5413.324286141907, 24411.122430696778, 16971.768971892474, 0.0, 0.0, 0.0, 196.0, 1.0, 0.0, 0.0, 13.0, 139.0, 15.0, 0.0, 0.0, 0.0, 1.6878032514156828E9, 0.0, 2023-06-26 13:14:11.415
248.0, 48077.32827393154, 54988.26414206793, 74574.82958732004, -151.41071694025004, -1930.7883895383347, -5605.459881479726, 24332.690159403108, 16871.454342777055, 0.0, 0.0, 0.0, 196.0, 30.0, 96.0, 0.0, 13.0, 139.0, 19.0, 0.0, 0.0, 0.0, 1.6878032514186974E9, 0.0, 2023-06-26 13:14:11.418
249.0, 47991.83285138999, 54893.649207788614, 77502.90811096528, -228.01014518858736, -2001.9786956284877, -5649.895149456876, 24234.118966355203, 16776.03474569735, 0.0, 0.0, 0.0, 196.0, 7.0, 128.0, 0.0, 13.0, 139.0, 23.0, 0.0, 0.0, 0.0, 1.6878032514227068E9, 0.0, 2023-06-26 13:14:11.422
250.0, 48081.7986228226, 54958.55867368683, 74891.19617834045, -127.42729513970556, -2001.2410880614625, -5518.690409504225, 24280.2306151665, 16841.503005206945, 0.0, 0.0, 0.0, 196.0, 0.0, 0.0, 0.0, 13.0, 139.0, 27.0, 0.0, 0.0, 0.0, 1.6878032514277484E9, 0.0, 2023-06-26 13:14:11.427
251.0, 48167.38345234197, 55046.356325907276, 71437.15875591741, -13.098122250809938, -1885.3919965496061, -5405.277658137997, 24418.252637178022, 16972.037192825937, 0.0, 0.0, 0.0, 196.0, 0.0, 0.0, 0.0, 13.0, 139.0, 31.0, 0.0, 0.0, 0.0, 1.6878032514317667E9, 0.0, 2023-06-26 13:14:11.431
252.0, 48111.7052569038, 55020.338895361296, 73792.54088312875, -122.30874565944025, -1869.6116649641592, -5567.707785094713, 24389.754162997506, 16913.028587463927, 0.0, 0.0, 0.0, 196.0, 0.0, 0.0, 0.0, 13.0, 139.0, 35.0, 0.0, 0.0, 0.0, 1.6878032514357831E9, 0.0, 2023-06-26 13:14:11.435
253.0, 48008.55195624256, 54911.262382419394, 77380.30879262791, -229.35124985590576, -1962.2819974758622, -5682.305178917072, 24249.161690373625, 16779.36515562119, 0.0, 0.0, 0.0, 196.0, 0.0, 0.0, 0.0, 13.0, 139.0, 39.0, 0.0, 0.0, 0.0, 1.6878032514387922E9, 0.0, 2023-06-26 13:14:11.438
254.0, 48056.00470972118, 54940.90079556713, 75635.03988206862, -141.68770810219146, -2047.8891787396883, -5534.336630622939, 24272.04987669586, 16817.541935150854, 0.0, 0.0, 0.0, 196.0, 0.0, 0.0, 0.0, 13.0, 139.0, 43.0, 0.0, 0.0, 0.0, 1.6878032514428287E9, 0.0, 2023-06-26 13:14:11.442
255.0, 48155.58173126957, 55032.25237515597, 71699.27766314479, -38.13207604075385, -1924.0828662017425, -5447.053068524965, 24386.78138098495, 16957.955593819093, 0.0, 0.0, 0.0, 196.0, 0.0, 0.0, 0.0, 13.0, 139.0, 47.0, 0.0, 0.0, 0.0, 1.687803251446837E9, 0.0, 2023-06-26 13:14:11.446
0.0, 48135.7110304488, 55049.977308509035, 73046.12672878824, -93.07266391189862, -1909.2189561389634, -5521.082046160942, 24387.071953662868, 16927.02077949295, 0.0, 0.0, 0.0, 196.0, 0.0, 0.0, 0.0, 13.0, 139.0, 51.0, 0.0, 0.0, 0.0, 1.6878032514508607E9, 0.0, 2023-06-26 13:14:11.450
1.0, 48045.968776460744, 54968.326386013796, 77084.63991697312, -184.96068536766595, -1984.9466663535436, -5605.5716402020025, 24305.13045848971, 16818.637170629165, 0.0, 0.0, 0.0, 196.0, 0.0, 0.0, 0.0, 13.0, 139.0, 55.0, 0.0, 0.0, 0.0, 1.6878032514548855E9, 0.0, 2023-06-26 13:14:11.454
2.0, 48043.28656712611, 54936.3186879538, 76299.69135519164, -169.24740901558508, -2005.0408846188648, -5616.121663584908, 24262.3268678578, 16815.127946749682, 0.0, 0.0, 0.0, 196.0, 0.0, 0.0, 0.0, 13.0, 139.0, 59.0, 0.0, 0.0, 0.0, 1.6878032514598937E9, 0.0, 2023-06-26 13:14:11.459
3.0, 48134.43698101485, 55011.46525281254, 72130.66633113222, -56.81813440539055, -1822.5388911412826, -5561.359889669406, 24361.568613239364, 16943.49401515651, 0.0, 0.0, 0.0, 196.0, 0.0, 0.0, 0.0, 13.0, 139.0, 63.0, 0.0, 0.0, 0.0, 1.6878032514639225E9, 0.0, 2023-06-26 13:14:11.463
4.0, 48125.33982102154, 55031.69358154459, 72384.29157546659, -86.52360278649364, -1857.362909002651, -5538.985793469643, 24386.848436218315, 16918.348302644292, 0.0, 0.0, 0.0, 196.0, 0.0, 0.0, 0.0, 13.0, 139.0, 67.0, 0.0, 0.0, 0.0, 1.68780325146792E9, 0.0, 2023-06-26 13:14:11.467
5.0, 48033.96588968825, 54951.9202055836, 76603.69743152827, -171.12495554983087, -1971.6250266581808, -5447.701269114169, 24287.09260071428, 16809.070624002296, 0.0, 0.0, 0.0, 196.0, 0.0, 0.0, 0.0, 13.0, 139.0, 71.0, 0.0, 0.0, 0.0, 1.687803251471953E9, 0.0, 2023-06-26 13:14:11.471
6.0, 48059.22336092274, 54950.8696735942, 76809.69110842838, -161.80427811196782, -1951.9107880486, -5517.461063559183, 24243.730216470984, 16816.401996183635, 0.0, 0.0, 0.0, 196.0, 0.0, 0.0, 0.0, 13.0, 139.0, 75.0, 0.0, 0.0, 0.0, 1.6878032514759653E9, 0.0, 2023-06-26 13:14:11.475
7.0, 48140.91898690689, 55012.47108131303, 72729.89424823454, -56.3487477718291, -1844.0636210517432, -5476.289150272507, 24340.267400773457, 16928.987733005015, 0.0, 0.0, 0.0, 196.0, 1.0, 32.0, 0.0, 13.0, 139.0, 79.0, 0.0, 0.0, 0.0, 1.687803251480006E9, 0.0, 2023-06-26 13:14:11.480
8.0, 48149.32324282208, 55047.85389278578, 71854.77874932037, -50.44788723562804, -1860.9168363710448, -5479.105470073876, 24408.842552762337, 16964.817579366874, 0.0, 0.0, 0.0, 196.0, 30.0, 176.0, 0.0, 13.0, 139.0, 83.0, 0.0, 0.0, 0.0, 1.6878032515011032E9, 0.0, 2023-06-26 13:14:11.501
9.0, 48054.88712249841, 54974.964854117025, 75978.25091817987, -186.3688452683503, -2021.290602837873, -5623.743608444168, 24304.48225790051, 16826.32617072179, 0.0, 0.0, 0.0, 196.0, 6.0, 240.0, 0.0, 13.0, 139.0, 87.0, 0.0, 0.0, 0.0, 1.6878032515041275E9, 0.0, 2023-06-26 13:14:11.504
10.0, 48036.379878089414, 54932.608298374216, 77192.59884269224, -225.55145329850356, -2032.8241029768114, -5733.3565632529935, 24228.531030241375, 16785.02014696838, 0.0, 0.0, 0.0, 196.0, 0.0, 0.0, 0.0, 13.0, 139.0, 91.0, 0.0, 0.0, 0.0, 1.687803251507182E9, 0.0, 2023-06-26 13:14:11.507
11.0, 48128.24554780073, 55007.9336771886, 73435.56117243304, -79.25928583851885, -1893.7291972314356, -5440.191082977186, 24312.551237648873, 16900.57866580232, 0.0, 0.0, 0.0, 196.0, 0.0, 0.0, 0.0, 13.0, 139.0, 95.0, 0.0, 0.0, 0.0, 1.687803251511207E9, 0.0, 2023-06-26 13:14:11.511
12.0, 48154.77706846918, 55048.010354996964, 71512.57354170961, -61.087317596354204, -1862.7049759274694, -5414.955963487144, 24376.0525436464, 16933.748654573996, 0.0, 0.0, 0.0, 196.0, 0.0, 0.0, 0.0, 13.0, 139.0, 99.0, 0.0, 0.0, 0.0, 1.6878032515142088E9, 0.0, 2023-06-26 13:14:11.514
13.0, 48072.097965729, 54997.00367414996, 75258.83767114136, -164.64294965779183, -1966.037090544354, -5574.614474131403, 24322.1401360202, 16828.114310278215, 0.0, 0.0, 0.0, 196.0, 0.0, 0.0, 0.0, 13.0, 139.0, 103.0, 0.0, 0.0, 0.0, 1.687803251517205E9, 0.0, 2023-06-26 13:14:11.517
14.0, 48036.33517460051, 54946.28756598086, 77436.63518865529, -199.31050530797307, -2054.9523299875655, -5614.691151939768, 24289.260719926446, 16809.76352808041, 0.0, 0.0, 0.0, 196.0, 0.0, 0.0, 0.0, 13.0, 139.0, 107.0, 0.0, 0.0, 0.0, 1.6878032515211964E9, 0.0, 2023-06-26 13:14:11.521
15.0, 48106.18437602334, 54982.47504025401, 74165.41268413218, -128.2319579400966, -1981.9515325965326, -5582.616398646403, 24300.034260753902, 16872.05783987735, 0.0, 0.0, 0.0, 196.0, 0.0, 0.0, 0.0, 13.0, 139.0, 111.0, 0.0, 0.0, 0.0, 1.687803251524208E9, 0.0, 2023-06-26 13:14:11.524
16.0, 48146.775143954175, 55029.10077918778, 71369.14239753991, -49.263244779496766, -1774.4155853290065, -5454.786772106501, 24367.782398197938, 16935.93912553062, 0.0, 0.0, 0.0, 196.0, 0.0, 0.0, 0.0, 13.0, 139.0, 115.0, 0.0, 0.0, 0.0, 1.6878032515272272E9, 0.0, 2023-06-26 13:14:11.527
17.0, 48068.81225929407, 54990.52166825792, 74480.14759780736, -147.43210642720538, -1840.8226181057237, -5516.678752503247, 24300.123667731725, 16844.09580756376, 0.0, 0.0, 0.0, 196.0, 1.0, 48.0, 0.0, 13.0, 139.0, 119.0, 0.0, 0.0, 0.0, 1.6878032515302525E9, 0.0, 2023-06-26 13:14:11.530
18.0, 48013.29052606708, 54925.14281572614, 77482.72448572212, -212.6321450033361, -1985.8630878762112, -5604.521108212603, 24246.1218531277, 16785.02014696838, 0.0, 0.0, 0.0, 196.0, 30.0, 128.0, 0.0, 13.0, 139.0, 123.0, 0.0, 0.0, 0.0, 1.6878032515332532E9, 0.0, 2023-06-26 13:14:11.533
19.0, 48086.17956473584, 54974.048432594354, 74952.97640001493, -137.82085631142334, -2017.3790475581943, -5553.380316898861, 24281.90699600065, 16844.118159308215, 0.0, 0.0, 0.0, 196.0, 6.0, 224.0, 0.0, 13.0, 139.0, 127.0, 0.0, 0.0, 0.0, 1.6878032515372696E9, 0.0, 2023-06-26 13:14:11.537
20.0, 48169.03748143167, 55053.77710506644, 71446.47943335527, -55.45467799361682, -1892.3210373307513, -5536.080066690453, 24407.389689372743, 16987.281082544458, 0.0, 0.0, 0.0, 196.0, 0.0, 0.0, 0.0, 13.0, 139.0, 131.0, 0.0, 0.0, 0.0, 1.6878032515402925E9, 0.0, 2023-06-26 13:14:11.540
21.0, 48110.29709700312, 55030.35247687728, 73698.03770757171, -127.82962653990108, -1923.5687760792705, -5561.203427458218, 24337.987522839016, 16880.663261492642, 0.0, 0.0, 0.0, 196.0, 0.0, 0.0, 0.0, 13.0, 139.0, 135.0, 0.0, 0.0, 0.0, 1.6878032515433068E9, 0.0, 2023-06-26 13:14:11.543
22.0, 48027.39447681839, 54951.69668813905, 77323.17773380014, -190.34745578139496, -2026.9902976739763, -5499.579667994937, 24241.629152492187, 16774.537178818846, 0.0, 0.0, 0.0, 196.0, 0.0, 0.0, 0.0, 13.0, 139.0, 139.0, 0.0, 0.0, 0.0, 1.6878032515465047E9, 0.0, 2023-06-26 13:14:11.546
23.0, 48081.418643166864, 54976.23890355098, 75694.94255720885, -144.43697267019425, -1906.0673601707651, -5528.9722119536655, 24234.633056477673, 16812.266923459403, 0.0, 0.0, 0.0, 196.0, 0.0, 0.0, 0.0, 13.0, 139.0, 143.0, 0.0, 0.0, 0.0, 1.6878032515493152E9, 0.0, 2023-06-26 13:14:11.549
24.0, 48166.064699419105, 55053.4418288996, 71752.69833239297, -32.81236086039077, -1841.8060948617572, -5446.986013291599, 24371.023401143957, 16951.339477460322, 0.0, 0.0, 0.0, 196.0, 0.0, 0.0, 0.0, 13.0, 139.0, 147.0, 0.0, 0.0, 0.0, 1.6878032515533595E9, 0.0, 2023-06-26 13:14:11.553
25.0, 48132.179454824865, 55050.26788118695, 72968.99085867296, -83.64022775175903, -1866.616531207148, -5484.51459223206, 24380.00880241499, 16921.29873291239, 0.0, 0.0, 0.0, 196.0, 0.0, 0.0, 0.0, 13.0, 139.0, 151.0, 0.0, 0.0, 0.0, 1.6878032515563512E9, 0.0, 2023-06-26 13:14:11.556
26.0, 48023.61703200544, 54949.14858927114, 77005.89472125706, -214.08500839293106, -2017.3343440692836, -5624.4141607778265, 24262.17040564661, 16791.65861507161, 0.0, 0.0, 0.0, 196.0, 0.0, 0.0, 0.0, 13.0, 139.0, 155.0, 0.0, 0.0, 0.0, 1.68780325155939E9, 0.0, 2023-06-26 13:14:11.559
27.0, 48053.233093408715, 54952.18842651707, 76324.92647468168, -189.8780691478335, -2028.5549197858477, -5626.559928245536, 24238.723425712997, 16802.543914621343, 0.0, 0.0, 0.0, 196.0, 1.0, 48.0, 0.0, 13.0, 139.0, 159.0, 0.0, 0.0, 0.0, 1.6878032515633943E9, 0.0, 2023-06-26 13:14:11.563
28.0, 48129.8101699126, 55013.54396504688, 72209.85856173738, -70.07271886738764, -1938.231520441952, -5486.36978702185, 24345.520060720453, 16936.855547053285, 0.0, 0.0, 0.0, 196.0, 30.0, 128.0, 0.0, 13.0, 139.0, 163.0, 0.0, 0.0, 0.0, 1.687803251566403E9, 0.0, 2023-06-26 13:14:11.566
29.0, 48136.068658360084, 55045.79753229589, 72343.61140055793, -83.46141379611657, -1860.6933189264917, -5505.614638997869, 24365.52487200795, 16920.44936662309, 0.0, 0.0, 0.0, 196.0, 6.0, 224.0, 0.0, 13.0, 139.0, 167.0, 0.0, 0.0, 0.0, 1.6878032515694265E9, 0.0, 2023-06-26 13:14:11.569
30.0, 48022.968831416234, 54948.50038868194, 76540.88902960885, -237.9790232156543, -1943.417125155583, -5663.395603107882, 24242.567925759307, 16776.884111986652, 0.0, 0.0, 0.0, 196.0, 0.0, 0.0, 0.0, 13.0, 139.0, 171.0, 0.0, 0.0, 0.0, 1.687803251573434E9, 0.0, 2023-06-26 13:14:11.573
31.0, 48037.296299612084, 54949.41681020461, 76882.13311220803, -196.58359248442562, -1957.6998898625243, -5580.224761989684, 24212.59423644474, 16771.564396806287, 0.0, 0.0, 0.0, 196.0, 0.0, 0.0, 0.0, 13.0, 139.0, 175.0, 0.0, 0.0, 0.0, 1.6878032515764573E9, 0.0, 2023-06-26 13:14:11.576
32.0, 48158.26394060421, 55052.7936283104, 72822.67633946853, -34.13111378325389, -1841.5825774172042, -5410.709132040636, 24343.284886274923, 16942.197613978104, 0.0, 0.0, 0.0, 196.0, 0.0, 0.0, 0.0, 13.0, 139.0, 179.0, 0.0, 0.0, 0.0, 1.6878032515794826E9, 0.0, 2023-06-26 13:14:11.579
33.0, 48164.85770521852, 55080.26392224598, 71838.86430726819, -44.50232321051636, -1819.4319986619948, -5441.375725433317, 24384.769723983973, 16956.346268218313, 0.0, 0.0, 0.0, 196.0, 0.0, 0.0, 0.0, 13.0, 139.0, 183.0, 0.0, 0.0, 0.0, 1.687803251582481E9, 0.0, 2023-06-26 13:14:11.582
34.0, 48049.746221273694, 54986.990092633976, 75919.2199610734, -192.51557499355974, -2002.001047372943, -5602.218878533707, 24282.46578961203, 16821.00645554143, 0.0, 0.0, 0.0, 196.0, 0.0, 0.0, 0.0, 13.0, 139.0, 187.0, 0.0, 0.0, 0.0, 1.687803251586498E9, 0.0, 2023-06-26 13:14:11.586
35.0, 48021.80654070456, 54936.63161237617, 77230.88738094419, -221.5281392965483, -2014.1380446121748, -5619.653239208847, 24213.2647887784, 16783.83550451225, 0.0, 0.0, 0.0, 196.0, 0.0, 0.0, 0.0, 13.0, 139.0, 191.0, 0.0, 0.0, 0.0, 1.687803251591548E9, 0.0, 2023-06-26 13:14:11.591
36.0, 48123.68579193184, 55015.712084259045, 73503.66693778837, -92.46916681160532, -1916.4609213424828, -5513.482453046138, 24319.681444130118, 16910.63695080721, 0.0, 0.0, 0.0, 196.0, 0.0, 0.0, 0.0, 13.0, 139.0, 195.0, 0.0, 0.0, 0.0, 1.687803251595544E9, 0.0, 2023-06-26 13:14:11.595
37.0, 48154.62060625799, 55066.271730216955, 71508.50552421875, -46.17870404466439, -1789.3465506251516, -5432.390324162284, 24387.96602344108, 16956.390971707224, 0.0, 0.0, 0.0, 196.0, 1.0, 16.0, 0.0, 13.0, 139.0, 199.0, 0.0, 0.0, 0.0, 1.6878032515995724E9, 0.0, 2023-06-26 13:14:11.599
38.0, 48054.35068063148, 54995.88608692719, 75201.08076346884, -180.91501962125537, -1902.9157642025668, -5560.868151291389, 24293.641661839683, 16829.43306320108, 0.0, 0.0, 0.0, 196.0, 30.0, 16.0, 0.0, 13.0, 139.0, 203.0, 0.0, 0.0, 0.0, 1.6878032516025789E9, 0.0, 2023-06-26 13:14:11.602
39.0, 48008.998991131666, 54938.4197519326, 77422.68770011517, -231.42996209024932, -2035.5733675448141, -5626.179948589796, 24234.78951868886, 16776.07944918626, 0.0, 0.0, 0.0, 196.0, 6.0, 224.0, 0.0, 13.0, 139.0, 207.0, 0.0, 0.0, 0.0, 1.6878032516066086E9, 0.0, 2023-06-26 13:14:11.606
40.0, 48083.13972748992, 54979.12227858571, 74249.11996711731, -151.2989582179735, -1929.7602092933905, -5575.352081698427, 24255.353123587745, 16854.489368735478, 0.0, 0.0, 0.0, 196.0, 0.0, 0.0, 0.0, 13.0, 139.0, 211.0, 0.0, 0.0, 0.0, 1.6878032516106045E9, 0.0, 2023-06-26 13:14:11.610
41.0, 48153.01128065721, 55056.28050044543, 71400.99363338872, -61.86962865228995, -1826.495149909872, -5467.124935045831, 24369.972869154557, 16963.655288655198, 0.0, 0.0, 0.0, 196.0, 0.0, 0.0, 0.0, 13.0, 139.0, 215.0, 0.0, 0.0, 0.0, 1.6878032516146157E9, 0.0, 2023-06-26 13:14:11.614
42.0, 48067.60526509348, 55005.34087483178, 74445.9717805352, -158.94325482168853, -1915.7009620310025, -5511.917830934266, 24324.19649651009, 16862.044258361373, 0.0, 0.0, 0.0, 196.0, 0.0, 0.0, 0.0, 13.0, 139.0, 219.0, 0.0, 0.0, 0.0, 1.6878032516186676E9, 0.0, 2023-06-26 13:14:11.618
43.0, 47986.1778600428, 54917.25264993342, 77474.45434027366, -248.90902625429945, -1942.4112966550942, -5610.578430959992, 24199.11613453819, 16750.464350040478, 0.0, 0.0, 0.0, 196.0, 0.0, 0.0, 0.0, 13.0, 139.0, 223.0, 0.0, 0.0, 0.0, 1.6878032516226716E9, 0.0, 2023-06-26 13:14:11.622
44.0, 48082.33506468953, 54990.70048221356, 75032.79447946484, -127.5390538619821, -1921.8476917562118, -5515.248240858107, 24245.071321138304, 16837.591449927266, 0.0, 0.0, 0.0, 196.0, 0.0, 0.0, 0.0, 13.0, 139.0, 227.0, 0.0, 0.0, 0.0, 1.6878032516277015E9, 0.0, 2023-06-26 13:14:11.627
45.0, 48163.04721391764, 55064.863570316265, 71502.381146238, -30.59953815931537, -1847.84106586469, -5438.380591676306, 24383.316860594376, 16967.41038172369, 0.0, 0.0, 0.0, 196.0, 0.0, 0.0, 0.0, 13.0, 139.0, 231.0, 0.0, 0.0, 0.0, 1.6878032516317132E9, 0.0, 2023-06-26 13:14:11.631
46.0, 48094.203840995295, 55024.20574715206, 73660.4867768868, -131.13768471928654, -1888.4541855399832, -5562.321014680983, 24335.841755371304, 16884.306595838858, 0.0, 0.0, 0.0, 196.0, 0.0, 0.0, 0.0, 13.0, 139.0, 235.0, 0.0, 0.0, 0.0, 1.687803251635727E9, 0.0, 2023-06-26 13:14:11.635
47.0, 48004.75215968516, 54936.54220539835, 77324.16121055618, -238.247244149118, -1997.7989194153452, -5658.657033283357, 24241.919725170104, 16774.090143929738, 0.0, 0.0, 0.0, 196.0, 0.0, 224.0, 0.0, 13.0, 139.0, 239.0, 0.0, 0.0, 0.0, 1.687803251641772E9, 0.0, 2023-06-26 13:14:11.641
48.0, 48053.07663119753, 54959.720964398504, 75743.49054616578, -185.85475514587822, -2060.8308387793113, -5617.909803141332, 24229.447451764045, 16797.246551185435, 0.0, 0.0, 0.0, 196.0, 30.0, 0.0, 0.0, 13.0, 139.0, 243.0, 0.0, 0.0, 0.0, 1.6878032516448064E9, 0.0, 2023-06-26 13:14:11.644
49.0, 48139.935510150855, 55040.3437066488, 71794.9431294135, -53.06304133689897, -1857.2064467914638, -5412.139643685776, 24345.475357231542, 16947.807901836386, 0.0, 0.0, 0.0, 196.0, 7.0, 0.0, 0.0, 13.0, 139.0, 247.0, 0.0, 0.0, 0.0, 1.687803251648861E9, 0.0, 2023-06-26 13:14:11.648
50.0, 48109.24656501372, 55041.50599736047, 72938.3689687692, -99.39820759275051, -1781.59049529916, -5470.298882758485, 24333.360711736765, 16895.415412833147, 0.0, 0.0, 0.0, 196.0, 0.0, 0.0, 0.0, 13.0, 139.0, 251.0, 0.0, 0.0, 0.0, 1.6878032516528277E9, 0.0, 2023-06-26 13:14:11.652
51.0, 48012.329401055504, 54949.528568926886, 76981.33015410068, -217.16954912776342, -1927.8603110146894, -5610.1537478153405, 24226.295855795845, 16781.667385300087, 0.0, 0.0, 0.0, 196.0, 0.0, 0.0, 0.0, 13.0, 139.0, 255.0, 0.0, 0.0, 0.0, 1.687803251656839E9, 0.0, 2023-06-26 13:14:11.656
52.0, 48040.67141302484, 54954.06597305131, 76395.89326332728, -175.72941490762412, -1978.5317156948706, -5565.494962393637, 24226.161745329115, 16804.957903022518, 0.0, 0.0, 0.0, 196.0, 0.0, 0.0, 0.0, 13.0, 140.0, 3.0, 0.0, 0.0, 0.0, 1.6878032516598647E9, 0.0, 2023-06-26 13:14:11.659
53.0, 48124.24458554323, 55021.456482584064, 72258.69712337221, -64.9094658982117, -1895.584392021226, -5463.1686762772415, 24321.67074938664, 16923.53390735792, 0.0, 0.0, 0.0, 196.0, 0.0, 0.0, 0.0, 13.0, 140.0, 7.0, 0.0, 0.0, 0.0, 1.6878032516628659E9, 0.0, 2023-06-26 13:14:11.662
54.0, 48109.738303391736, 55034.532253090416, 72281.09357131644, -101.96865820511081, -1899.428892067539, -5520.970287438666, 24342.748444407993, 16909.854639751273, 0.0, 0.0, 0.0, 196.0, 0.0, 0.0, 0.0, 13.0, 140.0, 11.0, 0.0, 0.0, 0.0, 1.6878032516669185E9, 0.0, 2023-06-26 13:14:11.666
55.0, 48020.75600871516, 54962.60433943324, 76470.41397934128, -220.99169742962093, -2105.377865478738, -5650.0069081791535, 24296.033298496404, 16821.341731708257, 0.0, 0.0, 0.0, 196.0, 0.0, 0.0, 0.0, 13.0, 140.0, 15.0, 0.0, 0.0, 0.0, 1.6878032516709151E9, 0.0, 2023-06-26 13:14:11.670
56.0, 48010.6306684769, 54924.29344943684, 76892.21374895737, -227.42899983274935, -1969.7698318683902, -5640.395658063371, 24194.489323435944, 16764.4565420695, 0.0, 0.0, 0.0, 196.0, 0.0, 0.0, 0.0, 13.0, 140.0, 19.0, 0.0, 0.0, 0.0, 1.6878032516749167E9, 0.0, 2023-06-26 13:14:11.674
57.0, 48117.94139360683, 55012.62754352421, 72882.37784890865, -82.96967541809981, -1793.0569402047327, -5503.245354085607, 24285.19270243558, 16900.511610568956, 0.0, 0.0, 0.0, 196.0, 0.0, 176.0, 0.0, 13.0, 140.0, 23.0, 0.0, 0.0, 0.0, 1.687803251678944E9, 0.0, 2023-06-26 13:14:11.678
58.0, 48135.55456823762, 55054.09002948881, 71819.84297273672, -57.42163150568384, -1791.2240971593974, -5407.825757005901, 24346.25766828748, 16931.267610939456, 0.0, 0.0, 0.0, 196.0, 30.0, 32.0, 0.0, 13.0, 140.0, 27.0, 0.0, 0.0, 0.0, 1.6878032516839836E9, 0.0, 2023-06-26 13:14:11.683
59.0, 48042.32544211453, 54986.0289676224, 75864.03350401325, -185.58653421241453, -1930.0507819713096, -5562.477476892171, 24283.71748730153, 16826.013246299415, 0.0, 0.0, 0.0, 196.0, 7.0, 16.0, 0.0, 13.0, 140.0, 31.0, 0.0, 0.0, 0.0, 1.6878032516869862E9, 0.0, 2023-06-26 13:14:11.686
60.0, 48003.45575850675, 54930.574289628785, 77269.51119536295, -220.34349684041703, -2050.4149258631383, -5600.609552932925, 24212.817753889296, 16771.050306683817, 0.0, 0.0, 0.0, 196.0, 0.0, 0.0, 0.0, 13.0, 140.0, 35.0, 0.0, 0.0, 0.0, 1.6878032516900156E9, 0.0, 2023-06-26 13:14:11.690
61.0, 48092.79568109461, 54991.84042118078, 73579.30524102513, -109.03180945298786, -1910.0906741727204, -5508.498014032604, 24279.694173299573, 16877.601072502264, 0.0, 0.0, 0.0, 196.0, 0.0, 0.0, 0.0, 13.0, 140.0, 39.0, 0.0, 0.0, 0.0, 1.687803251695022E9, 0.0, 2023-06-26 13:14:11.695
62.0, 48119.7071814188, 55032.52059608944, 71513.86994288802, -67.99400663304408, -1865.4765922399274, -5469.293054257996, 24354.86308990277, 16934.35215167429, 0.0, 0.0, 0.0, 196.0, 0.0, 0.0, 0.0, 13.0, 140.0, 43.0, 0.0, 0.0, 0.0, 1.6878032516990304E9, 0.0, 2023-06-26 13:14:11.699
63.0, 48040.69376476929, 54976.19420006206, 75134.87489639223, -187.7099499356687, -1891.9857611639216, -5600.833070377478, 24290.668879827128, 16841.61476392922, 0.0, 0.0, 0.0, 196.0, 0.0, 0.0, 0.0, 13.0, 140.0, 47.0, 0.0, 0.0, 0.0, 1.687803251703055E9, 0.0, 2023-06-26 13:14:11.703
64.0, 47981.46164196273, 54905.02624571637, 77433.01420605353, -259.8613810373999, -2027.549091285359, -5664.021451952631, 24201.574826428274, 16763.383658335646, 0.0, 0.0, 0.0, 196.0, 0.0, 0.0, 0.0, 13.0, 140.0, 51.0, 0.0, 0.0, 0.0, 1.6878032517070985E9, 0.0, 2023-06-26 13:14:11.707
65.0, 48065.1465732034, 54960.45857196553, 74341.70089265119, -148.79556283897912, -1902.6698950135583, -5534.336630622939, 24232.777861687882, 16830.014208556917, 0.0, 0.0, 0.0, 196.0, 0.0, 0.0, 0.0, 13.0, 140.0, 55.0, 0.0, 0.0, 0.0, 1.6878032517111003E9, 0.0, 2023-06-26 13:14:11.711
66.0, 48126.032725099656, 55030.665401299644, 71425.7593662452, -70.20682933411949, -1827.9033098105563, -5482.36882476435, 24335.48412746002, 16934.218041207558, 0.0, 0.0, 0.0, 196.0, 0.0, 0.0, 0.0, 13.0, 140.0, 59.0, 0.0, 0.0, 0.0, 1.687803251715196E9, 0.0, 2023-06-26 13:14:11.715
67.0, 48056.094116698994, 54996.22136309402, 74363.87382315086, -170.11912704934204, -1935.0128692403878, -5556.218988444685, 24295.206283951557, 16841.86063311823, 0.0, 0.0, 0.0, 196.0, 0.0, 144.0, 0.0, 13.0, 140.0, 63.0, 0.0, 0.0, 0.0, 1.6878032517202027E9, 0.0, 2023-06-26 13:14:11.720
68.0, 47983.29448500806, 54919.75604531242, 77440.50204044605, -257.1791717027631, -1999.0506171048426, -5667.642434554391, 24211.65546317762, 16758.868605955675, 0.0, 0.0, 0.0, 196.0, 29.0, 224.0, 0.0, 13.0, 140.0, 67.0, 0.0, 0.0, 0.0, 1.6878032517241957E9, 0.0, 2023-06-26 13:14:11.724
69.0, 48066.77825054863, 54978.42937450759, 75087.55625338033, -144.928711048211, -1940.2208256984743, -5562.2539594476175, 24245.31719032731, 16845.258098275437, 0.0, 0.0, 0.0, 196.0, 7.0, 16.0, 0.0, 13.0, 140.0, 71.0, 0.0, 0.0, 0.0, 1.6878032517291987E9, 0.0, 2023-06-26 13:14:11.729
70.0, 48136.89567290493, 55049.194997453094, 71517.82620165662, -44.524674954971665, -1861.587388704704, -5449.489408670594, 24367.06714237537, 16968.751486391007, 0.0, 0.0, 0.0, 196.0, 0.0, 0.0, 0.0, 13.0, 140.0, 75.0, 0.0, 0.0, 0.0, 1.6878032517332232E9, 0.0, 2023-06-26 13:14:11.733
71.0, 48082.2009542228, 55027.379694864714, 73589.85526440803, -125.21447243863017, -1921.288898144829, -5512.029589656543, 24327.34809247829, 16886.76528772894, 0.0, 0.0, 0.0, 196.0, 0.0, 0.0, 0.0, 13.0, 140.0, 79.0, 0.0, 0.0, 0.0, 1.6878032517362273E9, 0.0, 2023-06-26 13:14:11.736
72.0, 47984.523830953105, 54928.51792913889, 77272.34986690877, -235.22975864765152, -2012.416960289116, -5604.945791357254, 24221.13260282667, 16770.625623539167, 0.0, 0.0, 0.0, 196.0, 0.0, 0.0, 0.0, 13.0, 140.0, 83.0, 0.0, 0.0, 0.0, 1.6878032517412436E9, 0.0, 2023-06-26 13:14:11.741
73.0, 48032.691840254294, 54945.393496202654, 75787.74700018729, -189.34162728090612, -1955.1741427390748, -5565.0702792489865, 24199.540817682842, 16800.554609364823, 0.0, 0.0, 0.0, 196.0, 0.0, 0.0, 0.0, 13.0, 140.0, 87.0, 0.0, 0.0, 0.0, 1.687803251744264E9, 0.0, 2023-06-26 13:14:11.744
74.0, 48117.8072831401, 55022.86464248475, 71833.74575778792, -69.9386084006558, -1840.688507638992, -5475.216266538652, 24316.86512432875, 16929.25595393848, 0.0, 0.0, 0.0, 196.0, 0.0, 0.0, 0.0, 13.0, 140.0, 91.0, 0.0, 0.0, 0.0, 1.6878032517472699E9, 0.0, 2023-06-26 13:14:11.747
75.0, 48084.078500757045, 55026.59738380878, 72874.01829648236, -118.93363224668889, -1858.9498828589778, -5501.300752317996, 24308.729089347016, 16873.398944544668, 0.0, 0.0, 0.0, 196.0, 0.0, 0.0, 0.0, 13.0, 140.0, 95.0, 0.0, 0.0, 0.0, 1.687803251750298E9, 0.0, 2023-06-26 13:14:11.750
76.0, 47987.58601994348, 54939.380876944175, 76933.85504887761, -238.80603776050066, -1979.6269511731807, -5630.560890503036, 24215.388204501654, 16772.816094495785, 0.0, 0.0, 0.0, 196.0, 0.0, 0.0, 0.0, 13.0, 140.0, 99.0, 0.0, 0.0, 0.0, 1.6878032517553244E9, 0.0, 2023-06-26 13:14:11.755
77.0, 48022.141816871386, 54947.51691192591, 76435.47820275763, -198.32702855193958, -2021.1788441155963, -5616.859271151933, 24215.164687057102, 16800.487554131454, 0.0, 0.0, 0.0, 196.0, 0.0, 224.0, 0.0, 13.0, 140.0, 103.0, 0.0, 0.0, 0.0, 1.6878032517593307E9, 0.0, 2023-06-26 13:14:11.759
78.0, 48118.880166873954, 55029.05607569886, 72325.52883929359, -68.0387101219547, -1857.6311299361146, -5477.049109583987, 24324.66588314365, 16932.564012117866, 0.0, 0.0, 0.0, 196.0, 30.0, 16.0, 0.0, 13.0, 140.0, 107.0, 0.0, 0.0, 0.0, 1.6878032517633545E9, 0.0, 2023-06-26 13:14:11.763
79.0, 48103.09983528851, 55040.678982815625, 72259.12180651687, -95.55370754643769, -1840.6438041500812, -5509.101511132898, 24345.117729320256, 16923.15392770218, 0.0, 0.0, 0.0, 196.0, 7.0, 0.0, 0.0, 13.0, 140.0, 111.0, 0.0, 0.0, 0.0, 1.6878032517663877E9, 0.0, 2023-06-26 13:14:11.766
80.0, 47995.05150259155, 54947.58396715927, 76418.8932083718, -234.8050755030007, -1974.6872156485579, -5633.444265537771, 24233.694283210552, 16800.353443664724, 0.0, 0.0, 0.0, 196.0, 0.0, 0.0, 0.0, 13.0, 140.0, 115.0, 0.0, 0.0, 0.0, 1.6878032517703795E9, 0.0, 2023-06-26 13:14:11.770
81.0, 48003.947496884764, 54935.87165306469, 76930.2117145314, -212.0062961585875, -2021.290602837873, -5580.761203856612, 24213.71182366751, 16773.061963684795, 0.0, 0.0, 0.0, 196.0, 0.0, 0.0, 0.0, 13.0, 140.0, 119.0, 0.0, 0.0, 0.0, 1.687803251774428E9, 0.0, 2023-06-26 13:14:11.774
82.0, 48101.75873062119, 55011.26408711244, 72950.77418694188, -81.53916377296017, -1912.0129241958768, -5458.161885519253, 24298.044955497382, 16896.376537844724, 0.0, 0.0, 0.0, 196.0, 0.0, 0.0, 0.0, 13.0, 140.0, 123.0, 0.0, 0.0, 0.0, 1.6878032517784407E9, 0.0, 2023-06-26 13:14:11.778
83.0, 48115.86268137249, 55043.472950872536, 71821.58640880423, -75.6383032367591, -1811.4524258914503, -5473.2046095376745, 24342.212002541066, 16933.480433640532, 0.0, 0.0, 0.0, 196.0, 0.0, 0.0, 0.0, 13.0, 140.0, 127.0, 0.0, 0.0, 0.0, 1.6878032517824376E9, 0.0, 2023-06-26 13:14:11.782
84.0, 48015.212776090244, 54965.510066212424, 75800.889825927, -210.1287496243417, -1925.8039505248012, -5617.239250807674, 24250.100463640745, 16808.51183039091, 0.0, 0.0, 0.0, 196.0, 0.0, 0.0, 0.0, 13.0, 140.0, 131.0, 0.0, 0.0, 0.0, 1.6878032517874565E9, 0.0, 2023-06-26 13:14:11.787
85.0, 47987.89894436586, 54921.29831567983, 77270.62878258571, -242.0917441954308, -2047.486847339493, -5651.348012846472, 24203.944111340537, 16760.008544922894, 0.0, 0.0, 0.0, 196.0, 0.0, 0.0, 0.0, 13.0, 140.0, 135.0, 0.0, 0.0, 0.0, 1.6878032517914815E9, 0.0, 2023-06-26 13:14:11.791
86.0, 48109.447730713815, 55017.679037771115, 73657.17871870741, -86.85887895332324, -1959.2645119743959, -5508.699179732702, 24326.38696746671, 16919.622352078244, 0.0, 0.0, 0.0, 196.0, 0.0, 0.0, 0.0, 13.0, 140.0, 139.0, 0.0, 0.0, 0.0, 1.687803251795503E9, 0.0, 2023-06-26 13:14:11.795
87.0, 48115.79562613912, 55034.21932866804, 71507.25382652925, -72.84433517984571, -1815.5651468712267, -5470.500048458583, 24372.073933133357, 16965.085800300338, 0.0, 0.0, 0.0, 196.0, 1.0, 32.0, 0.0, 13.0, 140.0, 143.0, 0.0, 0.0, 0.0, 1.6878032517995224E9, 0.0, 2023-06-26 13:14:11.799
88.0, 48016.55388075756, 54964.59364468976, 75084.94109927907, -190.1239383368419, -1823.365905686129, -5529.307488120496, 24253.833204964783, 16821.498193919444, 0.0, 0.0, 0.0, 196.0, 30.0, 0.0, 0.0, 13.0, 140.0, 147.0, 0.0, 0.0, 0.0, 1.6878032518035512E9, 0.0, 2023-06-26 13:14:11.803
89.0, 47985.082624564486, 54921.92416452458, 77463.52433723502, -223.27157536406224, -1952.581340382259, -5570.032366518065, 24205.419326474588, 16776.23591139745, 0.0, 0.0, 0.0, 196.0, 6.0, 192.0, 0.0, 13.0, 140.0, 151.0, 0.0, 0.0, 0.0, 1.6878032518075764E9, 0.0, 2023-06-26 13:14:11.807
90.0, 48070.62275059495, 54980.32927278629, 74427.35277740392, -125.9520800056553, -1977.5035354499264, -5511.694313489713, 24265.478463826, 16862.692458950576, 0.0, 0.0, 0.0, 196.0, 0.0, 0.0, 0.0, 13.0, 140.0, 155.0, 0.0, 0.0, 0.0, 1.6878032518125849E9, 0.0, 2023-06-26 13:14:11.812
91.0, 48121.02593434166, 55032.94527923409, 71447.30644790012, -63.054271108421226, -1946.7475350794239, -5484.648702698792, 24370.73282846604, 16950.244241982015, 0.0, 0.0, 0.0, 196.0, 0.0, 0.0, 0.0, 13.0, 140.0, 159.0, 0.0, 0.0, 0.0, 1.6878032518166075E9, 0.0, 2023-06-26 13:14:11.816
92.0, 48051.422602107836, 54990.52166825792, 74297.22092118513, -165.04528105798735, -1806.266821177819, -5571.708747352212, 24276.18494942009, 16851.181310556094, 0.0, 0.0, 0.0, 196.0, 0.0, 0.0, 0.0, 13.0, 140.0, 163.0, 0.0, 0.0, 0.0, 1.6878032518206453E9, 0.0, 2023-06-26 13:14:11.820
93.0, 47979.31587449502, 54911.709417308506, 77442.04431081346, -252.48530536714858, -1975.4471749600382, -5678.50538235967, 24206.156934041614, 16768.79278049383, 0.0, 0.0, 0.0, 196.0, 0.0, 0.0, 0.0, 13.0, 140.0, 167.0, 0.0, 0.0, 0.0, 1.6878032518236575E9, 0.0, 2023-06-26 13:14:11.823
94.0, 48046.77343926113, 54957.66460390861, 75193.28000465393, -167.99571132608787, -2022.0729138938086, -5589.500735938637, 24249.809890962828, 16830.32713297929, 0.0, 0.0, 0.0, 196.0, 0.0, 0.0, 0.0, 13.0, 140.0, 171.0, 0.0, 0.0, 0.0, 1.6878032518266697E9, 0.0, 2023-06-26 13:14:11.826
95.0, 48127.57499546707, 55041.01425898245, 71608.61898763406, -35.472218450572306, -1783.4680418334058, -5351.9910993565445, 24336.15467979368, 16937.16847147566, 0.0, 0.0, 0.0, 196.0, 0.0, 0.0, 0.0, 13.0, 140.0, 175.0, 0.0, 0.0, 0.0, 1.6878032518306797E9, 0.0, 2023-06-26 13:14:11.830
96.0, 48087.72183510326, 55032.52059608944, 73550.00210404422, -125.14741720526425, -1804.9480682549558, -5490.258990557074, 24317.84860108478, 16881.44557254858, 0.0, 0.0, 0.0, 196.0, 0.0, 0.0, 0.0, 13.0, 140.0, 179.0, 0.0, 0.0, 0.0, 1.6878032518347232E9, 0.0, 2023-06-26 13:14:11.834
97.0, 47981.327531496, 54926.97565877148, 77247.3829683522, -258.09559322543066, -2024.3751435727054, -5648.486989556192, 24208.816791631794, 16772.79374275133, 0.0, 0.0, 0.0, 196.0, 0.0, 208.0, 0.0, 13.0, 140.0, 183.0, 0.0, 0.0, 0.0, 1.68780325183872E9, 0.0, 2023-06-26 13:14:11.838
98.0, 48026.03102040661, 54945.34879271374, 75873.15301575101, -210.97811591364336, -1989.9087536226218, -5651.21390237974, 24218.36098651421, 16821.207621241527, 0.0, 0.0, 0.0, 196.0, 30.0, 16.0, 0.0, 13.0, 140.0, 187.0, 0.0, 0.0, 0.0, 1.6878032518427408E9, 0.0, 2023-06-26 13:14:11.842
99.0, 48111.19116678133, 55022.909345973654, 71924.91852342112, -61.26613155199666, -1848.1316385426092, -5423.226108935608, 24340.87089787375, 16939.470701154554, 0.0, 0.0, 0.0, 196.0, 6.0, 208.0, 0.0, 13.0, 140.0, 191.0, 0.0, 0.0, 0.0, 1.6878032518467648E9, 0.0, 2023-06-26 13:14:11.846
100.0, 48086.55954439158, 55026.619735553235, 72834.36630181865, -104.47205358410521, -1850.9926618328884, -5468.1531152907755, 24343.35194150829, 16901.025700691425, 0.0, 0.0, 0.0, 196.0, 0.0, 0.0, 0.0, 13.0, 140.0, 195.0, 0.0, 0.0, 0.0, 1.6878032518507793E9, 0.0, 2023-06-26 13:14:11.850
101.0, 47990.29058102257, 54940.3196502113, 76898.06990600466, -217.30365959449526, -1995.2508205474403, -5602.017712833609, 24247.306495583834, 16805.963731523007, 0.0, 0.0, 0.0, 196.0, 0.0, 0.0, 0.0, 13.0, 140.0, 199.0, 0.0, 0.0, 0.0, 1.6878032518538084E9, 0.0, 2023-06-26 13:14:11.853
102.0, 48005.154491085355, 54929.54610938384, 76485.21083417069, -207.9606304121769, -1947.842770557734, -5628.057495124041, 24204.100573551725, 16787.188266180547, 0.0, 0.0, 0.0, 196.0, 0.0, 0.0, 0.0, 13.0, 140.0, 203.0, 0.0, 0.0, 0.0, 1.687803251858816E9, 0.0, 2023-06-26 13:14:11.858
103.0, 48107.74899813521, 55018.05901742685, 72399.60252041847, -74.11838461379821, -1874.1937725774972, -5481.854734641878, 24339.775662395437, 16931.669942339653, 0.0, 0.0, 0.0, 196.0, 0.0, 0.0, 0.0, 13.0, 140.0, 207.0, 0.0, 0.0, 0.0, 1.687803251862857E9, 0.0, 2023-06-26 13:14:11.862
104.0, 48089.04058802612, 55024.27280238543, 72220.542695587, -106.37195186280631, -1802.8693560206123, -5496.94216214921, 24339.28392401742, 16914.034415964416, 0.0, 0.0, 0.0, 196.0, 0.0, 0.0, 0.0, 13.0, 140.0, 211.0, 0.0, 0.0, 0.0, 1.6878032518668497E9, 0.0, 2023-06-26 13:14:11.866
105.0, 47995.073854336006, 54947.002821803435, 76368.28885892498, -222.1539881412969, -1944.8476368007227, -5608.455015236737, 24244.914858927117, 16799.146449464137, 0.0, 0.0, 0.0, 196.0, 0.0, 0.0, 0.0, 13.0, 140.0, 215.0, 0.0, 0.0, 0.0, 1.6878032518709111E9, 0.0, 2023-06-26 13:14:11.870
106.0, 47990.84937463396, 54919.95721101251, 76985.68874426947, -222.89159570832203, -2072.4984493849815, -5604.677570423791, 24211.99073934445, 16780.37098412168, 0.0, 0.0, 0.0, 196.0, 0.0, 0.0, 0.0, 13.0, 140.0, 219.0, 0.0, 0.0, 0.0, 1.6878032518749092E9, 0.0, 2023-06-26 13:14:11.874
107.0, 48095.09791077351, 54997.78598520589, 73046.01497006595, -92.53622204497124, -1858.7710689033354, -5494.014083625565, 24299.09548748678, 16900.33279661331, 0.0, 0.0, 0.0, 196.0, 0.0, 128.0, 0.0, 13.0, 140.0, 223.0, 0.0, 0.0, 0.0, 1.6878032518809364E9, 0.0, 2023-06-26 13:14:11.880
108.0, 48108.35249523551, 55028.51963383194, 71784.90719615307, -74.78893694745743, -1793.1463471825539, -5467.951949590677, 24343.888383375215, 16924.606791091777, 0.0, 0.0, 0.0, 196.0, 30.0, 48.0, 0.0, 13.0, 140.0, 227.0, 0.0, 0.0, 0.0, 1.6878032518839486E9, 0.0, 2023-06-26 13:14:11.883
109.0, 48010.74242719918, 54957.10581029723, 75726.3244064241, -192.7167406936575, -1890.4211390520502, -5588.517259182604, 24265.90314697065, 16821.386435197168, 0.0, 0.0, 0.0, 196.0, 6.0, 224.0, 0.0, 13.0, 140.0, 231.0, 0.0, 0.0, 0.0, 1.6878032518879669E9, 0.0, 2023-06-26 13:14:11.887
110.0, 47979.49468845066, 54907.12730969516, 77296.53445440943, -229.7982847450119, -1987.2712477768957, -5623.900070655354, 24197.41740195959, 16771.74321076193, 0.0, 0.0, 0.0, 196.0, 0.0, 0.0, 0.0, 13.0, 140.0, 235.0, 0.0, 0.0, 0.0, 1.6878032518919845E9, 0.0, 2023-06-26 13:14:11.891
111.0, 48086.22426822475, 54992.39921479216, 73728.99487364231, -98.92882095918905, -1930.1848924380413, -5486.258028299574, 24290.892397271684, 16892.33087209831, 0.0, 0.0, 0.0, 196.0, 0.0, 0.0, 0.0, 13.0, 140.0, 239.0, 0.0, 0.0, 0.0, 1.687803251896005E9, 0.0, 2023-06-26 13:14:11.896
112.0, 48140.02491712868, 55065.17649473864, 71497.8213903691, -29.861930592290236, -1868.6281882081257, -5432.636193351293, 24403.83576200435, 16985.89527438823, 0.0, 0.0, 0.0, 196.0, 0.0, 0.0, 0.0, 13.0, 140.0, 243.0, 0.0, 0.0, 0.0, 1.6878032519000509E9, 0.0, 2023-06-26 13:14:11.900
113.0, 48027.84151170749, 54978.518781485414, 74972.73534211342, -179.4174527427498, -1883.6038569931816, -5609.058512337031, 24302.828228810817, 16854.355258268744, 0.0, 0.0, 0.0, 196.0, 0.0, 0.0, 0.0, 13.0, 140.0, 247.0, 0.0, 0.0, 0.0, 1.6878032519040682E9, 0.0, 2023-06-26 13:14:11.904
114.0, 47957.14294399535, 54891.10110892071, 77417.85972331282, -261.53776187154796, -1971.58032316927, -5656.824190238022, 24194.69048913604, 16768.61396653819, 0.0, 0.0, 0.0, 196.0, 0.0, 0.0, 0.0, 13.0, 140.0, 251.0, 0.0, 0.0, 0.0, 1.6878032519081068E9, 0.0, 2023-06-26 13:14:11.908
115.0, 48053.21074166426, 54962.53728419987, 74471.56452793653, -133.9316527761999, -1893.617438509159, -5521.037342672032, 24238.097576868247, 16864.57000548482, 0.0, 0.0, 0.0, 196.0, 0.0, 0.0, 0.0, 13.0, 140.0, 255.0, 0.0, 0.0, 0.0, 1.687803251911099E9, 0.0, 2023-06-26 13:14:11.911
116.0, 48119.84129188553, 55037.32622114733, 71459.93518351736, -42.44596272062811, -1822.2483184633636, -5435.787789319491, 24353.164357324167, 16958.581442663843, 0.0, 0.0, 0.0, 196.0, 0.0, 0.0, 0.0, 13.0, 141.0, 3.0, 0.0, 0.0, 0.0, 1.6878032519141204E9, 0.0, 2023-06-26 13:14:11.914
117.0, 48052.18256141932, 55002.61396200824, 74217.04521382395, -132.07645798640942, -1876.0266156228324, -5518.735112993135, 24309.2878829584, 16865.86640666323, 0.0, 0.0, 0.0, 196.0, 0.0, 112.0, 0.0, 13.0, 141.0, 7.0, 0.0, 0.0, 0.0, 1.6878032519181983E9, 0.0, 2023-06-26 13:14:11.918
118.0, 47962.216789986705, 54907.17201318408, 77412.2270837101, -233.48632258013757, -1997.7318641819793, -5605.951619857743, 24197.797381615328, 16764.344783347224, 0.0, 0.0, 0.0, 196.0, 30.0, 48.0, 0.0, 13.0, 141.0, 11.0, 0.0, 0.0, 0.0, 1.687803251925264E9, 0.0, 2023-06-26 13:14:11.925
119.0, 48037.54216880109, 54956.03292656338, 75225.75708934749, -147.1638854937417, -1930.8330930272452, -5543.0538109605095, 24237.31526581231, 16837.367932482714, 0.0, 0.0, 0.0, 196.0, 6.0, 240.0, 0.0, 13.0, 141.0, 15.0, 0.0, 0.0, 0.0, 1.6878032519292035E9, 0.0, 2023-06-26 13:14:11.929
120.0, 48107.972515579764, 55023.199918651575, 71606.78614458872, -49.71027966860291, -1833.4241906910172, -5452.439838938694, 24348.895174133206, 16951.29477397141, 0.0, 0.0, 0.0, 196.0, 0.0, 0.0, 0.0, 13.0, 141.0, 19.0, 0.0, 0.0, 0.0, 1.6878032519321928E9, 0.0, 2023-06-26 13:14:11.932
121.0, 48066.55473310408, 55014.63920052519, 73453.59903020848, -125.81796953892345, -1902.0440461688097, -5544.95370923921, 24330.991426824505, 16893.5378662989, 0.0, 0.0, 0.0, 196.0, 0.0, 0.0, 0.0, 13.0, 141.0, 23.0, 0.0, 0.0, 0.0, 1.6878032519352117E9, 0.0, 2023-06-26 13:14:11.935
122.0, 47965.48014467718, 54916.35858015521, 77201.60659570774, -246.96442448668773, -2028.5996232747584, -5693.346940677994, 24232.308475054324, 16779.543969576833, 0.0, 0.0, 0.0, 196.0, 0.0, 0.0, 0.0, 13.0, 141.0, 27.0, 0.0, 0.0, 0.0, 1.687803251938233E9, 0.0, 2023-06-26 13:14:11.938
123.0, 48015.771569701625, 54939.023249032885, 75928.74180421136, -175.6847114187135, -1910.6718195285584, -5563.930340281766, 24216.30462602432, 16817.854859573228, 0.0, 0.0, 0.0, 196.0, 0.0, 0.0, 0.0, 13.0, 141.0, 31.0, 0.0, 0.0, 0.0, 1.68780325194225E9, 0.0, 2023-06-26 13:14:11.942
124.0, 48116.04149532813, 55029.30194488788, 71956.92622148112, -40.27784350846333, -1790.754710525836, -5406.775225016502, 24337.115804805257, 16952.099436771805, 0.0, 0.0, 0.0, 196.0, 0.0, 0.0, 0.0, 13.0, 141.0, 35.0, 0.0, 0.0, 0.0, 1.6878032519462676E9, 0.0, 2023-06-26 13:14:11.946
125.0, 48072.65675934038, 55017.90255521567, 72787.07001055122, -106.99780070755492, -1855.2394932793968, -5503.290057574518, 24326.834002355816, 16899.282264623915, 0.0, 0.0, 0.0, 196.0, 0.0, 0.0, 0.0, 13.0, 141.0, 39.0, 0.0, 0.0, 0.0, 1.6878032519512975E9, 0.0, 2023-06-26 13:14:11.951
126.0, 47955.75713583912, 54906.926143995064, 76862.48592883181, -242.51642734008163, -1940.8690262876783, -5637.489931284182, 24211.119021310693, 16763.562472291287, 0.0, 0.0, 0.0, 196.0, 0.0, 0.0, 0.0, 13.0, 141.0, 43.0, 0.0, 0.0, 0.0, 1.6878032519554412E9, 0.0, 2023-06-26 13:14:11.955
127.0, 47989.910601366835, 54917.92320226708, 76546.34285525595, -208.69823797920205, -2058.349795144772, -5631.052628881053, 24209.576750943274, 16778.47108584298, 0.0, 0.0, 0.0, 196.0, 0.0, 176.0, 0.0, 13.0, 141.0, 47.0, 0.0, 0.0, 0.0, 1.687803251959313E9, 0.0, 2023-06-26 13:14:11.959
128.0, 48087.0512827696, 54994.187354348585, 72463.64026828292, -71.5032305125273, -1926.295688902818, -5471.438821725706, 24322.117784275746, 16927.02077949295, 0.0, 0.0, 0.0, 196.0, 30.0, 64.0, 0.0, 13.0, 141.0, 51.0, 0.0, 0.0, 0.0, 1.6878032519633508E9, 0.0, 2023-06-26 13:14:11.963
129.0, 48090.09112001552, 55019.288363371896, 72184.80225620297, -80.6897974836585, -1741.558520979705, -5465.426202467228, 24322.073080786835, 16920.24820092299, 0.0, 0.0, 0.0, 196.0, 6.0, 240.0, 0.0, 13.0, 141.0, 55.0, 0.0, 0.0, 0.0, 1.6878032519673707E9, 0.0, 2023-06-26 13:14:11.967
130.0, 47993.755101413146, 54945.527606669384, 76325.03823340396, -198.28232506302896, -1915.6339067976364, -5590.841840605955, 24245.920687427606, 16811.775185081387, 0.0, 0.0, 0.0, 196.0, 0.0, 0.0, 0.0, 13.0, 141.0, 59.0, 0.0, 0.0, 0.0, 1.6878032519713829E9, 0.0, 2023-06-26 13:14:11.971
131.0, 47990.89407812287, 54925.00870525941, 77017.65173884055, -202.41739778726077, -1993.5297362243816, -5618.379189774894, 24217.824544647283, 16798.3641384082, 0.0, 0.0, 0.0, 196.0, 0.0, 0.0, 0.0, 13.0, 141.0, 63.0, 0.0, 0.0, 0.0, 1.687803251976408E9, 0.0, 2023-06-26 13:14:11.976
132.0, 48083.0503205121, 54997.94244741708, 73108.17517139616, -82.63439925127021, -1890.3764355631395, -5477.60790319537, 24302.738821832994, 16905.96543621605, 0.0, 0.0, 0.0, 196.0, 0.0, 0.0, 0.0, 13.0, 141.0, 67.0, 0.0, 0.0, 0.0, 1.6878032519804285E9, 0.0, 2023-06-26 13:14:11.980
133.0, 48105.71498938978, 55037.28151765842, 71762.33193425322, -56.54991347192687, -1799.7624635413247, -5447.947138303178, 24364.29552606291, 16954.088742028325, 0.0, 0.0, 0.0, 196.0, 0.0, 0.0, 0.0, 13.0, 141.0, 71.0, 0.0, 0.0, 0.0, 1.6878032519844325E9, 0.0, 2023-06-26 13:14:11.984
134.0, 47992.86103163494, 54945.97464155849, 75652.51894623268, -204.764330955068, -1913.3987323521058, -5622.089579354475, 24257.18596663308, 16828.00255155594, 0.0, 0.0, 0.0, 196.0, 0.0, 0.0, 0.0, 13.0, 141.0, 75.0, 0.0, 0.0, 0.0, 1.6878032519874475E9, 0.0, 2023-06-26 13:14:11.987
135.0, 47964.16139175432, 54902.321684637274, 77308.38087897074, -229.68652602273536, -1989.2829047778732, -5649.336355845494, 24194.958710069503, 16778.538141076344, 0.0, 0.0, 0.0, 196.0, 0.0, 0.0, 0.0, 13.0, 141.0, 79.0, 0.0, 0.0, 0.0, 1.6878032519914734E9, 0.0, 2023-06-26 13:14:11.991
136.0, 48064.207799936274, 54977.22238030701, 73818.11127878563, -90.72573074409136, -1928.776732537357, -5465.135629789309, 24261.164577146123, 16877.71283122454, 0.0, 0.0, 0.0, 196.0, 0.0, 0.0, 0.0, 13.0, 141.0, 83.0, 0.0, 0.0, 0.0, 1.6878032519944797E9, 0.0, 2023-06-26 13:14:11.994
137.0, 48112.97930633775, 55039.51669210395, 71526.90100990546, -35.24870100601924, -1871.7574324318687, -5426.735332815091, 24374.107941878792, 16963.163550277182, 0.0, 0.0, 0.0, 196.0, 0.0, 176.0, 0.0, 13.0, 141.0, 87.0, 0.0, 0.0, 0.0, 1.687803251998498E9, 0.0, 2023-06-26 13:14:11.998
138.0, 48029.22731986372, 54981.29039779787, 74943.11928071015, -157.73626062110193, -1805.8868415220788, -5547.010069729098, 24292.52407461692, 16852.745932667964, 0.0, 0.0, 0.0, 196.0, 30.0, 48.0, 0.0, 13.0, 141.0, 91.0, 0.0, 0.0, 0.0, 1.6878032520025318E9, 0.0, 2023-06-26 13:14:12.002
139.0, 47967.26828423361, 54907.30612365081, 77463.70315119067, -226.2890608655287, -1975.3801197266723, -5636.864082439432, 24199.83139036076, 16769.41862933858, 0.0, 0.0, 0.0, 196.0, 7.0, 0.0, 0.0, 13.0, 141.0, 95.0, 0.0, 0.0, 0.0, 1.6878032520065591E9, 0.0, 2023-06-26 13:14:12.006
140.0, 48047.734564272716, 54961.1738277881, 74574.09197975302, -126.6226323393145, -1946.2334449569519, -5543.366735382883, 24243.618457748707, 16857.14922632566, 0.0, 0.0, 0.0, 196.0, 0.0, 0.0, 0.0, 13.0, 141.0, 99.0, 0.0, 0.0, 0.0, 1.6878032520105848E9, 0.0, 2023-06-26 13:14:12.010
141.0, 48106.63141091244, 55023.11051167375, 71477.95068954834, -49.21854129058615, -1806.9373735114782, -5429.9316322722, 24358.931107393637, 16953.932279817138, 0.0, 0.0, 0.0, 196.0, 0.0, 0.0, 0.0, 13.0, 141.0, 103.0, 0.0, 0.0, 0.0, 1.6878032520145984E9, 0.0, 2023-06-26 13:14:12.014
142.0, 48042.25838688116, 54988.30884555684, 74156.06965494987, -158.92090307723322, -1861.810906149257, -5552.709764565202, 24308.751441091474, 16876.215264346036, 0.0, 0.0, 0.0, 196.0, 0.0, 0.0, 0.0, 13.0, 141.0, 107.0, 0.0, 0.0, 0.0, 1.6878032520176647E9, 0.0, 2023-06-26 13:14:12.017
143.0, 47970.956322068734, 54916.20211794402, 77399.75481030403, -233.84395049142248, -1976.9894453274544, -5637.311117328539, 24219.27740803688, 16787.478838858467, 0.0, 0.0, 0.0, 196.0, 0.0, 0.0, 0.0, 13.0, 141.0, 111.0, 0.0, 0.0, 0.0, 1.6878032520216353E9, 0.0, 2023-06-26 13:14:12.021
144.0, 48038.50329381267, 54958.75983938693, 75288.67724998918, -148.7285076056132, -1981.2362767739628, -5529.32983986495, 24248.535841528876, 16844.408731986136, 0.0, 0.0, 0.0, 196.0, 0.0, 0.0, 0.0, 13.0, 141.0, 115.0, 0.0, 0.0, 0.0, 1.687803252026652E9, 0.0, 2023-06-26 13:14:12.026
145.0, 48114.4545214718, 55026.776197764426, 71596.57139737265, -57.68985243914753, -1903.4969095584047, -5508.5427175215145, 24377.90773843619, 16977.625128939766, 0.0, 0.0, 0.0, 196.0, 0.0, 0.0, 0.0, 13.0, 141.0, 119.0, 0.0, 0.0, 0.0, 1.6878032520306785E9, 0.0, 2023-06-26 13:14:12.030
146.0, 48063.023157480144, 55002.27868584141, 73376.88784323787, -124.0298299824989, -1863.8672666391453, -5496.584534237925, 24350.862127645272, 16905.25018039348, 0.0, 0.0, 0.0, 196.0, 0.0, 0.0, 0.0, 13.0, 141.0, 123.0, 0.0, 0.0, 0.0, 1.6878032520346892E9, 0.0, 2023-06-26 13:14:12.034
147.0, 47955.17599048329, 54898.25366714641, 77170.9176505706, -229.08302892244208, -1952.7825060823568, -5576.9167038103, 24224.954751128527, 16773.956033463008, 0.0, 0.0, 0.0, 196.0, 0.0, 128.0, 0.0, 13.0, 141.0, 127.0, 0.0, 0.0, 0.0, 1.6878032520387056E9, 0.0, 2023-06-26 13:14:12.038
148.0, 47998.225450304206, 54916.49269062194, 75988.95740377395, -179.35039750938387, -1893.5280315313378, -5547.14418019583, 24221.110251082213, 16807.260132701413, 0.0, 0.0, 0.0, 196.0, 30.0, 48.0, 0.0, 13.0, 141.0, 131.0, 0.0, 0.0, 0.0, 1.6878032520437305E9, 0.0, 2023-06-26 13:14:12.043
149.0, 48097.46719568577, 55007.620752766226, 71982.63072760472, -51.565474458393396, -1807.1608909560314, -5446.270757469029, 24331.729034391527, 16948.12082625876, 0.0, 0.0, 0.0, 196.0, 6.0, 240.0, 0.0, 13.0, 141.0, 135.0, 0.0, 0.0, 0.0, 1.6878032520477505E9, 0.0, 2023-06-26 13:14:12.047
150.0, 48074.914285530365, 55016.15911914816, 72694.37732629506, -91.23982086656343, -1798.331951896185, -5500.56314475097, 24353.186709068625, 16921.477546868035, 0.0, 0.0, 0.0, 196.0, 0.0, 0.0, 0.0, 13.0, 141.0, 139.0, 0.0, 0.0, 0.0, 1.6878032520524733E9, 0.0, 2023-06-26 13:14:12.052
151.0, 47971.805688358036, 54921.834757546756, 76771.89430855446, -225.9537846986991, -1937.3150989192843, -5642.854349953455, 24253.095597397758, 16804.62262685569, 0.0, 0.0, 0.0, 196.0, 0.0, 0.0, 0.0, 13.0, 141.0, 143.0, 0.0, 0.0, 0.0, 1.687803252055772E9, 0.0, 2023-06-26 13:14:12.055
152.0, 47994.31389502453, 54918.8619755342, 76567.66641946632, -204.1161303658641, -1999.609410716225, -5626.917556156821, 24213.30949226731, 16793.983196494963, 0.0, 0.0, 0.0, 196.0, 0.0, 0.0, 0.0, 13.0, 141.0, 147.0, 0.0, 0.0, 0.0, 1.6878032520597856E9, 0.0, 2023-06-26 13:14:12.059
153.0, 48088.30298045909, 54997.22719159451, 72518.64791138744, -66.09410835434298, -1884.4085197935726, -5451.903397071766, 24315.85929582826, 16916.940142743606, 0.0, 0.0, 0.0, 196.0, 0.0, 0.0, 0.0, 13.0, 141.0, 151.0, 0.0, 0.0, 0.0, 1.6878032520638006E9, 0.0, 2023-06-26 13:14:12.063
