%OpenBCI Raw EEG Data
%Number of channels = 8
%Sample Rate = 250 Hz
%Board = OpenBCI_GUI$BoardCytonSerial
Sample Index, EXG Channel 0, EXG Channel 1, EXG Channel 2, EXG Channel 3, EXG Channel 4, EXG Channel 5, EXG Channel 6, EXG Channel 7, Accel Channel 0, Accel Channel 1, Accel Channel 2, Other, Other, Other, Other, Other, Other, Other, Analog Channel 0, Analog Channel 1, Analog Channel 2, Timestamp, Other, Timestamp (Formatted)
226.0, 48105.44676845631, 54549.566453643616, 77390.76940903299, 343.27809134460585, -1571.1935247413546, -5493.589400480914, 24372.096284877814, 17261.000545144147, 0.0, 0.0, 0.0, 196.0, 0.0, 0.0, 0.0, 13.0, 194.0, 172.0, 0.0, 0.0, 0.0, 1.6878032903866062E9, 0.0, 2023-06-26 13:14:50.386
227.0, 48189.44462411936, 54609.75970146176, 74731.3365019961, 449.0018426182083, -1534.0672772010896, -5374.521657767494, 24422.70063432463, 17352.933270088826, 0.0, 0.0, 0.0, 196.0, 2.0, 0.0, 0.0, 13.0, 194.0, 176.0, 0.0, 0.0, 0.0, 1.6878032903866363E9, 0.0, 2023-06-26 13:14:50.386
0.0, 0.0, 0.0, 0.0, 0.0, 0.0, 0.0, 0.0, 0.0, 0.0, 0.0, 0.0, 196.0, 0.0, 0.0, 0.0, 14.0, 35.0, 181.0, 0.0, 0.0, 0.0, 1.687803290491172E9, 0.0, 2023-06-26 13:14:50.491
1.0, 48681.00418818047, 54539.55287212764, 73395.9762330027, 617.5339958112236, -1737.781076166758, -5172.372480913697, 24281.66112681164, 17488.876579866002, 0.0, 0.0, 0.0, 196.0, 0.0, 0.0, 0.0, 14.0, 35.0, 196.0, 0.0, 0.0, 0.0, 1.687803290507227E9, 0.0, 2023-06-26 13:14:50.507
2.0, 48641.598062705765, 54513.915421237405, 76415.00400483656, 551.9316258348973, -1809.8431002906682, -5217.612411691238, 24223.099556338737, 17428.862146003503, 0.0, 0.0, 0.0, 196.0, 0.0, 0.0, 0.0, 14.0, 35.0, 200.0, 0.0, 0.0, 0.0, 1.6878032905102437E9, 0.0, 2023-06-26 13:14:50.510
3.0, 48626.46593170952, 54483.02531040017, 76907.30117646471, 543.2144454973276, -1838.073353537721, -5230.308202541853, 24197.529160681865, 17419.295599376634, 0.0, 0.0, 0.0, 196.0, 0.0, 0.0, 0.0, 14.0, 35.0, 203.0, 0.0, 0.0, 0.0, 1.6878032905142355E9, 0.0, 2023-06-26 13:14:50.514
4.0, 48693.69997903109, 54537.89884303795, 73476.17429210834, 647.4406298924243, -1774.4155853290065, -5137.414352585596, 24290.043030982382, 17535.211746121855, 0.0, 0.0, 0.0, 196.0, 0.0, 0.0, 0.0, 14.0, 35.0, 207.0, 0.0, 0.0, 0.0, 1.6878032905182672E9, 0.0, 2023-06-26 13:14:50.518
5.0, 48674.83510671081, 54533.60730810253, 73000.9762049885, 609.26385036276, -1772.2474661168417, -5152.613538815205, 24303.09644974428, 17512.167097588434, 0.0, 0.0, 0.0, 196.0, 0.0, 0.0, 0.0, 14.0, 35.0, 211.0, 0.0, 0.0, 0.0, 1.6878032905212715E9, 0.0, 2023-06-26 13:14:50.521
6.0, 48626.42122822061, 54498.29155186314, 75835.8479542551, 513.7995497941434, -1827.4339231769948, -5259.723098245036, 24212.773050400385, 17397.949683421815, 0.0, 0.0, 0.0, 196.0, 0.0, 0.0, 0.0, 14.0, 35.0, 215.0, 0.0, 0.0, 0.0, 1.687803290525284E9, 0.0, 2023-06-26 13:14:50.525
7.0, 48613.636030392176, 54475.06808937408, 77204.28880504236, 503.56245083361284, -1852.8702083671342, -5282.007787466978, 24178.619584872675, 17382.929311147847, 0.0, 0.0, 0.0, 196.0, 1.0, 0.0, 0.0, 14.0, 35.0, 219.0, 0.0, 0.0, 0.0, 1.6878032905293212E9, 0.0, 2023-06-26 13:14:50.529
8.0, 48679.6407317687, 54522.02910447468, 73970.99721085993, 625.1112371815726, -1727.8345498841466, -5125.433817557552, 24265.45611208154, 17500.857114894046, 0.0, 0.0, 0.0, 196.0, 29.0, 160.0, 0.0, 14.0, 35.0, 223.0, 0.0, 0.0, 0.0, 1.68780329053433E9, 0.0, 2023-06-26 13:14:50.534
9.0, 48683.21701088155, 54535.1719302144, 72754.39176015757, 639.2151879328713, -1723.0959800596215, -5124.807968712803, 24320.597865652784, 17530.42847280842, 0.0, 0.0, 0.0, 196.0, 7.0, 240.0, 0.0, 14.0, 35.0, 227.0, 0.0, 0.0, 0.0, 1.6878032905383627E9, 0.0, 2023-06-26 13:14:50.538
10.0, 48664.799173450374, 54530.29924992314, 75255.77548215097, 571.489402233291, -1797.5719925847045, -5218.551184958361, 24275.80496976435, 17449.22458520229, 0.0, 0.0, 0.0, 196.0, 0.0, 0.0, 0.0, 14.0, 35.0, 231.0, 0.0, 0.0, 0.0, 1.6878032905423741E9, 0.0, 2023-06-26 13:14:50.542
11.0, 48625.41539972012, 54482.44416504433, 77309.36435572676, 532.9996982812522, -1863.3978800055838, -5229.995278119478, 24211.968387599994, 17408.365596337986, 0.0, 0.0, 0.0, 196.0, 0.0, 0.0, 0.0, 14.0, 35.0, 235.0, 0.0, 0.0, 0.0, 1.687803290546406E9, 0.0, 2023-06-26 13:14:50.546
12.0, 48662.31812981584, 54501.800775742624, 74546.35346488398, 605.0393706607068, -1823.6564783640479, -5183.637760119172, 24235.169498344603, 17466.301317966143, 0.0, 0.0, 0.0, 196.0, 0.0, 0.0, 0.0, 14.0, 35.0, 239.0, 0.0, 0.0, 0.0, 1.68780329054953E9, 0.0, 2023-06-26 13:14:50.549
13.0, 48686.614476038754, 54530.902747023436, 72617.66613932444, 650.5698741161674, -1711.048389798211, -5133.368686839186, 24308.57262713583, 17532.440129809398, 0.0, 0.0, 0.0, 196.0, 0.0, 0.0, 0.0, 14.0, 35.0, 243.0, 0.0, 0.0, 0.0, 1.687803290553435E9, 0.0, 2023-06-26 13:14:50.553
14.0, 48658.11600185824, 54519.704523051325, 74670.2268326553, 581.9947221272853, -1767.9335794369674, -5222.909775127146, 24276.542577331376, 17456.13127423898, 0.0, 0.0, 0.0, 196.0, 0.0, 0.0, 0.0, 14.0, 35.0, 247.0, 0.0, 0.0, 0.0, 1.6878032905574455E9, 0.0, 2023-06-26 13:14:50.557
15.0, 48610.73030361299, 54468.38491778194, 77240.29746535986, 526.6965063448556, -1897.4172350665613, -5277.47038334255, 24207.49803870893, 17372.021659853657, 0.0, 0.0, 0.0, 196.0, 0.0, 0.0, 0.0, 14.0, 35.0, 251.0, 0.0, 0.0, 0.0, 1.687803290561482E9, 0.0, 2023-06-26 13:14:50.561
16.0, 48659.501810014466, 54494.08942390555, 75155.70672222457, 602.3795130705254, -1855.395955490584, -5194.411300946629, 24232.889620410162, 17425.576439568573, 0.0, 0.0, 0.0, 196.0, 0.0, 0.0, 0.0, 14.0, 35.0, 255.0, 0.0, 0.0, 0.0, 1.687803290565493E9, 0.0, 2023-06-26 13:14:50.565
17.0, 48689.07316792884, 54525.98536324327, 72613.75458404477, 662.0139672772846, -1666.3672526320522, -5163.275320920387, 24317.647435384686, 17532.104853642566, 0.0, 0.0, 0.0, 196.0, 0.0, 32.0, 0.0, 14.0, 36.0, 3.0, 0.0, 0.0, 0.0, 1.6878032905705094E9, 0.0, 2023-06-26 13:14:50.570
18.0, 48685.072205671335, 54546.10193325305, 74142.9491809546, 632.3084988961815, -1725.174692293965, -5139.940099709046, 24304.52696138942, 17506.735623685792, 0.0, 0.0, 0.0, 196.0, 30.0, 16.0, 0.0, 14.0, 36.0, 7.0, 0.0, 0.0, 0.0, 1.6878032905745444E9, 0.0, 2023-06-26 13:14:50.574
19.0, 48625.86243460923, 54491.5636767821, 77035.66724487153, 561.229951528305, -1814.7604840708357, -5222.105112326755, 24235.79534718935, 17422.49189883374, 0.0, 0.0, 0.0, 196.0, 8.0, 0.0, 0.0, 14.0, 36.0, 11.0, 0.0, 0.0, 0.0, 1.6878032905775397E9, 0.0, 2023-06-26 13:14:50.577
20.0, 48657.69131871359, 54499.31973210809, 75814.88201795603, 603.4971002932907, -1832.2618999793413, -5177.334568182775, 24243.21612634851, 17453.560823626616, 0.0, 0.0, 0.0, 196.0, 0.0, 0.0, 0.0, 14.0, 36.0, 15.0, 0.0, 0.0, 0.0, 1.6878032905815537E9, 0.0, 2023-06-26 13:14:50.581
21.0, 48700.02552271194, 54535.19428195886, 72753.54239386827, 679.2471622523263, -1762.524457278783, -5106.68070395955, 24344.134252564225, 17549.85213874008, 0.0, 0.0, 0.0, 196.0, 0.0, 0.0, 0.0, 14.0, 36.0, 19.0, 0.0, 0.0, 0.0, 1.6878032905855885E9, 0.0, 2023-06-26 13:14:50.585
22.0, 48680.959484691564, 54534.74724706975, 73637.95621847585, 619.9926877013073, -1752.7790966962693, -5170.651396590638, 24318.027415040426, 17492.98930084578, 0.0, 0.0, 0.0, 196.0, 0.0, 0.0, 0.0, 14.0, 36.0, 23.0, 0.0, 0.0, 0.0, 1.6878032905896053E9, 0.0, 2023-06-26 13:14:50.589
23.0, 48620.81094036233, 54485.0593191456, 76634.92281853233, 544.6896606313778, -1812.234736947386, -5235.247938066475, 24245.13837637167, 17412.59007604004, 0.0, 0.0, 0.0, 196.0, 0.0, 0.0, 0.0, 14.0, 36.0, 27.0, 0.0, 0.0, 0.0, 1.6878032905936248E9, 0.0, 2023-06-26 13:14:50.593
24.0, 48647.0295366084, 54491.40721457091, 76330.08972765085, 571.3552917665592, -1861.0285950933214, -5256.0797638988215, 24235.929457656082, 17424.369445367985, 0.0, 0.0, 0.0, 196.0, 0.0, 0.0, 0.0, 14.0, 36.0, 31.0, 0.0, 0.0, 0.0, 1.687803290598632E9, 0.0, 2023-06-26 13:14:50.598
25.0, 48689.5425545624, 54521.40325562993, 73016.64477785167, 656.8507143081086, -1743.7489919363252, -5161.598940086239, 24307.81266782435, 17522.1359756155, 0.0, 0.0, 0.0, 196.0, 0.0, 0.0, 0.0, 14.0, 36.0, 35.0, 0.0, 0.0, 0.0, 1.6878032906026819E9, 0.0, 2023-06-26 13:14:50.602
26.0, 48675.59506602229, 54523.23609867527, 73223.53252453, 621.1996819018939, -1771.3533963386294, -5154.468733604996, 24291.42883913861, 17480.78524837318, 0.0, 0.0, 0.0, 196.0, 0.0, 0.0, 0.0, 14.0, 36.0, 39.0, 0.0, 0.0, 0.0, 1.687803290605678E9, 0.0, 2023-06-26 13:14:50.605
27.0, 48631.15979804514, 54486.91451393539, 76170.31945828431, 541.2251402408052, -1835.949937814467, -5250.827103951825, 24236.801175689838, 17402.35297707951, 0.0, 0.0, 0.0, 196.0, 255.0, 224.0, 0.0, 14.0, 36.0, 43.0, 0.0, 0.0, 0.0, 1.687803290609704E9, 0.0, 2023-06-26 13:14:50.609
28.0, 48635.25016728046, 54475.49277251873, 76786.60175640605, 551.909274090442, -1851.8867316111007, -5217.321839013319, 24211.1637247996, 17407.27036085968, 0.0, 0.0, 0.0, 196.0, 30.0, 16.0, 0.0, 14.0, 36.0, 47.0, 0.0, 0.0, 0.0, 1.687803290613733E9, 0.0, 2023-06-26 13:14:50.613
29.0, 48710.64260132821, 54545.31962219711, 73418.327977458, 673.9945023053292, -1779.6458935315484, -5108.357084793697, 24307.969130035537, 17523.432376793906, 0.0, 0.0, 0.0, 196.0, 7.0, 176.0, 0.0, 14.0, 36.0, 51.0, 0.0, 0.0, 0.0, 1.6878032906177373E9, 0.0, 2023-06-26 13:14:50.617
30.0, 48701.97012447955, 54552.919215311915, 72901.53329390685, 646.9488915144076, -1759.0599368882106, -5161.464829619507, 24329.493859945997, 17516.65979822395, 0.0, 0.0, 0.0, 196.0, 0.0, 0.0, 0.0, 14.0, 36.0, 55.0, 0.0, 0.0, 0.0, 1.6878032906217675E9, 0.0, 2023-06-26 13:14:50.621
31.0, 48641.15102781666, 54505.19824089983, 75645.99223685173, 559.1512392939615, -1759.529323521772, -5221.2110425485425, 24260.80694923484, 17435.768835040195, 0.0, 0.0, 0.0, 196.0, 0.0, 0.0, 0.0, 14.0, 36.0, 59.0, 0.0, 0.0, 0.0, 1.6878032906257677E9, 0.0, 2023-06-26 13:14:50.625
32.0, 48626.30946949834, 54480.23134234326, 77081.77889368283, 546.9695385658191, -1831.747809856869, -5251.430601052118, 24234.141318099657, 17413.43944232934, 0.0, 0.0, 0.0, 196.0, 0.0, 0.0, 0.0, 14.0, 36.0, 63.0, 0.0, 0.0, 0.0, 1.6878032906308055E9, 0.0, 2023-06-26 13:14:50.630
33.0, 48691.73302551902, 54527.259412677224, 73932.88748656363, 638.7681530437652, -1772.2251143723863, -5173.892399536658, 24285.684440813595, 17495.447992735862, 0.0, 0.0, 0.0, 196.0, 0.0, 0.0, 0.0, 14.0, 36.0, 67.0, 0.0, 0.0, 0.0, 1.6878032906338155E9, 0.0, 2023-06-26 13:14:50.633
34.0, 48693.99055170901, 54542.860930307026, 72659.46390145588, 657.1859904749383, -1764.2455416018418, -5101.7633201793815, 24323.414185454152, 17524.907591927957, 0.0, 0.0, 0.0, 196.0, 0.0, 0.0, 0.0, 14.0, 36.0, 71.0, 0.0, 0.0, 0.0, 1.6878032906368399E9, 0.0, 2023-06-26 13:14:50.636
35.0, 48658.71949895853, 54524.13016845348, 75064.48925310245, 589.2143355863495, -1827.0539435212545, -5201.675617894604, 24257.85651896674, 17426.179936668865, 0.0, 0.0, 0.0, 196.0, 0.0, 0.0, 0.0, 14.0, 36.0, 75.0, 0.0, 0.0, 0.0, 1.6878032906418552E9, 0.0, 2023-06-26 13:14:50.641
36.0, 48610.99852454645, 54464.003975868705, 77169.35302845872, 531.8150558251209, -1861.587388704704, -5277.515086831461, 24217.17634405808, 17379.196569823813, 0.0, 0.0, 0.0, 196.0, 0.0, 0.0, 0.0, 14.0, 36.0, 79.0, 0.0, 0.0, 0.0, 1.6878032906458683E9, 0.0, 2023-06-26 13:14:50.645
37.0, 48661.26759782644, 54492.74831923823, 74512.1329441229, 608.3697805845476, -1826.6739638655145, -5192.086719523278, 24249.541670029364, 17443.681352577372, 0.0, 0.0, 0.0, 196.0, 255.0, 144.0, 0.0, 14.0, 36.0, 83.0, 0.0, 0.0, 0.0, 1.6878032906498897E9, 0.0, 2023-06-26 13:14:50.649
38.0, 48700.181984923125, 54537.49651163775, 72526.96276032481, 659.7787928317539, -1749.180465838965, -5141.817646243292, 24315.211095239058, 17508.277894053208, 0.0, 0.0, 0.0, 196.0, 30.0, 48.0, 0.0, 14.0, 36.0, 87.0, 0.0, 0.0, 0.0, 1.6878032906539018E9, 0.0, 2023-06-26 13:14:50.653
39.0, 48684.02167368194, 54547.28657570918, 74497.15727533786, 605.5534607831789, -1762.6809194899702, -5199.954533571546, 24279.358897132744, 17448.956364268823, 0.0, 0.0, 0.0, 196.0, 7.0, 176.0, 0.0, 14.0, 36.0, 91.0, 0.0, 0.0, 0.0, 1.6878032906579342E9, 0.0, 2023-06-26 13:14:50.657
40.0, 48629.215196277524, 54498.20214488532, 77107.61751027316, 555.6420154144782, -1775.980207440878, -5247.541397516894, 24230.229762819978, 17408.05267191561, 0.0, 0.0, 0.0, 196.0, 0.0, 0.0, 0.0, 14.0, 36.0, 95.0, 0.0, 0.0, 0.0, 1.687803290661963E9, 0.0, 2023-06-26 13:14:50.661
41.0, 48677.316150345345, 54519.07867420658, 75159.48416703752, 615.164710898961, -1812.7041235809475, -5187.079928765289, 24251.016885163415, 17454.45489340483, 0.0, 0.0, 0.0, 196.0, 0.0, 0.0, 0.0, 14.0, 36.0, 99.0, 0.0, 0.0, 0.0, 1.6878032906649702E9, 0.0, 2023-06-26 13:14:50.664
42.0, 48718.66687758767, 54563.46923869482, 72536.46225171832, 696.9720956053849, -1787.0666726907102, -5073.913046588069, 24331.326702991333, 17540.218536879842, 0.0, 0.0, 0.0, 196.0, 0.0, 0.0, 0.0, 14.0, 36.0, 103.0, 0.0, 0.0, 0.0, 1.6878032906689875E9, 0.0, 2023-06-26 13:14:50.668
43.0, 48699.80200526739, 54561.81520960513, 73945.22564950296, 626.8099697601759, -1775.6449312740483, -5206.034208063389, 24288.321946659322, 17468.290623222663, 0.0, 0.0, 0.0, 196.0, 0.0, 0.0, 0.0, 14.0, 36.0, 107.0, 0.0, 0.0, 0.0, 1.687803290674002E9, 0.0, 2023-06-26 13:14:50.674
44.0, 48630.131617800194, 54491.78719422665, 76843.03991115569, 543.5050181752465, -1760.4680967888949, -5253.978699920023, 24219.500925481432, 17397.30148283261, 0.0, 0.0, 0.0, 196.0, 0.0, 0.0, 0.0, 14.0, 36.0, 111.0, 0.0, 0.0, 0.0, 1.6878032906780224E9, 0.0, 2023-06-26 13:14:50.678
45.0, 48660.23941758149, 54503.901839721424, 75772.99484884678, 594.6681612334444, -1794.4203966165062, -5191.438518934074, 24228.486326752463, 17427.386930869452, 0.0, 0.0, 0.0, 196.0, 0.0, 0.0, 0.0, 14.0, 36.0, 115.0, 0.0, 0.0, 0.0, 1.6878032906820652E9, 0.0, 2023-06-26 13:14:50.682
46.0, 48700.8972407457, 54538.100008738045, 72686.12953259105, 666.774888846265, -1753.6508147300262, -5139.448361331029, 24307.276225957423, 17510.311902798643, 0.0, 0.0, 0.0, 196.0, 0.0, 0.0, 0.0, 14.0, 36.0, 119.0, 0.0, 0.0, 0.0, 1.6878032906850612E9, 0.0, 2023-06-26 13:14:50.685
47.0, 48667.8390106963, 54524.80072078714, 73475.95077466378, 607.0510276616845, -1813.5087863813385, -5179.480335650484, 24280.65529831115, 17450.61039335852, 0.0, 0.0, 0.0, 196.0, 255.0, 64.0, 0.0, 14.0, 36.0, 123.0, 0.0, 0.0, 0.0, 1.6878032906890917E9, 0.0, 2023-06-26 13:14:50.689
48.0, 48605.164719243614, 54469.726022449264, 76475.77839801055, 526.0930092445624, -1795.850908261646, -5284.6676450571595, 24221.736099926962, 17384.896264659914, 0.0, 0.0, 0.0, 196.0, 30.0, 32.0, 0.0, 14.0, 36.0, 127.0, 0.0, 0.0, 0.0, 1.687803290693196E9, 0.0, 2023-06-26 13:14:50.693
49.0, 48659.34534780328, 54505.68997927785, 76323.69712873663, 593.5729257551344, -1828.0374202772882, -5186.387024687174, 24214.538838212353, 17429.30918089261, 0.0, 0.0, 0.0, 196.0, 7.0, 160.0, 0.0, 14.0, 36.0, 131.0, 0.0, 0.0, 0.0, 1.6878032906971781E9, 0.0, 2023-06-26 13:14:50.697
50.0, 48727.74168583652, 54567.64901490796, 72979.98791694497, 699.7884154067535, -1761.853904945124, -5088.978122350946, 24335.81940362685, 17542.94544970339, 0.0, 0.0, 0.0, 196.0, 0.0, 0.0, 0.0, 14.0, 36.0, 135.0, 0.0, 0.0, 0.0, 1.6878032907012002E9, 0.0, 2023-06-26 13:14:50.701
51.0, 48701.523089590446, 54558.70831712584, 73089.24324384252, 654.6825950959438, -1751.8626751736017, -5148.903149235624, 24331.460813458063, 17496.744393914272, 0.0, 0.0, 0.0, 196.0, 0.0, 0.0, 0.0, 14.0, 36.0, 139.0, 0.0, 0.0, 0.0, 1.6878032907063575E9, 0.0, 2023-06-26 13:14:50.706
52.0, 48640.03344059389, 54508.662761290405, 76015.28775874231, 566.5049632197575, -1819.2308329618972, -5228.564766474338, 24259.08586491178, 17423.609486056506, 0.0, 0.0, 0.0, 196.0, 0.0, 0.0, 0.0, 14.0, 36.0, 143.0, 0.0, 0.0, 0.0, 1.687803290710199E9, 0.0, 2023-06-26 13:14:50.710
53.0, 48632.00916433444, 54486.80275521312, 76774.68827661137, 573.9704458678301, -1806.4009316445508, -5222.015705348934, 24229.380396530676, 17428.0127797142, 0.0, 0.0, 0.0, 196.0, 0.0, 0.0, 0.0, 14.0, 36.0, 147.0, 0.0, 0.0, 0.0, 1.6878032907132103E9, 0.0, 2023-06-26 13:14:50.713
54.0, 48699.623191311744, 54538.21176746032, 73424.3853002054, 679.1354035300498, -1785.300884878741, -5124.025657656867, 24310.271359714432, 17523.857059938557, 0.0, 0.0, 0.0, 196.0, 0.0, 0.0, 0.0, 14.0, 36.0, 151.0, 0.0, 0.0, 0.0, 1.6878032907172332E9, 0.0, 2023-06-26 13:14:50.717
55.0, 48676.71265324506, 54531.79681680165, 72785.50538843934, 644.6913653244216, -1780.2940941207523, -5167.566855855805, 24318.5415051629, 17498.487829981786, 0.0, 0.0, 0.0, 196.0, 0.0, 0.0, 0.0, 14.0, 36.0, 155.0, 0.0, 0.0, 0.0, 1.6878032907212467E9, 0.0, 2023-06-26 13:14:50.721
56.0, 48623.87312935271, 54493.865906461, 75475.62724061338, 549.651747900456, -1792.1181669376097, -5278.543267076406, 24218.629207447673, 17389.612482739984, 0.0, 0.0, 0.0, 196.0, 0.0, 0.0, 0.0, 14.0, 36.0, 159.0, 0.0, 0.0, 0.0, 1.687803290725267E9, 0.0, 2023-06-26 13:14:50.725
57.0, 48627.15883578764, 54486.60158951302, 77028.9840732794, 549.3164717336264, -1826.7410190988803, -5332.0086398135, 24222.429004005076, 17409.751404494215, 0.0, 0.0, 0.0, 196.0, 255.0, 16.0, 0.0, 14.0, 36.0, 163.0, 0.0, 0.0, 0.0, 1.6878032907292852E9, 0.0, 2023-06-26 13:14:50.729
58.0, 48671.527048531425, 54518.20695617282, 73970.2596032929, 643.6855368239328, -1823.0976847526654, -5124.271526845876, 24270.731123772995, 17488.876579866002, 0.0, 0.0, 0.0, 196.0, 30.0, 32.0, 0.0, 14.0, 36.0, 167.0, 0.0, 0.0, 0.0, 1.6878032907343156E9, 0.0, 2023-06-26 13:14:50.734
59.0, 48696.136319176716, 54554.3273752126, 72623.52229637174, 680.2529907528151, -1752.0861926181547, -5070.694395386505, 24331.125537291235, 17526.80749020666, 0.0, 0.0, 0.0, 196.0, 7.0, 128.0, 0.0, 14.0, 36.0, 171.0, 0.0, 0.0, 0.0, 1.6878032907383375E9, 0.0, 2023-06-26 13:14:50.738
60.0, 48671.68351074261, 54543.08444775158, 74971.23777523491, 614.1141789095616, -1796.2755914062968, -5179.726204839493, 24288.165484448135, 17454.209024215823, 0.0, 0.0, 0.0, 196.0, 0.0, 0.0, 0.0, 14.0, 36.0, 175.0, 0.0, 0.0, 0.0, 1.6878032907413423E9, 0.0, 2023-06-26 13:14:50.741
61.0, 48612.943126314065, 54482.91355167789, 77163.49687141144, 553.8315241135984, -1866.1694963180419, -5251.341194074296, 24216.79636440234, 17379.397735523908, 0.0, 0.0, 0.0, 196.0, 0.0, 0.0, 0.0, 14.0, 36.0, 179.0, 0.0, 0.0, 0.0, 1.687803290745357E9, 0.0, 2023-06-26 13:14:50.745
62.0, 48685.1392609047, 54535.373095914496, 74634.77696594918, 645.0266414912512, -1782.5516203107381, -5155.988652227957, 24248.4240828066, 17451.102131736534, 0.0, 0.0, 0.0, 196.0, 0.0, 0.0, 0.0, 14.0, 36.0, 183.0, 0.0, 0.0, 0.0, 1.687803290749527E9, 0.0, 2023-06-26 13:14:50.749
63.0, 48713.86125252977, 54572.61110217704, 72576.78479871569, 695.6980461714323, -1761.8986084340345, -5104.624343469661, 24332.310179747365, 17523.74530121628, 0.0, 0.0, 0.0, 196.0, 0.0, 0.0, 0.0, 14.0, 36.0, 187.0, 0.0, 0.0, 0.0, 1.6878032907533996E9, 0.0, 2023-06-26 13:14:50.753
64.0, 48680.15482189117, 54554.886168823985, 74435.46646064121, 615.2094143878716, -1789.0559779472326, -5252.570540019338, 24292.054687983356, 17456.332439939077, 0.0, 0.0, 0.0, 196.0, 0.0, 0.0, 0.0, 14.0, 36.0, 191.0, 0.0, 0.0, 0.0, 1.6878032907584376E9, 0.0, 2023-06-26 13:14:50.758
65.0, 48607.53400415588, 54478.465554531285, 77088.21619608595, 534.1172855040176, -1834.809998847246, -5332.656840402704, 24195.40574495861, 17376.492008744717, 0.0, 0.0, 0.0, 196.0, 0.0, 0.0, 0.0, 14.0, 36.0, 195.0, 0.0, 0.0, 0.0, 1.6878032907614388E9, 0.0, 2023-06-26 13:14:50.761
66.0, 48649.421173265124, 54497.77746174067, 75286.33031682138, 605.3522950830812, -1852.0878973111985, -5154.6475475606385, 24212.50482946692, 17423.49772733423, 0.0, 0.0, 0.0, 196.0, 0.0, 0.0, 0.0, 14.0, 36.0, 199.0, 0.0, 0.0, 0.0, 1.6878032907654738E9, 0.0, 2023-06-26 13:14:50.765
67.0, 48681.093595158294, 54531.05920923463, 72626.45037489539, 666.9537028019074, -1778.68476851997, -5101.8750789016585, 24288.389001892687, 17496.40911774744, 0.0, 0.0, 0.0, 196.0, 255.0, 112.0, 0.0, 14.0, 36.0, 203.0, 0.0, 0.0, 0.0, 1.687803290769478E9, 0.0, 2023-06-26 13:14:50.769
68.0, 48655.500847756965, 54526.3206394101, 73967.89031838064, 603.6759142489332, -1803.1822804429867, -5190.365635200219, 24272.60867030724, 17432.17020418289, 0.0, 0.0, 0.0, 196.0, 29.0, 224.0, 0.0, 14.0, 36.0, 207.0, 0.0, 0.0, 0.0, 1.687803290773511E9, 0.0, 2023-06-26 13:14:50.773
69.0, 48614.9771350595, 54483.293531333635, 76838.61426575354, 546.3436897210705, -1829.490283666883, -5252.235263852509, 24226.877001151683, 17383.085773359035, 0.0, 0.0, 0.0, 196.0, 7.0, 128.0, 0.0, 14.0, 36.0, 211.0, 0.0, 0.0, 0.0, 1.6878032907775202E9, 0.0, 2023-06-26 13:14:50.777
70.0, 48632.72442015701, 54482.62297899997, 75867.2074517259, 582.4641087608468, -1844.108324540654, -5217.992391346978, 24218.897428381137, 17423.49772733423, 0.0, 0.0, 0.0, 196.0, 0.0, 0.0, 0.0, 14.0, 36.0, 215.0, 0.0, 0.0, 0.0, 1.6878032907825456E9, 0.0, 2023-06-26 13:14:50.782
71.0, 48698.97499072254, 54542.59270937356, 72760.82906256069, 679.0012930633179, -1773.7450329953472, -5146.9585474680125, 24325.694063388597, 17528.148594873976, 0.0, 0.0, 0.0, 196.0, 0.0, 0.0, 0.0, 14.0, 36.0, 219.0, 0.0, 0.0, 0.0, 1.68780329078658E9, 0.0, 2023-06-26 13:14:50.786
72.0, 48685.65335102718, 54552.360421700534, 73502.03526044312, 634.9236529974525, -1806.8032630447465, -5167.902132022636, 24297.77673456392, 17467.798884844648, 0.0, 0.0, 0.0, 196.0, 0.0, 0.0, 0.0, 14.0, 36.0, 223.0, 0.0, 0.0, 0.0, 1.6878032907895644E9, 0.0, 2023-06-26 13:14:50.789
73.0, 48616.74292287147, 54493.53063029416, 76446.296447074, 554.3903177249811, -1864.9848538619108, -5229.995278119478, 24235.862402422717, 17390.104221118, 0.0, 0.0, 0.0, 196.0, 0.0, 0.0, 0.0, 14.0, 36.0, 227.0, 0.0, 0.0, 0.0, 1.687803290793583E9, 0.0, 2023-06-26 13:14:50.793
74.0, 48639.13937081568, 54494.178830883364, 76392.40639119226, 587.873230919031, -1856.9382258580001, -5232.31985954283, 24233.56017274382, 17435.1653379399, 0.0, 0.0, 0.0, 196.0, 0.0, 0.0, 0.0, 14.0, 36.0, 231.0, 0.0, 0.0, 0.0, 1.6878032907976017E9, 0.0, 2023-06-26 13:14:50.797
75.0, 48709.346200149805, 54557.23310199179, 73087.499807775, 695.2510112823262, -1738.0045936113113, -5147.182064912566, 24339.68625541762, 17565.185435436422, 0.0, 0.0, 0.0, 196.0, 0.0, 0.0, 0.0, 14.0, 36.0, 235.0, 0.0, 0.0, 0.0, 1.6878032908016424E9, 0.0, 2023-06-26 13:14:50.801
76.0, 48652.05867911085, 54524.8677760205, 73150.10704399431, 634.7895425307206, -1789.726530280892, -5152.054745203823, 24310.606635881264, 17494.106888068545, 0.0, 0.0, 0.0, 196.0, 0.0, 0.0, 0.0, 14.0, 36.0, 239.0, 0.0, 0.0, 0.0, 1.6878032908056495E9, 0.0, 2023-06-26 13:14:50.805
77.0, 48613.79249260337, 54488.34502558053, 75978.92147051352, 560.1123643055397, -1845.0023943188662, -5222.350981515763, 24223.99362611695, 17386.706755960793, 0.0, 0.0, 0.0, 196.0, 255.0, 192.0, 0.0, 14.0, 36.0, 243.0, 0.0, 0.0, 0.0, 1.687803290810674E9, 0.0, 2023-06-26 13:14:50.810
78.0, 48625.19188227557, 54481.86301968849, 76781.32674471459, 576.3620825245479, -1876.7865749343127, -5207.420016219618, 24193.148218768623, 17396.027433398656, 0.0, 0.0, 0.0, 196.0, 30.0, 16.0, 0.0, 14.0, 36.0, 247.0, 0.0, 0.0, 0.0, 1.6878032908136783E9, 0.0, 2023-06-26 13:14:50.813
79.0, 48694.83991799831, 54535.75307557024, 73505.99151921172, 679.6941971414325, -1767.888875948057, -5124.9420791795355, 24300.391888665188, 17514.89401041198, 0.0, 0.0, 0.0, 196.0, 7.0, 48.0, 0.0, 14.0, 36.0, 251.0, 0.0, 0.0, 0.0, 1.6878032908167093E9, 0.0, 2023-06-26 13:14:50.816
80.0, 48688.380263850726, 54545.96782278631, 72826.87846742613, 664.9420458009298, -1758.7246607213808, -5149.461942847007, 24335.215906526555, 17508.903742897957, 0.0, 0.0, 0.0, 196.0, 0.0, 0.0, 0.0, 14.0, 36.0, 255.0, 0.0, 0.0, 0.0, 1.687803290821729E9, 0.0, 2023-06-26 13:14:50.821
81.0, 48634.51255971343, 54510.3167903801, 75413.28822532753, 578.2172773143384, -1816.6380306050814, -5225.502577483961, 24267.199548149056, 17422.044863944633, 0.0, 0.0, 0.0, 196.0, 0.0, 0.0, 0.0, 14.0, 37.0, 3.0, 0.0, 0.0, 0.0, 1.6878032908257518E9, 0.0, 2023-06-26 13:14:50.825
82.0, 48587.70800682402, 54455.197388553315, 77001.3796688771, 538.2747099727047, -1858.6369584366034, -5281.404290366685, 24210.470820721486, 17384.82920942655, 0.0, 0.0, 0.0, 196.0, 0.0, 0.0, 0.0, 14.0, 37.0, 7.0, 0.0, 0.0, 0.0, 1.687803290829774E9, 0.0, 2023-06-26 13:14:50.829
83.0, 48640.39106850518, 54489.4626128033, 74005.53065604337, 615.2541178767822, -1869.7681271753463, -5175.1217454817, 24253.967315431513, 17447.3693904125, 0.0, 0.0, 0.0, 196.0, 0.0, 0.0, 0.0, 14.0, 37.0, 11.0, 0.0, 0.0, 0.0, 1.6878032908337905E9, 0.0, 2023-06-26 13:14:50.833
84.0, 48687.28502837241, 54545.34197394156, 72601.57288331662, 664.8973423120192, -1780.3611493541182, -5114.883794174647, 24325.805822110873, 17505.46157425184, 0.0, 0.0, 0.0, 196.0, 0.0, 0.0, 0.0, 14.0, 37.0, 15.0, 0.0, 0.0, 0.0, 1.6878032908368182E9, 0.0, 2023-06-26 13:14:50.836
85.0, 48660.99937689297, 54530.74628481225, 74835.07094801319, 595.9645624118522, -1829.132655755598, -5224.541452472384, 24274.195644163567, 17417.887439475948, 0.0, 0.0, 0.0, 196.0, 0.0, 0.0, 0.0, 14.0, 37.0, 19.0, 0.0, 0.0, 0.0, 1.6878032908408291E9, 0.0, 2023-06-26 13:14:50.840
86.0, 48612.451387936046, 54479.381976053955, 77030.86161981364, 552.6468816574671, -1862.816734649746, -5280.7337380330255, 24229.715672697508, 17386.81851468307, 0.0, 0.0, 0.0, 196.0, 0.0, 0.0, 0.0, 14.0, 37.0, 23.0, 0.0, 0.0, 0.0, 1.687803290844833E9, 0.0, 2023-06-26 13:14:50.844
87.0, 48664.41919379464, 54510.18267991337, 74605.49618071273, 638.1423041990166, -1835.3464407141735, -5167.365690155708, 24263.958545203037, 17457.494730650753, 0.0, 0.0, 0.0, 196.0, 255.0, 208.0, 0.0, 14.0, 37.0, 27.0, 0.0, 0.0, 0.0, 1.6878032908498595E9, 0.0, 2023-06-26 13:14:50.849
88.0, 48696.15867092117, 54545.38667743048, 72521.88891433345, 686.3773687335693, -1782.3728063550957, -5129.658297259605, 24333.53952569241, 17527.85802219606, 0.0, 0.0, 0.0, 196.0, 30.0, 112.0, 0.0, 14.0, 37.0, 31.0, 0.0, 0.0, 0.0, 1.687803290853902E9, 0.0, 2023-06-26 13:14:50.853
89.0, 48672.6893392431, 54543.196206473855, 74299.45609563067, 624.2171674033603, -1815.296925937763, -5201.563859172328, 24287.09260071428, 17458.768780084705, 0.0, 0.0, 0.0, 196.0, 6.0, 224.0, 0.0, 14.0, 37.0, 35.0, 0.0, 0.0, 0.0, 1.6878032908579087E9, 0.0, 2023-06-26 13:14:50.857
90.0, 48612.76431235842, 54478.35379580901, 76911.34684221112, 562.6381114289894, -1863.9566736169666, -5240.344135802286, 24224.50771623942, 17408.49970680472, 0.0, 0.0, 0.0, 196.0, 0.0, 0.0, 0.0, 14.0, 37.0, 39.0, 0.0, 0.0, 0.0, 1.6878032908619356E9, 0.0, 2023-06-26 13:14:50.861
91.0, 48643.16268481764, 54490.3119790926, 75218.38101367725, 609.7332369963214, -1862.3473480161845, -5195.372425958208, 24225.64765520664, 17445.849471789537, 0.0, 0.0, 0.0, 196.0, 0.0, 0.0, 0.0, 14.0, 37.0, 43.0, 0.0, 0.0, 0.0, 1.6878032908649352E9, 0.0, 2023-06-26 13:14:50.864
92.0, 48669.22481885253, 54525.69479056535, 72517.8656003315, 667.4901446688348, -1816.459216649439, -5145.863311989702, 24317.826249340327, 17533.736530987804, 0.0, 0.0, 0.0, 196.0, 0.0, 0.0, 0.0, 14.0, 37.0, 47.0, 0.0, 0.0, 0.0, 1.6878032908689563E9, 0.0, 2023-06-26 13:14:50.868
93.0, 48662.13931586019, 54532.89205227996, 73751.39132158653, 618.3386586116146, -1841.5602256727489, -5168.371518656197, 24282.175216934113, 17453.2702509487, 0.0, 0.0, 0.0, 196.0, 0.0, 0.0, 0.0, 14.0, 37.0, 51.0, 0.0, 0.0, 0.0, 1.6878032908729825E9, 0.0, 2023-06-26 13:14:50.872
94.0, 48626.711800898534, 54499.49854606373, 76603.47391408372, 574.3504255235703, -1859.687490426003, -5213.253821522453, 24227.748719185438, 17412.34420685103, 0.0, 0.0, 0.0, 196.0, 0.0, 0.0, 0.0, 14.0, 37.0, 55.0, 0.0, 0.0, 0.0, 1.6878032908769908E9, 0.0, 2023-06-26 13:14:50.876
95.0, 48644.63789995169, 54500.414967586396, 75771.60904069056, 598.1103298795617, -1837.8274843487127, -5226.173129817621, 24218.36098651421, 17447.637611345963, 0.0, 0.0, 0.0, 196.0, 0.0, 0.0, 0.0, 14.0, 37.0, 59.0, 0.0, 0.0, 0.0, 1.6878032908820229E9, 0.0, 2023-06-26 13:14:50.882
96.0, 48694.57169706484, 54545.096104752556, 72663.82249162465, 680.677673897466, -1754.0531461302216, -5123.466864045485, 24309.2878829584, 17537.491624056296, 0.0, 0.0, 0.0, 196.0, 0.0, 0.0, 0.0, 14.0, 37.0, 63.0, 0.0, 0.0, 0.0, 1.6878032908860383E9, 0.0, 2023-06-26 13:14:50.886
97.0, 48669.78361246391, 54536.982421515284, 73289.22430148415, 629.6039378170893, -1775.9355039519673, -5128.831282714758, 24289.50658911545, 17473.543283169663, 0.0, 0.0, 0.0, 196.0, 0.0, 96.0, 0.0, 14.0, 37.0, 67.0, 0.0, 0.0, 0.0, 1.687803290891065E9, 0.0, 2023-06-26 13:14:50.891
98.0, 48588.02093124639, 54464.74158343573, 76163.16690005863, 522.427323153892, -1878.6864732130139, -5256.057412154367, 24208.50386720942, 17379.53184599064, 0.0, 0.0, 0.0, 196.0, 30.0, 160.0, 0.0, 14.0, 37.0, 71.0, 0.0, 0.0, 0.0, 1.6878032908950975E9, 0.0, 2023-06-26 13:14:50.895
99.0, 48605.49999541044, 54466.06033635859, 76249.17641272265, 541.2921954741711, -1905.7097322594802, -5268.507333815973, 24212.527181211375, 17386.326776305053, 0.0, 0.0, 0.0, 196.0, 6.0, 240.0, 0.0, 14.0, 37.0, 75.0, 0.0, 0.0, 0.0, 1.6878032908980947E9, 0.0, 2023-06-26 13:14:50.898
100.0, 48676.690301500596, 54527.10295046603, 72971.80717847434, 649.6534525934998, -1772.0015969278334, -5132.496968805429, 24320.888438330705, 17494.889199124482, 0.0, 0.0, 0.0, 196.0, 0.0, 0.0, 0.0, 14.0, 37.0, 79.0, 0.0, 0.0, 0.0, 1.6878032909011767E9, 0.0, 2023-06-26 13:14:50.901
101.0, 48657.55720824686, 54520.866813763, 72918.52061969288, 612.3260393531369, -1782.5516203107381, -5174.741765825959, 24314.04880452738, 17466.614242388518, 0.0, 0.0, 0.0, 196.0, 0.0, 0.0, 0.0, 14.0, 37.0, 83.0, 0.0, 0.0, 0.0, 1.687803290905202E9, 0.0, 2023-06-26 13:14:50.905
102.0, 48605.96938204401, 54481.37128131048, 75690.0698769176, 533.6255471260008, -1864.8283916507235, -5280.845496755302, 24256.113082899225, 17401.749479979215, 0.0, 0.0, 0.0, 196.0, 0.0, 0.0, 0.0, 14.0, 37.0, 87.0, 0.0, 0.0, 0.0, 1.687803290909202E9, 0.0, 2023-06-26 13:14:50.909
103.0, 48605.12001575471, 54466.75324043671, 76636.86742029994, 544.4437914423694, -1852.266711266841, -5224.384990261196, 24235.124794855692, 17386.25972107169, 0.0, 0.0, 0.0, 196.0, 0.0, 0.0, 0.0, 14.0, 37.0, 91.0, 0.0, 0.0, 0.0, 1.6878032909142003E9, 0.0, 2023-06-26 13:14:50.914
104.0, 48682.859382970266, 54530.94745051235, 73427.20162000676, 655.5990166186115, -1789.8159372587131, -5108.692360960527, 24314.898170816683, 17486.79786763166, 0.0, 0.0, 0.0, 196.0, 0.0, 0.0, 0.0, 14.0, 37.0, 95.0, 0.0, 0.0, 0.0, 1.6878032909181952E9, 0.0, 2023-06-26 13:14:50.918
105.0, 48686.05568242737, 54541.56452912862, 72635.48047965532, 654.7943538182204, -1763.1279543790763, -5135.648564773627, 24337.451080972085, 17484.98737633078, 0.0, 0.0, 0.0, 196.0, 0.0, 0.0, 0.0, 14.0, 37.0, 99.0, 0.0, 0.0, 0.0, 1.6878032909212177E9, 0.0, 2023-06-26 13:14:50.921
106.0, 48637.84296963728, 54511.34497062505, 75155.23733559101, 587.3367890521037, -1795.4932803503611, -5224.988487361489, 24269.94881271706, 17426.805785513614, 0.0, 0.0, 0.0, 196.0, 0.0, 0.0, 0.0, 14.0, 37.0, 103.0, 0.0, 0.0, 0.0, 1.6878032909252279E9, 0.0, 2023-06-26 13:14:50.925
107.0, 48604.29300120986, 54465.68035670285, 76863.78233001022, 555.9102363479419, -1893.5727350202485, -5276.66572054216, 24261.857481224237, 17388.11491586148, 0.0, 0.0, 0.0, 196.0, 255.0, 208.0, 0.0, 14.0, 37.0, 107.0, 0.0, 0.0, 0.0, 1.6878032909292555E9, 0.0, 2023-06-26 13:14:50.929
108.0, 48645.57667321881, 54485.953388923816, 73977.99330687444, 640.5562926001897, -1774.4379370734619, -5174.45119314804, 24306.829191068315, 17456.287736450166, 0.0, 0.0, 0.0, 196.0, 30.0, 112.0, 0.0, 14.0, 37.0, 111.0, 0.0, 0.0, 0.0, 1.6878032909332829E9, 0.0, 2023-06-26 13:14:50.933
109.0, 48676.690301500596, 54523.68313356437, 72449.78218672064, 691.2276972803709, -1689.6577703544822, -5123.779788467859, 24364.831967929837, 17523.1865076049, 0.0, 0.0, 0.0, 196.0, 7.0, 0.0, 0.0, 14.0, 37.0, 115.0, 0.0, 0.0, 0.0, 1.6878032909373133E9, 0.0, 2023-06-26 13:14:50.937
110.0, 48648.70591744255, 54515.45769160482, 74629.34549204654, 631.2803186512374, -1764.8937421910457, -5204.089606295777, 24317.2898074734, 17446.229451445277, 0.0, 0.0, 0.0, 196.0, 0.0, 0.0, 0.0, 14.0, 37.0, 119.0, 0.0, 0.0, 0.0, 1.687803290941326E9, 0.0, 2023-06-26 13:14:50.941
111.0, 48570.5642188268, 54438.43358021183, 76899.41101067197, 556.9831200817966, -1872.3832812766173, -5286.187563680121, 24233.291951810355, 17348.82054910905, 0.0, 0.0, 0.0, 196.0, 0.0, 0.0, 0.0, 14.0, 37.0, 123.0, 0.0, 0.0, 0.0, 1.687803290946349E9, 0.0, 2023-06-26 13:14:50.946
112.0, 48624.52132994191, 54473.30230156211, 74579.36699144448, 637.4270483764468, -1839.6379756495926, -5202.0779492947995, 24258.817643978316, 17414.244105129732, 0.0, 0.0, 0.0, 196.0, 0.0, 0.0, 0.0, 14.0, 37.0, 127.0, 0.0, 0.0, 0.0, 1.6878032909495933E9, 0.0, 2023-06-26 13:14:50.949
113.0, 48699.37732212274, 54551.444000177864, 72378.12249399693, 734.3665640791136, -1756.3106723202077, -5096.220087554466, 24383.808598972395, 17567.554720348682, 0.0, 0.0, 0.0, 196.0, 0.0, 0.0, 0.0, 14.0, 37.0, 131.0, 0.0, 0.0, 0.0, 1.6878032909533749E9, 0.0, 2023-06-26 13:14:50.953
114.0, 48673.002263665476, 54543.5761861296, 74112.5955119843, 661.0304905212511, -1716.4575119563954, -5168.460925634018, 24359.512252749475, 17488.965986843825, 0.0, 0.0, 0.0, 196.0, 0.0, 0.0, 0.0, 14.0, 37.0, 135.0, 0.0, 0.0, 0.0, 1.6878032909573917E9, 0.0, 2023-06-26 13:14:50.957
115.0, 48599.19680347405, 54468.340214293035, 76789.41807620741, 573.6575214454558, -1820.460178906939, -5239.248900323975, 24260.359914345732, 17390.908883918393, 0.0, 0.0, 0.0, 196.0, 0.0, 0.0, 0.0, 14.0, 37.0, 139.0, 0.0, 0.0, 0.0, 1.6878032909614077E9, 0.0, 2023-06-26 13:14:50.961
116.0, 48624.409571219636, 54469.726022449264, 75218.91745554417, 605.9334404389192, -1815.431036404495, -5195.394777702663, 24244.33371357128, 17405.97395968127, 0.0, 0.0, 0.0, 196.0, 0.0, 0.0, 0.0, 14.0, 37.0, 143.0, 0.0, 0.0, 0.0, 1.687803290965436E9, 0.0, 2023-06-26 13:14:50.965
117.0, 48680.601856780275, 54523.638430075465, 72430.11265159996, 684.9915605773402, -1716.9939538233227, -5093.873154386658, 24345.475357231542, 17523.700597727373, 0.0, 0.0, 0.0, 196.0, 254.0, 160.0, 0.0, 14.0, 37.0, 147.0, 0.0, 0.0, 0.0, 1.6878032909694445E9, 0.0, 2023-06-26 13:14:50.969
118.0, 48657.892484413685, 54524.71131380932, 73590.95049988634, 617.712809766866, -1726.0911138166325, -5181.760213584926, 24304.057574755858, 17451.236242203267, 0.0, 0.0, 0.0, 196.0, 31.0, 208.0, 0.0, 14.0, 37.0, 151.0, 0.0, 0.0, 0.0, 1.6878032909745083E9, 0.0, 2023-06-26 13:14:50.974
119.0, 48582.164774199104, 54454.52683621965, 76444.5977144954, 520.4380178973696, -1815.1628154710313, -5259.8348569673135, 24214.628245190175, 17359.10235155849, 0.0, 0.0, 0.0, 196.0, 7.0, 48.0, 0.0, 14.0, 37.0, 155.0, 0.0, 0.0, 0.0, 1.6878032909774837E9, 0.0, 2023-06-26 13:14:50.977
120.0, 48617.45817869403, 54468.764897437686, 75763.22713651981, 557.877189860009, -1822.4047806745507, -5194.947742813557, 24204.726422396474, 17395.44628804282, 0.0, 0.0, 0.0, 196.0, 0.0, 0.0, 0.0, 14.0, 37.0, 159.0, 0.0, 0.0, 0.0, 1.6878032909814992E9, 0.0, 2023-06-26 13:14:50.981
121.0, 48662.20637109356, 54509.087444435056, 72559.5292519962, 624.418333103458, -1764.8713904465903, -5110.547555750318, 24271.133455173192, 17489.21185603283, 0.0, 0.0, 0.0, 196.0, 0.0, 0.0, 0.0, 14.0, 37.0, 163.0, 0.0, 0.0, 0.0, 1.6878032909855227E9, 0.0, 2023-06-26 13:14:50.985
122.0, 48636.16658880313, 54502.06899667609, 73046.50670844397, 566.1249835640173, -1751.3932885400402, -5170.047899490345, 24248.245268850955, 17452.130311981477, 0.0, 0.0, 0.0, 196.0, 0.0, 0.0, 0.0, 14.0, 37.0, 167.0, 0.0, 0.0, 0.0, 1.6878032909895625E9, 0.0, 2023-06-26 13:14:50.989
123.0, 48619.782760117385, 54495.05054891713, 75997.00403177786, 511.4749683707915, -1765.4748875468836, -5253.643423753193, 24200.25607350541, 17404.58815152504, 0.0, 0.0, 0.0, 196.0, 0.0, 0.0, 0.0, 14.0, 37.0, 171.0, 0.0, 0.0, 0.0, 1.6878032909935577E9, 0.0, 2023-06-26 13:14:50.993
124.0, 48608.29396346736, 54465.881522402946, 76216.45345884007, 495.67228504088945, -1880.0499296247876, -5254.761010975959, 24158.570070096266, 17371.216997053267, 0.0, 0.0, 0.0, 196.0, 0.0, 0.0, 0.0, 14.0, 37.0, 175.0, 0.0, 0.0, 0.0, 1.6878032909975717E9, 0.0, 2023-06-26 13:14:50.997
125.0, 48656.081993112806, 54504.34887461053, 72862.28363064333, 573.746928423277, -1803.137576954076, -5134.285108361853, 24231.92849539858, 17465.563710399118, 0.0, 0.0, 0.0, 196.0, 0.0, 0.0, 0.0, 14.0, 37.0, 179.0, 0.0, 0.0, 0.0, 1.6878032910016105E9, 0.0, 2023-06-26 13:14:51.001
126.0, 48656.75254544646, 54522.297325408144, 72646.36577920507, 553.1162682910285, -1686.1932499639095, -5100.846898656714, 24253.22970786449, 17468.760009856225, 0.0, 0.0, 0.0, 196.0, 0.0, 0.0, 0.0, 14.0, 37.0, 183.0, 0.0, 0.0, 0.0, 1.6878032910056353E9, 0.0, 2023-06-26 13:14:51.005
127.0, 48608.33866695627, 54488.54619128063, 75455.73418804815, 464.8715811814763, -1771.1522306385316, -5192.60080964575, 24176.898500549618, 17371.373459264454, 0.0, 0.0, 0.0, 196.0, 254.0, 112.0, 0.0, 14.0, 37.0, 187.0, 0.0, 0.0, 0.0, 1.6878032910086308E9, 0.0, 2023-06-26 13:14:51.008
128.0, 48602.035475019875, 54464.629824713455, 76561.16206182982, 452.28754905313843, -1826.1598737430422, -5231.403438020163, 24155.820805528263, 17353.2461945112, 0.0, 0.0, 0.0, 196.0, 29.0, 96.0, 0.0, 14.0, 37.0, 191.0, 0.0, 0.0, 0.0, 1.687803291012652E9, 0.0, 2023-06-26 13:14:51.012
129.0, 48671.41528980915, 54523.32550565309, 73322.17077281127, 561.9675590953302, -1764.1337828795652, -5134.195701384032, 24247.395902561653, 17451.88444279247, 0.0, 0.0, 0.0, 196.0, 6.0, 192.0, 0.0, 14.0, 37.0, 195.0, 0.0, 0.0, 0.0, 1.6878032910177553E9, 0.0, 2023-06-26 13:14:51.017
130.0, 48666.36379556225, 54536.200110459344, 72346.80770001504, 563.6662916739335, -1762.1221258785877, -5135.6932682625375, 24289.059554226347, 17491.22351303381, 0.0, 0.0, 0.0, 196.0, 0.0, 0.0, 0.0, 14.0, 37.0, 199.0, 0.0, 0.0, 0.0, 1.6878032910216918E9, 0.0, 2023-06-26 13:14:51.021
131.0, 48627.02472532091, 54510.5179560802, 74883.61893697012, 481.9259622008756, -1855.395955490584, -5241.0370398804, 24221.378472015676, 17407.337416093043, 0.0, 0.0, 0.0, 196.0, 0.0, 0.0, 0.0, 14.0, 37.0, 203.0, 0.0, 0.0, 0.0, 1.6878032910257385E9, 0.0, 2023-06-26 13:14:51.025
132.0, 48564.03750944585, 54434.32085923205, 76708.63887174593, 430.4498947203034, -1876.0936708561983, -5252.123505130232, 24141.091005932216, 17330.38035993342, 0.0, 0.0, 0.0, 196.0, 0.0, 0.0, 0.0, 14.0, 37.0, 207.0, 0.0, 0.0, 0.0, 1.6878032910287507E9, 0.0, 2023-06-26 13:14:51.028
133.0, 48650.67287095462, 54500.50437456422, 73844.57574422071, 556.2902160036822, -1806.1774141999979, -5107.463015015485, 24201.30660549481, 17432.036093716157, 0.0, 0.0, 0.0, 196.0, 0.0, 0.0, 0.0, 14.0, 37.0, 211.0, 0.0, 0.0, 0.0, 1.6878032910328572E9, 0.0, 2023-06-26 13:14:51.032
134.0, 48677.36085383426, 54533.070866235605, 72113.27667394599, 608.1686148844499, -1756.2883205757526, -5082.116136803167, 24273.03335345189, 17523.79000470519, 0.0, 0.0, 0.0, 196.0, 0.0, 0.0, 0.0, 14.0, 37.0, 215.0, 0.0, 0.0, 0.0, 1.6878032910367873E9, 0.0, 2023-06-26 13:14:51.036
135.0, 48641.106324327746, 54516.08354044957, 74239.93340014618, 545.8966548319644, -1831.2560714788524, -5183.9953880304565, 24213.734175411962, 17453.82904456008, 0.0, 0.0, 0.0, 196.0, 0.0, 0.0, 0.0, 14.0, 37.0, 219.0, 0.0, 0.0, 0.0, 1.6878032910408125E9, 0.0, 2023-06-26 13:14:51.040
136.0, 48576.934465996565, 54449.96708035077, 76628.4855161292, 483.3788255904705, -1903.6757235140471, -5270.228418139031, 24134.810165740273, 17366.657241184384, 0.0, 0.0, 0.0, 196.0, 0.0, 0.0, 0.0, 14.0, 37.0, 223.0, 0.0, 0.0, 0.0, 1.6878032910458813E9, 0.0, 2023-06-26 13:14:51.045
137.0, 48627.404704976645, 54479.49373477623, 74410.3654516179, 567.0637568311402, -1837.2463389928746, -5186.029396775889, 24158.100683462704, 17428.97390472578, 0.0, 0.0, 0.0, 196.0, 254.0, 224.0, 0.0, 14.0, 37.0, 227.0, 0.0, 0.0, 0.0, 1.68780329104994E9, 0.0, 2023-06-26 13:14:51.049
138.0, 48656.350214046266, 54514.675380548884, 72028.47415548256, 630.7885802732206, -1783.8927249780568, -5132.675782761072, 24242.344408314755, 17518.80556569166, 0.0, 0.0, 0.0, 196.0, 28.0, 112.0, 0.0, 14.0, 37.0, 231.0, 0.0, 0.0, 0.0, 1.6878032910538733E9, 0.0, 2023-06-26 13:14:51.053
139.0, 48633.7302486575, 54514.1165869375, 73645.26523891273, 570.1482975659726, -1816.88389979409, -5241.618185236238, 24207.609797431207, 17449.761027069217, 0.0, 0.0, 0.0, 196.0, 6.0, 208.0, 0.0, 14.0, 37.0, 235.0, 0.0, 0.0, 0.0, 1.687803291056883E9, 0.0, 2023-06-26 13:14:51.056
140.0, 48587.506841123926, 54461.545283978616, 76414.26639726954, 513.8219015385988, -1889.4376622960167, -5289.339159648319, 24162.705142820498, 17422.089567433544, 0.0, 0.0, 0.0, 196.0, 0.0, 0.0, 0.0, 14.0, 37.0, 239.0, 0.0, 0.0, 0.0, 1.6878032910609024E9, 0.0, 2023-06-26 13:14:51.060
141.0, 48610.59619314625, 54468.29551080412, 75001.68085118305, 569.6118556990452, -1882.03923488131, -5174.45119314804, 24168.44954114551, 17465.966041799315, 0.0, 0.0, 0.0, 196.0, 0.0, 0.0, 0.0, 14.0, 37.0, 243.0, 0.0, 0.0, 0.0, 1.6878032910649133E9, 0.0, 2023-06-26 13:14:51.064
142.0, 48625.48245495349, 54488.389729069444, 72078.65382178471, 625.871196493053, -1841.716687883936, -5103.886735902636, 24242.009132147927, 17521.37601630402, 0.0, 0.0, 0.0, 196.0, 0.0, 0.0, 0.0, 14.0, 37.0, 247.0, 0.0, 0.0, 0.0, 1.6878032910689511E9, 0.0, 2023-06-26 13:14:51.068
143.0, 48610.01504779042, 54480.47721153226, 73121.89914249172, 558.8606666160425, -1884.2297058379302, -5214.192594789576, 24210.26965502139, 17441.267364176198, 0.0, 0.0, 0.0, 196.0, 0.0, 0.0, 0.0, 14.0, 37.0, 251.0, 0.0, 0.0, 0.0, 1.6878032910729623E9, 0.0, 2023-06-26 13:14:51.072
144.0, 48548.95008193852, 54418.78639683562, 76083.95231770902, 480.0037121777192, -1917.3773428651505, -5317.502357662005, 24145.941334479015, 17371.23934879772, 0.0, 0.0, 0.0, 196.0, 0.0, 0.0, 0.0, 14.0, 37.0, 255.0, 0.0, 0.0, 0.0, 1.6878032910779696E9, 0.0, 2023-06-26 13:14:51.077
145.0, 48591.15017547014, 54439.41705696787, 75565.16832890133, 540.6663466294225, -1873.6126272216593, -5250.290662084897, 24145.717817034463, 17404.34228233603, 0.0, 0.0, 0.0, 196.0, 0.0, 0.0, 0.0, 14.0, 38.0, 3.0, 0.0, 0.0, 0.0, 1.6878032910819952E9, 0.0, 2023-06-26 13:14:51.081
146.0, 48659.278292569914, 54499.07386291908, 72318.91272293481, 647.0606502366842, -1800.3436088971628, -5141.951756710024, 24240.80213794734, 17528.439167551896, 0.0, 0.0, 0.0, 196.0, 0.0, 0.0, 0.0, 14.0, 38.0, 7.0, 0.0, 0.0, 0.0, 1.687803291085013E9, 0.0, 2023-06-26 13:14:51.085
147.0, 48644.63789995169, 54508.93098222387, 72702.7145269769, 611.5213765527459, -1807.6079258451375, -5182.631931618683, 24224.284198794867, 17487.535475198685, 0.0, 0.0, 0.0, 196.0, 0.0, 192.0, 0.0, 14.0, 38.0, 11.0, 0.0, 0.0, 0.0, 1.6878032910890348E9, 0.0, 2023-06-26 13:14:51.089
148.0, 48583.99761724444, 54458.3042810326, 75651.02137935418, 520.2145004528165, -1884.8332029382234, -5259.320766844841, 24154.099721205203, 17403.671730002374, 0.0, 0.0, 0.0, 196.0, 29.0, 192.0, 0.0, 14.0, 38.0, 15.0, 0.0, 0.0, 0.0, 1.68780329109305E9, 0.0, 2023-06-26 13:14:51.093
149.0, 48577.89559100814, 54437.87478660045, 76007.06231678276, 521.6897155868669, -1926.80977902529, -5256.32563308783, 24136.620657041152, 17403.425860813364, 0.0, 0.0, 0.0, 196.0, 6.0, 208.0, 0.0, 14.0, 38.0, 19.0, 0.0, 0.0, 0.0, 1.6878032910970702E9, 0.0, 2023-06-26 13:14:51.097
150.0, 48656.75254544646, 54502.225458887275, 72679.3569540211, 636.2200541758602, -1798.7789867852912, -5136.788503740848, 24250.815719463317, 17530.115548386046, 0.0, 0.0, 0.0, 196.0, 0.0, 0.0, 0.0, 14.0, 38.0, 23.0, 0.0, 0.0, 0.0, 1.6878032911010854E9, 0.0, 2023-06-26 13:14:51.101
151.0, 48637.0830103258, 54490.93782793735, 72334.29072312007, 595.361065311559, -1796.7896815287688, -5180.955550784534, 24248.334675828777, 17508.881391153504, 0.0, 0.0, 0.0, 196.0, 0.0, 0.0, 0.0, 14.0, 38.0, 27.0, 0.0, 0.0, 0.0, 1.6878032911051924E9, 0.0, 2023-06-26 13:14:51.105
152.0, 48597.78864357337, 54465.59094972503, 75114.44540196007, 516.5935178510568, -1877.3677202901508, -5255.163342376154, 24176.63027961615, 17421.977808711268, 0.0, 0.0, 0.0, 196.0, 0.0, 0.0, 0.0, 14.0, 38.0, 31.0, 0.0, 0.0, 0.0, 1.6878032911101775E9, 0.0, 2023-06-26 13:14:51.110
153.0, 48580.086061964765, 54431.88451908642, 76317.97508215607, 495.0911396850514, -1879.4687842689498, -5269.557865805372, 24148.556488580285, 17410.421956827875, 0.0, 0.0, 0.0, 196.0, 0.0, 0.0, 0.0, 14.0, 38.0, 35.0, 0.0, 0.0, 0.0, 1.687803291113171E9, 0.0, 2023-06-26 13:14:51.113
154.0, 48644.86141739624, 54481.30422607711, 73162.55696565592, 587.649713474478, -1816.235699204886, -5155.027527216378, 24216.639902191153, 17487.826047876602, 0.0, 0.0, 0.0, 196.0, 0.0, 0.0, 0.0, 14.0, 38.0, 39.0, 0.0, 0.0, 0.0, 1.6878032911162062E9, 0.0, 2023-06-26 13:14:51.116
155.0, 48670.87884794222, 54520.620944573995, 72082.90065323122, 609.487367807313, -1795.202707672442, -5142.152922410121, 24270.37349586171, 17529.824975708125, 0.0, 0.0, 0.0, 196.0, 0.0, 0.0, 0.0, 14.0, 38.0, 43.0, 0.0, 0.0, 0.0, 1.6878032911211913E9, 0.0, 2023-06-26 13:14:51.121
156.0, 48619.04515255036, 54483.20412435581, 74587.86065433749, 519.3651341635149, -1822.293021952274, -5233.1245223432215, 24205.195809030036, 17455.21485271631, 0.0, 0.0, 0.0, 196.0, 0.0, 0.0, 0.0, 14.0, 38.0, 47.0, 0.0, 0.0, 0.0, 1.6878032911252222E9, 0.0, 2023-06-26 13:14:51.125
157.0, 48585.316370167304, 54442.97098433626, 76503.18163671275, 491.2466396387386, -1877.010092378866, -5278.073880442844, 24165.990849255428, 17415.004064441215, 0.0, 0.0, 0.0, 196.0, 1.0, 112.0, 0.0, 14.0, 38.0, 51.0, 0.0, 0.0, 0.0, 1.6878032911292284E9, 0.0, 2023-06-26 13:14:51.129
158.0, 48664.01686239444, 54498.20214488532, 73774.10069395312, 589.7284257088215, -1827.1209987546206, -5168.729146567482, 24241.539745514365, 17496.27500728071, 0.0, 0.0, 0.0, 196.0, 30.0, 144.0, 0.0, 14.0, 38.0, 55.0, 0.0, 0.0, 0.0, 1.6878032911332424E9, 0.0, 2023-06-26 13:14:51.133
159.0, 48678.34433059029, 54515.41298811591, 71990.40913467517, 624.0830569366285, -1757.5400182652497, -5112.223936584465, 24302.49295264399, 17572.449752384397, 0.0, 0.0, 0.0, 196.0, 7.0, 0.0, 0.0, 14.0, 38.0, 59.0, 0.0, 0.0, 0.0, 1.6878032911372857E9, 0.0, 2023-06-26 13:14:51.137
160.0, 48617.65934439413, 54475.22455158527, 74072.29531673138, 534.9890035377746, -1828.0821237661987, -5204.335475484786, 24219.74679467044, 17475.957271570835, 0.0, 0.0, 0.0, 196.0, 0.0, 0.0, 0.0, 14.0, 38.0, 63.0, 0.0, 0.0, 0.0, 1.6878032911413014E9, 0.0, 2023-06-26 13:14:51.141
161.0, 48573.38053862817, 54426.00601029468, 76529.15436376982, 491.82778499457663, -1878.5747144907373, -5246.535569016406, 24169.142445223624, 17429.4656431038, 0.0, 0.0, 0.0, 196.0, 0.0, 0.0, 0.0, 14.0, 38.0, 67.0, 0.0, 0.0, 0.0, 1.687803291144312E9, 0.0, 2023-06-26 13:14:51.144
162.0, 48643.900292384664, 54469.83778117154, 74462.06503654302, 584.1851930839053, -1839.5932721606819, -5163.029451731379, 24216.394033002143, 17514.648141222973, 0.0, 0.0, 0.0, 196.0, 0.0, 0.0, 0.0, 14.0, 38.0, 71.0, 0.0, 0.0, 0.0, 1.6878032911483295E9, 0.0, 2023-06-26 13:14:51.148
163.0, 48667.14610661818, 54496.39165358444, 72042.68986495613, 630.0956761951061, -1742.1173145910877, -5122.170462867077, 24281.2811471559, 17597.9530928079, 0.0, 0.0, 0.0, 196.0, 0.0, 0.0, 0.0, 14.0, 38.0, 75.0, 0.0, 0.0, 0.0, 1.6878032911533575E9, 0.0, 2023-06-26 13:14:51.153
164.0, 48651.49988549947, 54497.59864778503, 73620.45480256734, 569.3436347655816, -1755.885989175557, -5169.31029192332, 24233.314303554813, 17522.51595527124, 0.0, 0.0, 0.0, 196.0, 0.0, 0.0, 0.0, 14.0, 38.0, 79.0, 0.0, 0.0, 0.0, 1.687803291157354E9, 0.0, 2023-06-26 13:14:51.157
165.0, 48583.46117537751, 54434.67848714334, 76411.51713270154, 491.9842472057638, -1845.1588565300533, -5257.510275543961, 24157.29602066231, 17452.152663725934, 0.0, 0.0, 0.0, 196.0, 0.0, 0.0, 0.0, 14.0, 38.0, 83.0, 0.0, 0.0, 0.0, 1.68780329116138E9, 0.0, 2023-06-26 13:14:51.161
166.0, 48596.20166971704, 54431.07985628604, 75142.27332380692, 521.8238260535987, -1905.486214814927, -5218.595888447272, 24142.990904210914, 17478.706536138838, 0.0, 0.0, 0.0, 196.0, 0.0, 0.0, 0.0, 14.0, 38.0, 87.0, 0.0, 0.0, 0.0, 1.6878032911653948E9, 0.0, 2023-06-26 13:14:51.165
167.0, 48656.39491753518, 54484.70169123432, 72253.66798086977, 616.3270016106369, -1777.0977946636433, -5164.571722098794, 24251.93330668608, 17595.09206951762, 0.0, 0.0, 0.0, 196.0, 2.0, 48.0, 0.0, 14.0, 38.0, 91.0, 0.0, 0.0, 0.0, 1.6878032911694276E9, 0.0, 2023-06-26 13:14:51.169
168.0, 48646.51544648594, 54494.961141939304, 73228.67342575472, 575.4009575129697, -1800.0306844747884, -5183.615408374716, 24249.474614796, 17552.75786551927, 0.0, 0.0, 0.0, 196.0, 30.0, 112.0, 0.0, 14.0, 38.0, 95.0, 0.0, 0.0, 0.0, 1.687803291172428E9, 0.0, 2023-06-26 13:14:51.172
169.0, 48568.41845135909, 54428.1964812513, 76182.09882761227, 488.40796809291464, -1843.1471995290758, -5208.761120886937, 24167.06373298928, 17458.679373106883, 0.0, 0.0, 0.0, 196.0, 7.0, 144.0, 0.0, 14.0, 38.0, 99.0, 0.0, 0.0, 0.0, 1.6878032911764476E9, 0.0, 2023-06-26 13:14:51.176
170.0, 48583.505878866425, 54422.13915850391, 75798.0958578701, 513.7324945607776, -1874.2384760664079, -5196.847641092258, 24147.461253101977, 17455.416018416407, 0.0, 0.0, 0.0, 196.0, 0.0, 0.0, 0.0, 14.0, 38.0, 103.0, 0.0, 0.0, 0.0, 1.687803291180458E9, 0.0, 2023-06-26 13:14:51.180
171.0, 48658.585388491796, 54482.958255166806, 72599.9412059714, 616.774036499743, -1794.263934405319, -5115.800215697314, 24236.26473382291, 17567.107685459578, 0.0, 0.0, 0.0, 196.0, 0.0, 0.0, 0.0, 14.0, 38.0, 107.0, 0.0, 0.0, 0.0, 1.6878032911855E9, 0.0, 2023-06-26 13:14:51.185
172.0, 48649.287062798394, 54494.64821751693, 72924.08620406226, 583.5593442391568, -1791.4029111150398, -5163.409431387118, 24240.824489691793, 17555.350667876086, 0.0, 0.0, 0.0, 196.0, 0.0, 0.0, 0.0, 14.0, 38.0, 111.0, 0.0, 0.0, 0.0, 1.6878032911895087E9, 0.0, 2023-06-26 13:14:51.189
173.0, 48609.031571034386, 54462.99814736821, 75846.57679159364, 512.3019829156378, -1855.3736037461288, -5242.1099236142545, 24182.084105263246, 17456.444198661353, 0.0, 0.0, 0.0, 196.0, 0.0, 0.0, 0.0, 14.0, 38.0, 115.0, 0.0, 0.0, 0.0, 1.6878032911935456E9, 0.0, 2023-06-26 13:14:51.193
174.0, 48596.2687249504, 54434.61143190997, 76338.65044577724, 507.5634130911128, -1886.0849006277206, -5234.733847944003, 24153.429168871542, 17445.69300957835, 0.0, 0.0, 0.0, 196.0, 0.0, 0.0, 0.0, 14.0, 38.0, 119.0, 0.0, 0.0, 0.0, 1.6878032911975572E9, 0.0, 2023-06-26 13:14:51.197
175.0, 48661.15583910416, 54484.0087871562, 73075.0498861134, 606.6710480059443, -1800.7012368084477, -5124.472692545974, 24227.70401569653, 17582.306871689187, 0.0, 0.0, 0.0, 196.0, 0.0, 0.0, 0.0, 14.0, 38.0, 123.0, 0.0, 0.0, 0.0, 1.6878032912005606E9, 0.0, 2023-06-26 13:14:51.200
176.0, 48656.86430416874, 54495.810508228606, 72716.59496028363, 591.8294896876204, -1808.010257245333, -5116.314305819787, 24244.289010082368, 17563.687868557914, 0.0, 0.0, 0.0, 196.0, 0.0, 0.0, 0.0, 14.0, 38.0, 127.0, 0.0, 0.0, 0.0, 1.687803291204583E9, 0.0, 2023-06-26 13:14:51.204
177.0, 48584.399948644634, 54437.718324389265, 75448.38046412235, 479.64608426643423, -1825.7575423428468, -5227.916565885135, 24172.49520689192, 17445.581250856074, 0.0, 0.0, 0.0, 196.0, 2.0, 48.0, 0.0, 14.0, 38.0, 131.0, 0.0, 0.0, 0.0, 1.6878032912096329E9, 0.0, 2023-06-26 13:14:51.209
178.0, 48530.59929974071, 54378.12857367141, 76737.18204941537, 437.46834247926984, -1913.1528631630974, -5261.533589545917, 24126.383558080623, 17415.361692352497, 0.0, 0.0, 0.0, 196.0, 30.0, 160.0, 0.0, 14.0, 38.0, 135.0, 0.0, 0.0, 0.0, 1.6878032912142992E9, 0.0, 2023-06-26 13:14:51.214
179.0, 48634.736077157984, 54459.801847911105, 73646.49458485778, 566.3485010085703, -1816.1462922270648, -5147.852617246225, 24210.850800377226, 17524.70642622786, 0.0, 0.0, 0.0, 196.0, 7.0, 144.0, 0.0, 14.0, 38.0, 139.0, 0.0, 0.0, 0.0, 1.6878032912176535E9, 0.0, 2023-06-26 13:14:51.217
180.0, 48659.85943792575, 54493.35181633852, 72540.77613839819, 588.0296931302182, -1742.5196459912834, -5123.220994856477, 24271.759304017938, 17574.170836707453, 0.0, 0.0, 0.0, 196.0, 0.0, 0.0, 0.0, 14.0, 38.0, 143.0, 0.0, 0.0, 0.0, 1.6878032912216775E9, 0.0, 2023-06-26 13:14:51.221
181.0, 48607.131672755684, 54461.768801423175, 74974.81405434776, 500.5449653321464, -1838.2521674933635, -5216.114844812732, 24203.184152029058, 17485.680280408895, 0.0, 0.0, 0.0, 196.0, 0.0, 0.0, 0.0, 14.0, 38.0, 147.0, 0.0, 0.0, 0.0, 1.6878032912246804E9, 0.0, 2023-06-26 13:14:51.224
182.0, 48578.812012530805, 54429.20230975179, 76927.82007787467, 472.91820918538684, -1855.395955490584, -5241.886406169701, 24154.658514816587, 17439.412169386407, 0.0, 0.0, 0.0, 196.0, 0.0, 0.0, 0.0, 14.0, 38.0, 151.0, 0.0, 0.0, 0.0, 1.6878032912287E9, 0.0, 2023-06-26 13:14:51.228
183.0, 48626.980021831994, 54453.94569086382, 74280.90414773276, 543.169742008417, -1810.7371700688805, -5168.952664012035, 24178.463122661487, 17506.445051007875, 0.0, 0.0, 0.0, 196.0, 0.0, 0.0, 0.0, 14.0, 38.0, 155.0, 0.0, 0.0, 0.0, 1.6878032912328403E9, 0.0, 2023-06-26 13:14:51.232
184.0, 48643.94499587357, 54476.297435319124, 72452.75496873319, 575.1550883239613, -1739.7927331677358, -5116.53782326434, 24254.1237776427, 17566.973574992844, 0.0, 0.0, 0.0, 196.0, 0.0, 0.0, 0.0, 14.0, 38.0, 159.0, 0.0, 0.0, 0.0, 1.6878032912367632E9, 0.0, 2023-06-26 13:14:51.236
185.0, 48625.05777180884, 54479.225513842764, 74488.8871298894, 520.1921487083613, -1749.8063146837135, -5181.894324051657, 24217.198695802534, 17489.480076966294, 0.0, 0.0, 0.0, 196.0, 0.0, 0.0, 0.0, 14.0, 38.0, 163.0, 0.0, 0.0, 0.0, 1.6878032912417867E9, 0.0, 2023-06-26 13:14:51.241
186.0, 48560.930616966565, 54414.45015841129, 76919.3487667261, 459.14953460091766, -1884.2297058379302, -5282.186601422621, 24151.126939192647, 17423.318913378585, 0.0, 0.0, 0.0, 196.0, 0.0, 0.0, 0.0, 14.0, 38.0, 167.0, 0.0, 0.0, 0.0, 1.6878032912458088E9, 0.0, 2023-06-26 13:14:51.245
187.0, 48595.732283083475, 54420.88746081442, 74950.60711510267, 510.62560208148983, -1844.7118216409472, -5201.206231261043, 24171.69054409153, 17469.765838356714, 0.0, 0.0, 0.0, 196.0, 1.0, 96.0, 0.0, 14.0, 38.0, 171.0, 0.0, 0.0, 0.0, 1.6878032912488225E9, 0.0, 2023-06-26 13:14:51.248
188.0, 48634.66902192462, 54459.95831012229, 72506.73443159276, 585.682759962411, -1756.6683002314926, -5114.235593585443, 24248.111158384225, 17568.113513960066, 0.0, 0.0, 0.0, 196.0, 29.0, 144.0, 0.0, 14.0, 38.0, 175.0, 0.0, 0.0, 0.0, 1.6878032912528412E9, 0.0, 2023-06-26 13:14:51.252
189.0, 48602.28134420888, 54446.3013942601, 74025.64722605314, 509.91034625892, -1768.559428281716, -5230.0176298639335, 24187.69439312153, 17475.64434714846, 0.0, 0.0, 0.0, 196.0, 7.0, 128.0, 0.0, 14.0, 38.0, 179.0, 0.0, 0.0, 0.0, 1.6878032912568388E9, 0.0, 2023-06-26 13:14:51.256
190.0, 48544.83736095874, 54398.62512333693, 76762.97596251678, 443.5480169711133, -1826.0481150207659, -5294.413005639673, 24140.86748848766, 17417.10512842001, 0.0, 0.0, 0.0, 196.0, 0.0, 0.0, 0.0, 14.0, 38.0, 183.0, 0.0, 0.0, 0.0, 1.6878032912608783E9, 0.0, 2023-06-26 13:14:51.260
191.0, 48572.95585548352, 54407.96815251925, 75578.9370034858, 491.0007704497302, -1862.7049759274694, -5248.323708572831, 24140.979247209936, 17446.184747956366, 0.0, 0.0, 0.0, 196.0, 0.0, 0.0, 0.0, 14.0, 38.0, 187.0, 0.0, 0.0, 0.0, 1.6878032912648969E9, 0.0, 2023-06-26 13:14:51.264
192.0, 48638.42411499311, 54470.9553683943, 72685.99542212432, 600.9937049142962, -1769.9675881824003, -5096.823584654759, 24242.255001336933, 17562.525577846238, 0.0, 0.0, 0.0, 196.0, 0.0, 0.0, 0.0, 14.0, 38.0, 191.0, 0.0, 0.0, 0.0, 1.68780329126893E9, 0.0, 2023-06-26 13:14:51.268
193.0, 48624.38721947518, 54475.470420774276, 73633.75409051825, 557.0278235707073, -1758.0541083877217, -5163.565893598306, 24228.754547685927, 17532.37307457603, 0.0, 0.0, 0.0, 196.0, 0.0, 0.0, 0.0, 14.0, 38.0, 195.0, 0.0, 0.0, 0.0, 1.6878032912729263E9, 0.0, 2023-06-26 13:14:51.272
194.0, 48572.35235838323, 54424.82136783855, 76472.11271191988, 481.2554098672164, -1838.587443660193, -5247.899025428179, 24153.563279338276, 17452.82321605959, 0.0, 0.0, 0.0, 196.0, 0.0, 0.0, 0.0, 14.0, 38.0, 199.0, 0.0, 0.0, 0.0, 1.687803291276946E9, 0.0, 2023-06-26 13:14:51.276
195.0, 48592.64774234864, 54424.597850394, 76154.06974006532, 506.781102035177, -1864.8954468840896, -5242.981641648012, 24142.946200722006, 17465.83193133258, 0.0, 0.0, 0.0, 196.0, 0.0, 0.0, 0.0, 14.0, 38.0, 203.0, 0.0, 0.0, 0.0, 1.6878032912799716E9, 0.0, 2023-06-26 13:14:51.279
196.0, 48649.01884186493, 54475.20219984081, 72985.91112922563, 612.6389637755112, -1756.847114187135, -5115.889622675136, 24236.488251267463, 17579.781124565736, 0.0, 0.0, 0.0, 196.0, 0.0, 0.0, 0.0, 14.0, 38.0, 207.0, 0.0, 0.0, 0.0, 1.687803291284988E9, 0.0, 2023-06-26 13:14:51.284
197.0, 48625.23658576448, 54469.59191198253, 73279.25542345709, 567.9354748648972, -1792.6993122934477, -5161.35307089723, 24220.66321619311, 17533.04362690969, 0.0, 0.0, 0.0, 196.0, 0.0, 192.0, 0.0, 14.0, 38.0, 211.0, 0.0, 0.0, 0.0, 1.6878032912890148E9, 0.0, 2023-06-26 13:14:51.289
198.0, 48579.63902707565, 54431.72805687524, 76073.64816351511, 493.0571309396185, -1831.3454784566736, -5243.495731770484, 24126.808241225273, 17431.70081754933, 0.0, 0.0, 0.0, 196.0, 29.0, 96.0, 0.0, 14.0, 38.0, 215.0, 0.0, 0.0, 0.0, 1.6878032912930465E9, 0.0, 2023-06-26 13:14:51.293
199.0, 48569.53603858186, 54402.469623383244, 76597.70716401424, 487.31273261460456, -1848.9586530874556, -5269.781383249925, 24108.278645071823, 17421.419015099887, 0.0, 0.0, 0.0, 196.0, 7.0, 80.0, 0.0, 14.0, 38.0, 219.0, 0.0, 0.0, 0.0, 1.6878032912970665E9, 0.0, 2023-06-26 13:14:51.297
200.0, 48628.36582998822, 54450.52587396215, 73385.7167822977, 590.4660332758467, -1773.9909021843557, -5143.337564866253, 24217.17634405808, 17562.771447035248, 0.0, 0.0, 0.0, 196.0, 0.0, 0.0, 0.0, 14.0, 38.0, 223.0, 0.0, 0.0, 0.0, 1.6878032913010645E9, 0.0, 2023-06-26 13:14:51.301
201.0, 48636.41245799213, 54479.62784524296, 73029.27351346893, 604.5923357716007, -1737.0881720886437, -5112.223936584465, 24246.971219417002, 17566.9959267373, 0.0, 0.0, 0.0, 196.0, 0.0, 0.0, 0.0, 14.0, 38.0, 227.0, 0.0, 0.0, 0.0, 1.6878032913050945E9, 0.0, 2023-06-26 13:14:51.305
202.0, 48584.981094000475, 54444.02151632566, 75672.68021973137, 524.0590004991294, -1844.331841985207, -5216.070141323822, 24183.514616908386, 17475.778457615193, 0.0, 0.0, 0.0, 196.0, 0.0, 0.0, 0.0, 14.0, 38.0, 231.0, 0.0, 0.0, 0.0, 1.6878032913081267E9, 0.0, 2023-06-26 13:14:51.308
203.0, 48537.774209710864, 54379.58143706101, 76917.29240623623, 474.61694176399016, -1852.9819670894108, -5276.732775775526, 24120.30388358878, 17432.952515238823, 0.0, 0.0, 0.0, 196.0, 0.0, 0.0, 0.0, 14.0, 38.0, 235.0, 0.0, 0.0, 0.0, 1.687803291313204E9, 0.0, 2023-06-26 13:14:51.313
204.0, 48598.123919740196, 54419.345190447, 73878.10336090367, 578.0384633586959, -1769.2523323598305, -5139.761285753404, 24201.999509572925, 17526.65102799547, 0.0, 0.0, 0.0, 196.0, 0.0, 0.0, 0.0, 14.0, 38.0, 239.0, 0.0, 0.0, 0.0, 1.6878032913171933E9, 0.0, 2023-06-26 13:14:51.317
205.0, 48601.3202191973, 54438.88061510094, 72843.35170308968, 595.361065311559, -1717.888023601535, -5123.578622767762, 24244.400768804644, 17569.47697037184, 0.0, 0.0, 0.0, 196.0, 0.0, 0.0, 0.0, 14.0, 38.0, 243.0, 0.0, 0.0, 0.0, 1.6878032913212028E9, 0.0, 2023-06-26 13:14:51.321
206.0, 48566.67501529158, 54421.558013148075, 75243.16909827819, 507.4516543688362, -1816.459216649439, -5261.42183082364, 24162.369866653666, 17468.44708543385, 0.0, 0.0, 0.0, 196.0, 0.0, 0.0, 0.0, 14.0, 38.0, 247.0, 0.0, 0.0, 0.0, 1.6878032913251936E9, 0.0, 2023-06-26 13:14:51.325
207.0, 48545.396154570124, 54387.784527276104, 77099.5038270359, 490.5537355606241, -1841.7613913728467, -5296.737587063025, 24142.655628044085, 17473.990318058768, 0.0, 0.0, 0.0, 196.0, 0.0, 112.0, 0.0, 14.0, 38.0, 251.0, 0.0, 0.0, 0.0, 1.6878032913292215E9, 0.0, 2023-06-26 13:14:51.329
208.0, 48597.47571915099, 54422.76500734866, 74467.87649010141, 575.0209778572295, -1789.3465506251516, -5159.54257959635, 24183.49226516393, 17545.314734615655, 0.0, 0.0, 0.0, 196.0, 29.0, 208.0, 0.0, 14.0, 38.0, 255.0, 0.0, 0.0, 0.0, 1.6878032913332355E9, 0.0, 2023-06-26 13:14:51.333
209.0, 48593.56416387131, 54434.410266209874, 72752.76008281232, 603.6088590155672, -1756.4224310424843, -5082.384357736631, 24226.69818719604, 17577.925929775945, 0.0, 0.0, 0.0, 196.0, 6.0, 224.0, 0.0, 14.0, 39.0, 3.0, 0.0, 0.0, 0.0, 1.6878032913362432E9, 0.0, 2023-06-26 13:14:51.336
210.0, 48574.58753282876, 54428.79997835159, 74796.44713359441, 536.0842390160846, -1806.1550624555425, -5198.121690526211, 24177.32318369427, 17489.301263010653, 0.0, 0.0, 0.0, 196.0, 0.0, 0.0, 0.0, 14.0, 39.0, 7.0, 0.0, 0.0, 0.0, 1.687803291341277E9, 0.0, 2023-06-26 13:14:51.341
211.0, 48526.71009620549, 54378.73207077171, 77075.02866685732, 483.66939826838956, -1851.104420555165, -5264.975758192034, 24119.16394462156, 17431.522003593684, 0.0, 0.0, 0.0, 196.0, 0.0, 0.0, 0.0, 14.0, 39.0, 11.0, 0.0, 0.0, 0.0, 1.6878032913452878E9, 0.0, 2023-06-26 13:14:51.345
212.0, 48590.077291736285, 54416.662981112364, 75055.48150008697, 561.9899108397855, -1822.8294638192015, -5184.732995597482, 24155.999619483904, 17510.490716754284, 0.0, 0.0, 0.0, 196.0, 0.0, 0.0, 0.0, 14.0, 39.0, 15.0, 0.0, 0.0, 0.0, 1.6878032913493073E9, 0.0, 2023-06-26 13:14:51.349
213.0, 48616.11707402672, 54439.10413254549, 72730.3189313792, 612.3930945865029, -1771.5098585498165, -5140.163617153599, 24222.540762727353, 17580.71989783286, 0.0, 0.0, 0.0, 196.0, 0.0, 0.0, 0.0, 14.0, 39.0, 19.0, 0.0, 0.0, 0.0, 1.6878032913533268E9, 0.0, 2023-06-26 13:14:51.353
214.0, 48556.01323318639, 54406.96232401876, 74358.3529422704, 513.2631079272161, -1826.5175016543271, -5257.622034266238, 24143.192069911012, 17469.69878312335, 0.0, 0.0, 0.0, 196.0, 0.0, 0.0, 0.0, 14.0, 39.0, 23.0, 0.0, 0.0, 0.0, 1.6878032913573368E9, 0.0, 2023-06-26 13:14:51.357
215.0, 48522.195043825515, 54376.049861437066, 76887.11755122156, 463.4187177918813, -1859.911007870556, -5319.1787384961535, 24115.20768585297, 17424.838832001547, 0.0, 0.0, 0.0, 196.0, 0.0, 0.0, 0.0, 14.0, 39.0, 27.0, 0.0, 0.0, 0.0, 1.6878032913603628E9, 0.0, 2023-06-26 13:14:51.360
216.0, 48565.37861411317, 54395.71939655774, 75632.78235587863, 531.6138901250232, -1863.107307327665, -5220.004048347956, 24136.307732618778, 17474.347945970054, 0.0, 0.0, 0.0, 196.0, 0.0, 0.0, 0.0, 14.0, 39.0, 31.0, 0.0, 0.0, 0.0, 1.687803291364386E9, 0.0, 2023-06-26 13:14:51.364
217.0, 48607.64576287816, 54435.41609471037, 72841.07182515525, 605.6428677610002, -1766.1007363916322, -5139.0907334197445, 24217.399861502632, 17570.505150616784, 0.0, 0.0, 0.0, 196.0, 0.0, 160.0, 0.0, 14.0, 39.0, 35.0, 0.0, 0.0, 0.0, 1.6878032913683932E9, 0.0, 2023-06-26 13:14:51.368
218.0, 48589.85377429173, 54433.33738247602, 73953.04876006232, 546.8577798435426, -1810.6477630910592, -5208.8281761203025, 24188.811980344293, 17499.583065460094, 0.0, 0.0, 0.0, 196.0, 30.0, 48.0, 0.0, 14.0, 39.0, 39.0, 0.0, 0.0, 0.0, 1.687803291373406E9, 0.0, 2023-06-26 13:14:51.373
219.0, 48551.87816046216, 54402.42491989433, 76606.33493737399, 483.5799912905683, -1841.3814117171064, -5273.536476318416, 24139.39227335361, 17438.898079263938, 0.0, 0.0, 0.0, 196.0, 6.0, 224.0, 0.0, 14.0, 39.0, 43.0, 0.0, 0.0, 0.0, 1.6878032913774254E9, 0.0, 2023-06-26 13:14:51.377
220.0, 48557.019061686886, 54391.62902732242, 76204.83055172331, 506.60228807953456, -1854.9712723459331, -5239.1147898572435, 24135.748939007397, 17460.154588240934, 0.0, 0.0, 0.0, 196.0, 0.0, 0.0, 0.0, 14.0, 39.0, 47.0, 0.0, 0.0, 0.0, 1.6878032913814435E9, 0.0, 2023-06-26 13:14:51.381
221.0, 48593.787681315865, 54413.801957822085, 73094.69706948962, 587.8285274301204, -1797.370826884607, -5129.0548001593115, 24199.965500827493, 17546.36526660505, 0.0, 0.0, 0.0, 196.0, 0.0, 0.0, 0.0, 14.0, 39.0, 51.0, 0.0, 0.0, 0.0, 1.6878032913854864E9, 0.0, 2023-06-26 13:14:51.385
222.0, 48597.16279472862, 54435.70666738829, 73600.2264738353, 563.3533672515592, -1763.6420445015485, -5171.098431479744, 24206.581617186264, 17524.66172273895, 0.0, 0.0, 0.0, 196.0, 0.0, 0.0, 0.0, 14.0, 39.0, 55.0, 0.0, 0.0, 0.0, 1.6878032913884797E9, 0.0, 2023-06-26 13:14:51.388
223.0, 48556.12499190867, 54403.162527461354, 76242.22502019705, 491.5595640611129, -1818.6720393505145, -5256.906778443668, 24153.943258994015, 17447.54820436814, 0.0, 0.0, 0.0, 196.0, 0.0, 0.0, 0.0, 14.0, 39.0, 59.0, 0.0, 0.0, 0.0, 1.6878032913924987E9, 0.0, 2023-06-26 13:14:51.392
224.0, 48531.8062939413, 54364.76223048714, 76654.48059493072, 481.6577412674119, -1870.103403342176, -5266.205104137076, 24124.3942528241, 17436.528794351674, 0.0, 0.0, 0.0, 196.0, 0.0, 0.0, 0.0, 14.0, 39.0, 63.0, 0.0, 0.0, 0.0, 1.6878032913965173E9, 0.0, 2023-06-26 13:14:51.396
225.0, 48595.888745294666, 54418.62993462443, 73473.02269614013, 585.6380564735003, -1784.5856290561712, -5163.49883836494, 24206.492210208442, 17552.57905156363, 0.0, 0.0, 0.0, 196.0, 0.0, 0.0, 0.0, 14.0, 39.0, 67.0, 0.0, 0.0, 0.0, 1.6878032914005373E9, 0.0, 2023-06-26 13:14:51.400
226.0, 48600.04616976335, 54434.79024586562, 73270.53824311952, 569.3659865100368, -1757.7635357098027, -5186.543486898361, 24233.493117510454, 17562.61498482406, 0.0, 0.0, 0.0, 196.0, 0.0, 0.0, 0.0, 14.0, 39.0, 71.0, 0.0, 0.0, 0.0, 1.6878032914045637E9, 0.0, 2023-06-26 13:14:51.404
227.0, 48557.622558787174, 54403.520155372644, 75788.26109030975, 495.98520946326374, -1836.9557663149556, -5205.855394107747, 24161.989886997926, 17460.46751266331, 0.0, 0.0, 0.0, 196.0, 0.0, 96.0, 0.0, 14.0, 39.0, 75.0, 0.0, 0.0, 0.0, 1.6878032914095824E9, 0.0, 2023-06-26 13:14:51.409
228.0, 48537.68480273304, 54382.08483244, 76942.84045014864, 482.9541424458197, -1880.9216476585445, -5230.330554286308, 24142.25329664389, 17461.205120230334, 0.0, 0.0, 0.0, 196.0, 30.0, 80.0, 0.0, 14.0, 39.0, 79.0, 0.0, 0.0, 0.0, 1.6878032914136426E9, 0.0, 2023-06-26 13:14:51.413
229.0, 48604.896498310154, 54432.91269933137, 73948.53370768233, 590.3319228091149, -1791.3582076261293, -5139.381306097664, 24209.062660820804, 17570.169874449955, 0.0, 0.0, 0.0, 196.0, 6.0, 160.0, 0.0, 14.0, 39.0, 83.0, 0.0, 0.0, 0.0, 1.6878032914166374E9, 0.0, 2023-06-26 13:14:51.416
230.0, 48591.99954175944, 54431.839815597516, 73027.57478089033, 600.7701874697432, -1713.238860754831, -5118.236555842943, 24241.830318192282, 17588.29713920321, 0.0, 0.0, 0.0, 196.0, 0.0, 0.0, 0.0, 14.0, 39.0, 87.0, 0.0, 0.0, 0.0, 1.6878032914206383E9, 0.0, 2023-06-26 13:14:51.420
231.0, 48559.92478846607, 54413.26551595516, 75293.41581981372, 520.7062388308333, -1758.3446810656408, -5197.249972492454, 24176.853797060707, 17493.101059568056, 0.0, 0.0, 0.0, 196.0, 0.0, 0.0, 0.0, 14.0, 39.0, 91.0, 0.0, 0.0, 0.0, 1.6878032914246547E9, 0.0, 2023-06-26 13:14:51.424
232.0, 48511.66737218707, 54361.52122754112, 77010.96856724842, 479.5119737997024, -1837.134580270598, -5257.353813332774, 24128.842249970705, 17450.252765447232, 0.0, 0.0, 0.0, 196.0, 0.0, 0.0, 0.0, 14.0, 39.0, 95.0, 0.0, 0.0, 0.0, 1.6878032914286723E9, 0.0, 2023-06-26 13:14:51.428
233.0, 48538.981203911455, 54374.55229455856, 74434.90766702982, 560.7605648947435, -1818.6049841171484, -5180.039129261867, 24175.043305759827, 17531.65781875346, 0.0, 0.0, 0.0, 196.0, 0.0, 0.0, 0.0, 14.0, 39.0, 98.0, 0.0, 0.0, 0.0, 1.6878032914327903E9, 0.0, 2023-06-26 13:14:51.432
234.0, 48529.526416006855, 54375.15579165886, 72913.17855276806, 566.4826114753022, -1809.6419345905704, -5170.383175657174, 24219.992663859448, 17576.093086730612, 0.0, 0.0, 0.0, 196.0, 0.0, 0.0, 0.0, 14.0, 39.0, 102.0, 0.0, 0.0, 0.0, 1.6878032914377265E9, 0.0, 2023-06-26 13:14:51.437
235.0, 48519.043447857315, 54378.46384983824, 74948.70721682397, 486.2174971362945, -1828.3726964441178, -5283.572409578849, 24159.68765731903, 17472.0233645467, 0.0, 0.0, 0.0, 196.0, 0.0, 0.0, 0.0, 14.0, 39.0, 106.0, 0.0, 0.0, 0.0, 1.687803291441743E9, 0.0, 2023-06-26 13:14:51.441
236.0, 48527.98414563944, 54371.1324776569, 76968.43319754997, 466.2573893377053, -1847.3046239977627, -5277.895066487202, 24138.408796597578, 17457.338268439566, 0.0, 0.0, 0.0, 196.0, 0.0, 0.0, 0.0, 14.0, 39.0, 110.0, 0.0, 0.0, 0.0, 1.6878032914447672E9, 0.0, 2023-06-26 13:14:51.444
237.0, 48602.61662037571, 54433.20327200929, 74943.23103943242, 580.9665418823412, -1799.0248559742995, -5155.943948739046, 24192.92470132407, 17555.99886846529, 0.0, 0.0, 0.0, 196.0, 0.0, 160.0, 0.0, 14.0, 39.0, 114.0, 0.0, 0.0, 0.0, 1.687803291448778E9, 0.0, 2023-06-26 13:14:51.448
238.0, 48615.26770773742, 54447.217815782766, 72755.55405086924, 641.3386036561255, -1738.6527942005152, -5121.276393088865, 24265.165539403624, 17631.793633913236, 0.0, 0.0, 0.0, 196.0, 30.0, 192.0, 0.0, 14.0, 39.0, 118.0, 0.0, 0.0, 0.0, 1.687803291452798E9, 0.0, 2023-06-26 13:14:51.452
239.0, 48594.50293713844, 54452.0010890962, 74514.97161566874, 578.8878296479976, -1770.9063614495233, -5204.469585951518, 24211.1637247996, 17544.174795648432, 0.0, 0.0, 0.0, 196.0, 6.0, 192.0, 0.0, 14.0, 39.0, 122.0, 0.0, 0.0, 0.0, 1.6878032914568238E9, 0.0, 2023-06-26 13:14:51.456
240.0, 48555.87912271966, 54419.41224568037, 76819.39176552198, 552.4010124684587, -1833.044211035277, -5201.8991353391575, 24152.02100897086, 17477.633652404984, 0.0, 0.0, 0.0, 196.0, 0.0, 0.0, 0.0, 14.0, 39.0, 126.0, 0.0, 0.0, 0.0, 1.6878032914608333E9, 0.0, 2023-06-26 13:14:51.460
241.0, 48580.60015208723, 54423.01087653767, 75510.29479626355, 579.133698837006, -1842.163722773042, -5185.470603164506, 24155.68669506153, 17516.81626043514, 0.0, 0.0, 0.0, 196.0, 0.0, 0.0, 0.0, 14.0, 39.0, 130.0, 0.0, 0.0, 0.0, 1.6878032914648557E9, 0.0, 2023-06-26 13:14:51.464
242.0, 48610.66324837962, 54450.88350187344, 72764.33828644018, 637.1141239540725, -1792.7216640379029, -5129.546538537328, 24247.775882217396, 17619.567229696182, 0.0, 0.0, 0.0, 196.0, 0.0, 0.0, 0.0, 14.0, 39.0, 134.0, 0.0, 0.0, 0.0, 1.687803291469894E9, 0.0, 2023-06-26 13:14:51.469
243.0, 48576.2639136629, 54434.96905982126, 74049.07185424231, 571.1317743220061, -1802.8246525317018, -5159.900207507635, 24212.616588189198, 17544.95710670437, 0.0, 0.0, 0.0, 196.0, 0.0, 0.0, 0.0, 14.0, 39.0, 138.0, 0.0, 0.0, 0.0, 1.6878032914728892E9, 0.0, 2023-06-26 13:14:51.472
244.0, 48530.286375318334, 54392.34428314499, 76520.92892181026, 496.9016309859313, -1880.429909280528, -5218.171205302621, 24162.995715498415, 17460.132236496476, 0.0, 0.0, 0.0, 196.0, 0.0, 0.0, 0.0, 14.0, 39.0, 142.0, 0.0, 0.0, 0.0, 1.6878032914759104E9, 0.0, 2023-06-26 13:14:51.475
245.0, 48538.80238995581, 54381.54839057307, 76020.58512217822, 518.5157678742132, -1843.6836413960032, -5201.452100450051, 24164.895613777117, 17472.671565135905, 0.0, 0.0, 0.0, 196.0, 0.0, 0.0, 0.0, 14.0, 39.0, 146.0, 0.0, 0.0, 0.0, 1.6878032914809225E9, 0.0, 2023-06-26 13:14:51.480
246.0, 48576.77800378537, 54416.953553790285, 72881.707296575, 599.6749519914332, -1736.5070267328058, -5132.876948461169, 24242.41146354812, 17580.42932515494, 0.0, 0.0, 0.0, 196.0, 0.0, 0.0, 0.0, 14.0, 39.0, 150.0, 0.0, 0.0, 0.0, 1.68780329148495E9, 0.0, 2023-06-26 13:14:51.484
247.0, 48545.48556154795, 54400.726187315726, 73540.72613009527, 529.9375092908751, -1782.7974894997467, -5225.636687950693, 24219.009187103416, 17523.32061807163, 0.0, 0.0, 0.0, 196.0, 0.0, 96.0, 0.0, 14.0, 39.0, 154.0, 0.0, 0.0, 0.0, 1.6878032914889753E9, 0.0, 2023-06-26 13:14:51.488
248.0, 48495.64117141261, 54353.80987570404, 76070.02718091336, 444.8891216384318, -1882.3074558147737, -5291.775499793947, 24169.723590579462, 17444.39660839994, 0.0, 0.0, 0.0, 196.0, 30.0, 16.0, 0.0, 14.0, 39.0, 158.0, 0.0, 0.0, 0.0, 1.68780329149299E9, 0.0, 2023-06-26 13:14:51.492
249.0, 48467.92500828803, 54305.03836930256, 76411.24891176807, 416.0106678021751, -1845.5388361857936, -5301.81143305438, 24130.540982549308, 17428.0127797142, 0.0, 0.0, 0.0, 196.0, 7.0, 0.0, 0.0, 14.0, 39.0, 162.0, 0.0, 0.0, 0.0, 1.687803291496039E9, 0.0, 2023-06-26 13:14:51.496
250.0, 48551.36407033969, 54391.47256511123, 73160.79117784396, 540.7334018627885, -1798.2425449183638, -5186.722300854004, 24221.44552724904, 17549.986249206813, 0.0, 0.0, 0.0, 196.0, 0.0, 0.0, 0.0, 14.0, 39.0, 166.0, 0.0, 0.0, 0.0, 1.6878032915000246E9, 0.0, 2023-06-26 13:14:51.500
251.0, 48558.71779426549, 54414.71837934475, 73127.55413383892, 555.1279252920062, -1752.4885240183503, -5104.065549858278, 24277.593109320773, 17558.09993244409, 0.0, 0.0, 0.0, 196.0, 0.0, 0.0, 0.0, 14.0, 39.0, 170.0, 0.0, 0.0, 0.0, 1.6878032915040627E9, 0.0, 2023-06-26 13:14:51.504
252.0, 48504.04542732781, 54368.87495146692, 75614.45392542529, 436.19429304531735, -1827.1880539879865, -5247.831970194813, 24216.32697776878, 17451.705628836826, 0.0, 0.0, 0.0, 196.0, 0.0, 0.0, 0.0, 14.0, 39.0, 174.0, 0.0, 0.0, 0.0, 1.6878032915080607E9, 0.0, 2023-06-26 13:14:51.508
253.0, 48518.73052343494, 54363.264663608636, 76679.82747314304, 463.4187177918813, -1911.2082613954858, -5292.28958991642, 24208.36975674269, 17459.819312074105, 0.0, 0.0, 0.0, 196.0, 0.0, 0.0, 0.0, 14.0, 39.0, 178.0, 0.0, 0.0, 0.0, 1.6878032915131078E9, 0.0, 2023-06-26 13:14:51.513
254.0, 48577.694425308044, 54393.28305641211, 73644.03589296769, 572.4952307337797, -1785.0997191786432, -5204.536641184884, 24275.916728486627, 17554.05426669768, 0.0, 0.0, 0.0, 196.0, 0.0, 0.0, 0.0, 14.0, 39.0, 182.0, 0.0, 0.0, 0.0, 1.6878032915171916E9, 0.0, 2023-06-26 13:14:51.517
255.0, 48562.69640477853, 54392.612504078454, 72844.2457728679, 586.1968500848831, -1733.6460034425263, -5161.241312174954, 24317.267455728943, 17588.833581070136, 0.0, 0.0, 0.0, 196.0, 0.0, 0.0, 0.0, 14.0, 39.0, 186.0, 0.0, 0.0, 0.0, 1.6878032915211852E9, 0.0, 2023-06-26 13:14:51.521
0.0, 48501.25145927089, 54370.23840787869, 75180.96419345906, 484.2058401353169, -1859.620435192637, -5337.797741627424, 24236.175326845092, 17486.37318448701, 0.0, 0.0, 0.0, 196.0, 0.0, 0.0, 0.0, 14.0, 39.0, 190.0, 0.0, 0.0, 0.0, 1.6878032915241816E9, 0.0, 2023-06-26 13:14:51.524
1.0, 48477.8938863151, 54333.73800918317, 76830.7911551942, 432.528606954647, -1922.6076510676924, -5244.210987593054, 24213.153030056124, 17459.819312074105, 0.0, 0.0, 0.0, 196.0, 0.0, 0.0, 0.0, 14.0, 39.0, 194.0, 0.0, 0.0, 0.0, 1.687803291528236E9, 0.0, 2023-06-26 13:14:51.528
2.0, 48595.397006916646, 54432.28685048662, 74221.8731906263, 593.3494083105813, -1804.7469025548583, -5085.893581616114, 24307.700909102074, 17574.461409385374, 0.0, 0.0, 0.0, 196.0, 0.0, 0.0, 0.0, 14.0, 39.0, 198.0, 0.0, 0.0, 0.0, 1.687803291532185E9, 0.0, 2023-06-26 13:14:51.532
3.0, 48578.7673090419, 54408.906925786374, 72629.15493597448, 608.9956294292962, -1716.6363259120378, -5125.478521046462, 24355.220717814056, 17626.29510477723, 0.0, 0.0, 0.0, 196.0, 0.0, 0.0, 0.0, 14.0, 39.0, 202.0, 0.0, 0.0, 0.0, 1.6878032915362215E9, 0.0, 2023-06-26 13:14:51.536
4.0, 48527.090075861226, 54363.04114616408, 74717.16549601144, 440.7316971697447, -1813.329972425696, -5335.473160204072, 24262.975068447005, 17495.515047969227, 0.0, 0.0, 0.0, 196.0, 0.0, 0.0, 0.0, 14.0, 39.0, 206.0, 0.0, 0.0, 0.0, 1.687803291541219E9, 0.0, 2023-06-26 13:14:51.541
5.0, 48524.40786652659, 54402.2908094276, 76863.62586779903, 510.9161747594088, -1931.7048110610024, -5230.107036841755, 24282.46578961203, 17508.769632431227, 0.0, 0.0, 0.0, 196.0, 0.0, 0.0, 0.0, 14.0, 39.0, 210.0, 0.0, 0.0, 0.0, 1.6878032915452473E9, 0.0, 2023-06-26 13:14:51.545
6.0, 48568.93254148156, 54410.89623104289, 74906.5294750368, 585.5486494956791, -1838.0062983043551, -5208.045865064367, 24276.252004653456, 17551.461464340864, 0.0, 0.0, 0.0, 196.0, 0.0, 0.0, 0.0, 14.0, 39.0, 214.0, 0.0, 0.0, 0.0, 1.6878032915492857E9, 0.0, 2023-06-26 13:14:51.549
7.0, 48587.28332367937, 54429.33642021852, 72599.15889491545, 656.1801619744494, -1800.142443197065, -5156.346280139242, 24377.170130869166, 17639.97437238388, 0.0, 0.0, 0.0, 196.0, 0.0, 192.0, 0.0, 14.0, 39.0, 218.0, 0.0, 0.0, 0.0, 1.6878032915522847E9, 0.0, 2023-06-26 13:14:51.552
8.0, 48539.405887056106, 54389.684425554806, 74327.35107271088, 544.779067609199, -1722.8948143595237, -5148.053782946323, 24285.37151639122, 17534.250621110277, 0.0, 0.0, 0.0, 196.0, 30.0, 160.0, 0.0, 14.0, 39.0, 222.0, 0.0, 0.0, 0.0, 1.687803291556305E9, 0.0, 2023-06-26 13:14:51.556
9.0, 48503.91131686107, 54342.74576219866, 76707.83420894554, 473.94638943033095, -1834.0500395357658, -5228.207138563053, 24256.381303832688, 17495.716213669326, 0.0, 0.0, 0.0, 196.0, 7.0, 224.0, 0.0, 14.0, 39.0, 226.0, 0.0, 0.0, 0.0, 1.687803291560324E9, 0.0, 2023-06-26 13:14:51.560
10.0, 48545.28439584785, 54378.93323647181, 75525.33752028197, 525.0871807440735, -1876.5630574897598, -5282.924208989645, 24278.397772121167, 17542.543118303194, 0.0, 0.0, 0.0, 196.0, 0.0, 0.0, 0.0, 14.0, 39.0, 230.0, 0.0, 0.0, 0.0, 1.6878032915643437E9, 0.0, 2023-06-26 13:14:51.564
11.0, 48557.913131465095, 54397.12755645842, 72656.8487473546, 639.7292780553435, -1831.7701616013244, -5087.81583163927, 24321.536638919908, 17616.639151172538, 0.0, 0.0, 0.0, 196.0, 0.0, 0.0, 0.0, 14.0, 39.0, 234.0, 0.0, 0.0, 0.0, 1.687803291568387E9, 0.0, 2023-06-26 13:14:51.568
12.0, 48560.88591347765, 54420.97686779224, 73896.85647450168, 596.2998385786818, -1789.4136058585175, -5110.9722388949685, 24339.574496695343, 17586.844275813615, 0.0, 0.0, 0.0, 196.0, 0.0, 0.0, 0.0, 14.0, 39.0, 238.0, 0.0, 0.0, 0.0, 1.6878032915733898E9, 0.0, 2023-06-26 13:14:51.573
13.0, 48527.291241561325, 54383.82826850752, 76408.8349233669, 452.71223219778926, -1831.524292412316, -5271.703633273081, 24264.316173114323, 17509.61899872053, 0.0, 0.0, 0.0, 196.0, 0.0, 0.0, 0.0, 14.0, 39.0, 242.0, 0.0, 0.0, 0.0, 1.6878032915774248E9, 0.0, 2023-06-26 13:14:51.577
14.0, 48520.49631124691, 54376.98863470419, 76050.44705277051, 535.2348727267829, -1960.0468230303316, -5204.6036964182495, 24287.114952458734, 17543.794815992693, 0.0, 0.0, 0.0, 196.0, 0.0, 0.0, 0.0, 14.0, 39.0, 246.0, 0.0, 0.0, 0.0, 1.687803291580435E9, 0.0, 2023-06-26 13:14:51.580
15.0, 48519.84811065771, 54361.74474498567, 72855.17577590654, 558.8383148715872, -1766.7265852363807, -5135.067419417789, 24304.303443944867, 17610.91710459198, 0.0, 0.0, 0.0, 196.0, 0.0, 0.0, 0.0, 14.0, 39.0, 250.0, 0.0, 0.0, 0.0, 1.687803291584443E9, 0.0, 2023-06-26 13:14:51.584
16.0, 48567.74789902543, 54422.00504803718, 73438.35514048996, 494.2864768846604, -1803.0481699762547, -5228.095379840777, 24287.941967003582, 17565.587766836616, 0.0, 0.0, 0.0, 196.0, 0.0, 0.0, 0.0, 14.0, 39.0, 254.0, 0.0, 0.0, 0.0, 1.6878032915884655E9, 0.0, 2023-06-26 13:14:51.588
17.0, 48511.443854742516, 54380.92254172832, 76051.8999161601, 502.6236775664899, -1827.9703650439221, -5198.278152737397, 24247.105329883736, 17476.091382037568, 0.0, 0.0, 0.0, 196.0, 1.0, 80.0, 0.0, 14.0, 40.0, 2.0, 0.0, 0.0, 0.0, 1.6878032915924911E9, 0.0, 2023-06-26 13:14:51.592
18.0, 48528.58764273973, 54382.30834988456, 76500.99116575613, 492.49833732823583, -1894.1538803760864, -5217.835929135791, 24246.27831533889, 17487.289606009675, 0.0, 0.0, 0.0, 196.0, 30.0, 64.0, 0.0, 14.0, 40.0, 6.0, 0.0, 0.0, 0.0, 1.687803291596486E9, 0.0, 2023-06-26 13:14:51.596
19.0, 48627.02472532091, 54438.81355986757, 73261.21756568165, 638.5669873436675, -1827.9033098105563, -5140.878872976169, 24352.404398012688, 17642.567174740696, 0.0, 0.0, 0.0, 196.0, 7.0, 192.0, 0.0, 14.0, 40.0, 10.0, 0.0, 0.0, 0.0, 1.6878032916005487E9, 0.0, 2023-06-26 13:14:51.600
20.0, 48566.5632565693, 54417.780568335125, 73105.42590682815, 533.5808436370902, -1819.2531847063524, -5246.244996338487, 24352.069121845856, 17610.134793536043, 0.0, 0.0, 0.0, 196.0, 0.0, 0.0, 0.0, 14.0, 40.0, 14.0, 0.0, 0.0, 0.0, 1.68780329160554E9, 0.0, 2023-06-26 13:14:51.605
21.0, 48536.388401554635, 54405.08477748452, 75619.21484699426, 458.9483689008199, -1863.1743625610309, -5269.0437756829, 24271.89341448467, 17481.388745473476, 0.0, 0.0, 0.0, 196.0, 0.0, 0.0, 0.0, 14.0, 40.0, 18.0, 0.0, 0.0, 0.0, 1.687803291608555E9, 0.0, 2023-06-26 13:14:51.608
22.0, 48429.77058050282, 54309.68753214926, 76730.56593305658, 418.4917114367141, -1986.5336402098706, -5265.9368832036125, 24232.4202337766, 17456.019515516702, 0.0, 0.0, 0.0, 196.0, 0.0, 0.0, 0.0, 14.0, 40.0, 22.0, 0.0, 0.0, 0.0, 1.687803291612566E9, 0.0, 2023-06-26 13:14:51.612
23.0, 48525.99484038292, 54362.30353859706, 73711.96284436737, 397.70458909327857, -1963.3772329541723, -5188.97982704399, 24287.405525136655, 17531.61311526455, 0.0, 0.0, 0.0, 196.0, 0.0, 0.0, 0.0, 14.0, 40.0, 26.0, 0.0, 0.0, 0.0, 1.6878032916165853E9, 0.0, 2023-06-26 13:14:51.616
24.0, 48580.68955906505, 54425.8495480835, 72847.79970023628, 542.7674106082214, -1764.6702247464925, -5123.82449195677, 24368.0506191314, 17600.657653886992, 0.0, 0.0, 0.0, 196.0, 0.0, 0.0, 0.0, 14.0, 40.0, 30.0, 0.0, 0.0, 0.0, 1.687803291620617E9, 0.0, 2023-06-26 13:14:51.620
25.0, 48618.79928336135, 54472.92232190637, 75225.71238585858, 584.6322279730115, -1757.4059077985178, -5189.337454955275, 24348.49284273301, 17546.52172881624, 0.0, 0.0, 0.0, 196.0, 0.0, 0.0, 0.0, 14.0, 40.0, 34.0, 0.0, 0.0, 0.0, 1.6878032916246376E9, 0.0, 2023-06-26 13:14:51.624
26.0, 48552.97339594048, 54399.31802741504, 76897.8016850712, 447.79484841762167, -1868.8070021637682, -5261.913569201657, 24286.578510591808, 17493.481039223796, 0.0, 0.0, 0.0, 196.0, 0.0, 0.0, 0.0, 14.0, 40.0, 38.0, 0.0, 0.0, 0.0, 1.6878032916286533E9, 0.0, 2023-06-26 13:14:51.628
27.0, 48573.715814794996, 54400.12269021544, 74371.74163719913, 540.8228088406097, -1859.240455536897, -5182.944856041057, 24315.076984772324, 17548.980420706324, 0.0, 0.0, 0.0, 196.0, 1.0, 192.0, 0.0, 14.0, 40.0, 42.0, 0.0, 0.0, 0.0, 1.6878032916328125E9, 0.0, 2023-06-26 13:14:51.632
28.0, 48593.161832471116, 54433.784417365125, 72757.16337647002, 566.1920387973832, -1807.3397049116738, -5160.235483674465, 24379.606471014795, 17604.97154056687, 0.0, 0.0, 0.0, 196.0, 30.0, 64.0, 0.0, 14.0, 40.0, 46.0, 0.0, 0.0, 0.0, 1.6878032916367073E9, 0.0, 2023-06-26 13:14:51.636
29.0, 48609.97034430151, 54467.60260672601, 74836.27794221377, 516.9958492512524, -1881.2122203364636, -5216.092493068278, 24315.546371405886, 17509.060205109145, 0.0, 0.0, 0.0, 196.0, 7.0, 192.0, 0.0, 14.0, 40.0, 50.0, 0.0, 0.0, 0.0, 1.6878032916407082E9, 0.0, 2023-06-26 13:14:51.640
30.0, 48576.88976250765, 54445.51908320416, 76873.95237373738, 512.5925555935569, -1956.2023229840188, -5203.687274895582, 24279.738876788484, 17472.60450990254, 0.0, 0.0, 0.0, 196.0, 0.0, 0.0, 0.0, 14.0, 40.0, 54.0, 0.0, 0.0, 0.0, 1.687803291645735E9, 0.0, 2023-06-26 13:14:51.645
31.0, 48572.106489194215, 54425.558975405576, 74959.43605416252, 488.2515058817275, -1936.2198634409742, -5173.802992558836, 24299.408411909153, 17501.527667227707, 0.0, 0.0, 0.0, 196.0, 0.0, 0.0, 0.0, 14.0, 40.0, 58.0, 0.0, 0.0, 0.0, 1.6878032916487536E9, 0.0, 2023-06-26 13:14:51.648
32.0, 48602.28134420888, 54464.47336250226, 72675.91478537497, 558.0336520711961, -1756.7800589537692, -5124.048009401323, 24411.45770686361, 17620.64011343004, 0.0, 0.0, 0.0, 196.0, 0.0, 0.0, 0.0, 14.0, 40.0, 62.0, 0.0, 0.0, 0.0, 1.6878032916527789E9, 0.0, 2023-06-26 13:14:51.652
33.0, 48578.49908810844, 54427.52592891764, 74415.30518714251, 509.70918055882225, -1837.1569320150534, -5226.5531094733615, 24341.005008340482, 17526.04753089518, 0.0, 0.0, 0.0, 196.0, 0.0, 0.0, 0.0, 14.0, 40.0, 66.0, 0.0, 0.0, 0.0, 1.6878032916567955E9, 0.0, 2023-06-26 13:14:51.656
34.0, 48574.22990491747, 54421.75917884817, 76714.1597526264, 460.55769450160204, -1855.7982868907795, -5279.839668254813, 24286.332641402798, 17461.719210352803, 0.0, 0.0, 0.0, 196.0, 0.0, 0.0, 0.0, 14.0, 40.0, 70.0, 0.0, 0.0, 0.0, 1.6878032916608148E9, 0.0, 2023-06-26 13:14:51.660
35.0, 48620.49801593996, 54443.90975760338, 75586.40248613388, 508.7927590361547, -1874.03731036631, -5214.8184436343245, 24289.685403071097, 17502.332330028097, 0.0, 0.0, 0.0, 196.0, 0.0, 0.0, 0.0, 14.0, 40.0, 74.0, 0.0, 0.0, 0.0, 1.687803291664832E9, 0.0, 2023-06-26 13:14:51.664
36.0, 48654.00328087846, 54495.3634733395, 72785.28187099479, 623.7477807697989, -1777.9918644418556, -5112.156881351099, 24404.282796893454, 17624.417558242985, 0.0, 0.0, 0.0, 196.0, 0.0, 0.0, 0.0, 14.0, 40.0, 78.0, 0.0, 0.0, 0.0, 1.6878032916678553E9, 0.0, 2023-06-26 13:14:51.667
37.0, 48660.39587979268, 54497.71040650731, 74091.31665126284, 600.4349113029136, -1792.431091359984, -5081.825564125248, 24400.326538124864, 17598.44483118592, 0.0, 0.0, 0.0, 196.0, 1.0, 80.0, 0.0, 14.0, 40.0, 82.0, 0.0, 0.0, 0.0, 1.6878032916718736E9, 0.0, 2023-06-26 13:14:51.671
38.0, 48595.441710405554, 54444.066219814566, 76460.31099084747, 515.587689350568, -1861.3862230046063, -5210.213984276532, 24308.393813180188, 17491.33527175609, 0.0, 0.0, 0.0, 196.0, 30.0, 96.0, 0.0, 14.0, 40.0, 86.0, 0.0, 0.0, 0.0, 1.68780329167689E9, 0.0, 2023-06-26 13:14:51.676
39.0, 48620.29685023986, 54455.30914727559, 76100.33614639475, 490.5760873050794, -1851.2832345108075, -5205.631876663194, 24292.166446705636, 17509.529591742707, 0.0, 0.0, 0.0, 196.0, 7.0, 160.0, 0.0, 14.0, 40.0, 90.0, 0.0, 0.0, 0.0, 1.6878032916809065E9, 0.0, 2023-06-26 13:14:51.680
40.0, 48668.55426651887, 54485.327540079066, 72983.27362337991, 622.9654697138632, -1791.7381872818694, -5101.8750789016585, 24372.58802325583, 17616.616799428084, 0.0, 0.0, 0.0, 196.0, 0.0, 0.0, 0.0, 14.0, 40.0, 94.0, 0.0, 0.0, 0.0, 1.6878032916849377E9, 0.0, 2023-06-26 13:14:51.684
41.0, 48628.96932708852, 54474.129316106955, 73716.56730372517, 499.4050263649257, -1776.1143179076098, -5159.833152274269, 24373.191520356122, 17575.735458819327, 0.0, 0.0, 0.0, 196.0, 0.0, 0.0, 0.0, 14.0, 40.0, 98.0, 0.0, 0.0, 0.0, 1.6878032916889527E9, 0.0, 2023-06-26 13:14:51.688
42.0, 48608.83040533429, 54471.49181026123, 76158.54008895638, 449.3147670405826, -1820.326068440207, -5234.644440966183, 24311.835981826305, 17512.770594688725, 0.0, 0.0, 0.0, 196.0, 0.0, 0.0, 0.0, 14.0, 40.0, 102.0, 0.0, 0.0, 0.0, 1.6878032916929717E9, 0.0, 2023-06-26 13:14:51.692
43.0, 48623.51550144142, 54478.64436848693, 76528.14853526933, 573.2775417897155, -1847.6175484201372, -5192.354940456741, 24300.525999131918, 17532.775405976226, 0.0, 0.0, 0.0, 196.0, 0.0, 0.0, 0.0, 14.0, 40.0, 106.0, 0.0, 0.0, 0.0, 1.6878032916959708E9, 0.0, 2023-06-26 13:14:51.695
44.0, 48642.11215282824, 54474.82222018507, 73313.61005468489, 614.5165103097571, -1783.1551174110316, -5116.336657564242, 24372.096284877814, 17615.87919186106, 0.0, 0.0, 0.0, 196.0, 0.0, 0.0, 0.0, 14.0, 40.0, 110.0, 0.0, 0.0, 0.0, 1.6878032917000108E9, 0.0, 2023-06-26 13:14:51.700
45.0, 48639.72051617152, 54479.381976053955, 73347.9646859127, 548.1318292774951, -1777.075442919188, -5117.6107069981945, 24418.811430789403, 17628.463223989394, 0.0, 0.0, 0.0, 196.0, 0.0, 0.0, 0.0, 14.0, 40.0, 114.0, 0.0, 0.0, 0.0, 1.6878032917050288E9, 0.0, 2023-06-26 13:14:51.705
46.0, 48609.791530345865, 54475.87275217447, 75784.6848111969, 525.5342156331797, -1784.5856290561712, -5226.150778073165, 24331.371406480244, 17524.281743083207, 0.0, 0.0, 0.0, 196.0, 0.0, 0.0, 0.0, 14.0, 40.0, 118.0, 0.0, 0.0, 0.0, 1.6878032917090392E9, 0.0, 2023-06-26 13:14:51.709
47.0, 48594.30177143834, 54428.84468184051, 76795.0283640657, 455.4391450213367, -1838.9674233159333, -5196.26649573642, 24295.876836285217, 17512.345911544075, 0.0, 0.0, 0.0, 196.0, 0.0, 240.0, 0.0, 14.0, 40.0, 122.0, 0.0, 0.0, 0.0, 1.687803291713061E9, 0.0, 2023-06-26 13:14:51.713
48.0, 48672.30935958736, 54497.71040650731, 73816.05491829573, 617.8692719780531, -1781.8363644881683, -5053.014165522357, 24368.49765402051, 17617.9579040954, 0.0, 0.0, 0.0, 196.0, 30.0, 0.0, 0.0, 14.0, 40.0, 126.0, 0.0, 0.0, 0.0, 1.6878032917161577E9, 0.0, 2023-06-26 13:14:51.716
49.0, 48662.720461216035, 54516.68703754986, 73071.76417967847, 633.6049000745893, -1734.3612592650961, -5084.328959504242, 24401.086497436347, 17642.142491596045, 0.0, 0.0, 0.0, 196.0, 7.0, 176.0, 0.0, 14.0, 40.0, 130.0, 0.0, 0.0, 0.0, 1.6878032917201028E9, 0.0, 2023-06-26 13:14:51.720
50.0, 48646.91777788613, 54505.108833922015, 75426.83338246743, 542.7674106082214, -1768.559428281716, -5185.224733975499, 24334.1430227927, 17538.028065923223, 0.0, 0.0, 0.0, 196.0, 0.0, 0.0, 0.0, 14.0, 40.0, 134.0, 0.0, 0.0, 0.0, 1.68780329172418E9, 0.0, 2023-06-26 13:14:51.724
51.0, 48604.069483765306, 54434.566728421065, 76929.8093831312, 506.7363985462664, -1864.0684323392431, -5202.234411505987, 24276.94490873157, 17483.154533285444, 0.0, 0.0, 0.0, 196.0, 0.0, 0.0, 0.0, 14.0, 40.0, 138.0, 0.0, 0.0, 0.0, 1.6878032917283907E9, 0.0, 2023-06-26 13:14:51.728
52.0, 48681.3394643473, 54529.60634584503, 74397.62495727837, 633.3143273966704, -1774.9073237070231, -5114.235593585443, 24352.538508479418, 17591.113459004577, 0.0, 0.0, 0.0, 196.0, 0.0, 0.0, 0.0, 14.0, 40.0, 142.0, 0.0, 0.0, 0.0, 1.687803291732185E9, 0.0, 2023-06-26 13:14:51.732
53.0, 48663.86040018325, 54509.48977583525, 72864.67526730004, 607.4980625507907, -1731.5002359748169, -5097.315323032775, 24408.753145784518, 17654.279488835276, 0.0, 0.0, 0.0, 196.0, 0.0, 0.0, 0.0, 14.0, 40.0, 146.0, 0.0, 0.0, 0.0, 1.68780329173719E9, 0.0, 2023-06-26 13:14:51.737
54.0, 48612.451387936046, 54486.60158951302, 75020.36690954768, 559.0841840605956, -1753.5390560077497, -5156.323928394786, 24342.1449473077, 17563.1961301799, 0.0, 0.0, 0.0, 196.0, 0.0, 0.0, 0.0, 14.0, 40.0, 150.0, 0.0, 0.0, 0.0, 1.6878032917412016E9, 0.0, 2023-06-26 13:14:51.741
55.0, 48611.602021646744, 54489.03792965865, 76934.90558086701, 534.2737477152048, -1791.2464489038528, -5196.490013180973, 24313.24414172699, 17530.674341997426, 0.0, 0.0, 0.0, 196.0, 0.0, 0.0, 0.0, 14.0, 40.0, 154.0, 0.0, 0.0, 0.0, 1.6878032917442005E9, 0.0, 2023-06-26 13:14:51.744
56.0, 48679.81954572434, 54513.98247647077, 75042.87511621417, 582.2182395718384, -1812.525309625305, -5154.804009771826, 24336.15467979368, 17577.210673953377, 0.0, 0.0, 0.0, 196.0, 0.0, 0.0, 0.0, 14.0, 40.0, 158.0, 0.0, 0.0, 0.0, 1.687803291748226E9, 0.0, 2023-06-26 13:14:51.748
57.0, 48677.02557766743, 54491.25075235972, 72793.48496120989, 603.9441351823968, -1737.3787447665627, -5085.96063684948, 24420.264294179, 17660.582680771673, 0.0, 0.0, 0.0, 196.0, 0.0, 176.0, 0.0, 14.0, 40.0, 162.0, 0.0, 0.0, 0.0, 1.6878032917522483E9, 0.0, 2023-06-26 13:14:51.752
58.0, 48611.04322803536, 54476.8115254416, 74582.31742171258, 517.7111050738222, -1790.3523791256405, -5166.471620377496, 24345.944743865104, 17559.95512723388, 0.0, 0.0, 0.0, 196.0, 29.0, 224.0, 0.0, 14.0, 40.0, 166.0, 0.0, 0.0, 0.0, 1.6878032917562673E9, 0.0, 2023-06-26 13:14:51.756
59.0, 48608.740998356465, 54449.36358325047, 76772.07312251009, 515.9006137729423, -1785.658512790026, -5194.634818391182, 24299.60957760925, 17521.84540293758, 0.0, 0.0, 0.0, 196.0, 7.0, 240.0, 0.0, 14.0, 40.0, 170.0, 0.0, 0.0, 0.0, 1.687803291760298E9, 0.0, 2023-06-26 13:14:51.760
60.0, 48635.80896089184, 54461.88056014545, 75665.63942022793, 560.5817509391011, -1785.7032162789365, -5195.350074213752, 24307.835019568804, 17550.32152537364, 0.0, 0.0, 0.0, 196.0, 0.0, 0.0, 0.0, 14.0, 40.0, 174.0, 0.0, 0.0, 0.0, 1.6878032917642996E9, 0.0, 2023-06-26 13:14:51.764
61.0, 48677.13733638971, 54520.352723640535, 72866.28459290083, 669.3453394586253, -1713.887061344035, -5082.496116458907, 24405.82506726087, 17662.571986028193, 0.0, 0.0, 0.0, 196.0, 0.0, 0.0, 0.0, 14.0, 40.0, 178.0, 0.0, 0.0, 0.0, 1.6878032917693484E9, 0.0, 2023-06-26 13:14:51.769
62.0, 48640.14519931617, 54496.369301839986, 74177.52732962696, 596.8809839345198, -1757.9647014099005, -5143.6728410330825, 24379.092380892325, 17604.14452602202, 0.0, 0.0, 0.0, 196.0, 0.0, 0.0, 0.0, 14.0, 40.0, 182.0, 0.0, 0.0, 0.0, 1.68780329177235E9, 0.0, 2023-06-26 13:14:51.772
63.0, 48624.94601308656, 54474.64340622943, 76532.99886381613, 525.3330499330818, -1782.752786010836, -5187.571667143306, 24330.946723335594, 17544.33125785962, 0.0, 0.0, 0.0, 196.0, 0.0, 0.0, 0.0, 14.0, 40.0, 186.0, 0.0, 0.0, 0.0, 1.6878032917763605E9, 0.0, 2023-06-26 13:14:51.776
64.0, 48636.0324783364, 54477.59383649753, 76186.45741778106, 563.0627945736402, -1798.846042018657, -5188.778661343892, 24333.025435569936, 17571.10864771708, 0.0, 0.0, 0.0, 196.0, 0.0, 0.0, 0.0, 14.0, 40.0, 190.0, 0.0, 0.0, 0.0, 1.6878032917803864E9, 0.0, 2023-06-26 13:14:51.780
65.0, 48664.84387693929, 54496.369301839986, 73045.36676947675, 656.6719003524662, -1777.0530911747328, -5090.140413062622, 24408.30611089541, 17665.678878507482, 0.0, 0.0, 0.0, 196.0, 0.0, 0.0, 0.0, 14.0, 40.0, 194.0, 0.0, 0.0, 0.0, 1.687803291784397E9, 0.0, 2023-06-26 13:14:51.784
66.0, 48628.4775887105, 54476.856228930505, 73756.93455421145, 593.3047048216707, -1789.6818267919812, -5101.673913201561, 24393.129276410258, 17614.135755793544, 0.0, 0.0, 0.0, 196.0, 0.0, 0.0, 0.0, 14.0, 40.0, 198.0, 0.0, 0.0, 0.0, 1.6878032917884283E9, 0.0, 2023-06-26 13:14:51.788
67.0, 48601.16375698611, 54456.225568798254, 76173.87338565271, 533.4243814259031, -1775.6672830185037, -5179.793260072859, 24297.66497584164, 17516.36922554603, 0.0, 0.0, 0.0, 196.0, 0.0, 144.0, 0.0, 14.0, 40.0, 202.0, 0.0, 0.0, 0.0, 1.6878032917924583E9, 0.0, 2023-06-26 13:14:51.792
68.0, 48615.33476297078, 54451.50935071819, 76586.48658829767, 532.8208843256098, -1821.9353940409892, -5170.919617524102, 24301.2859584434, 17557.384676621517, 0.0, 0.0, 0.0, 196.0, 29.0, 224.0, 0.0, 14.0, 40.0, 206.0, 0.0, 0.0, 0.0, 1.687803291796484E9, 0.0, 2023-06-26 13:14:51.796
69.0, 48674.67864449962, 54499.74441525274, 73417.90329431335, 646.6359670920333, -1755.8412856866464, -5075.209447766477, 24409.624863818273, 17665.768285485305, 0.0, 0.0, 0.0, 196.0, 7.0, 240.0, 0.0, 14.0, 40.0, 210.0, 0.0, 0.0, 0.0, 1.6878032918004773E9, 0.0, 2023-06-26 13:14:51.800
70.0, 48641.97804236151, 54484.50052553422, 73392.5787678455, 624.0383534477179, -1723.945346348923, -5095.996570109913, 24427.03687274896, 17646.34461955364, 0.0, 0.0, 0.0, 196.0, 0.0, 0.0, 0.0, 14.0, 40.0, 214.0, 0.0, 0.0, 0.0, 1.687803291803512E9, 0.0, 2023-06-26 13:14:51.803
71.0, 48610.79735884635, 54467.423792770365, 75817.58657903512, 538.2076547393388, -1758.2105705989088, -5198.345207970763, 24348.96222936657, 17559.37398187804, 0.0, 0.0, 0.0, 196.0, 0.0, 0.0, 0.0, 14.0, 40.0, 218.0, 0.0, 0.0, 0.0, 1.6878032918085213E9, 0.0, 2023-06-26 13:14:51.808
72.0, 48586.38925390116, 54427.838853340014, 76861.52480382024, 489.9725902047861, -1833.8935773245785, -5252.70465048607, 24321.357824964267, 17541.023199680236, 0.0, 0.0, 0.0, 196.0, 0.0, 0.0, 0.0, 14.0, 40.0, 222.0, 0.0, 0.0, 0.0, 1.6878032918125372E9, 0.0, 2023-06-26 13:14:51.812
73.0, 48663.34631006078, 54487.205086613314, 73929.31120745078, 628.5087023387792, -1850.813847877246, -5109.854651672203, 24408.954311484613, 17649.719732966394, 0.0, 0.0, 0.0, 196.0, 0.0, 0.0, 0.0, 14.0, 40.0, 226.0, 0.0, 0.0, 0.0, 1.6878032918165507E9, 0.0, 2023-06-26 13:14:51.816
74.0, 48659.32299605882, 54496.726929751276, 73105.49296206153, 658.4823916533461, -1672.2681131682532, -5049.4602381539635, 24444.31477121291, 17691.897474753558, 0.0, 0.0, 0.0, 196.0, 0.0, 0.0, 0.0, 14.0, 40.0, 230.0, 0.0, 0.0, 0.0, 1.6878032918205955E9, 0.0, 2023-06-26 13:14:51.820
75.0, 48628.25407126595, 54479.62784524296, 75414.31640557246, 554.9491113363638, -1716.5022154453059, -5166.337509910763, 24342.614333941263, 17566.70535405938, 0.0, 0.0, 0.0, 196.0, 0.0, 0.0, 0.0, 14.0, 40.0, 234.0, 0.0, 0.0, 0.0, 1.687803291824602E9, 0.0, 2023-06-26 13:14:51.824
76.0, 48608.33866695627, 54450.77174315116, 76961.6159154911, 484.31759885759345, -1787.3795971130846, -5202.614391161727, 24311.187781237102, 17538.43039732342, 0.0, 0.0, 0.0, 196.0, 0.0, 0.0, 0.0, 14.0, 40.0, 238.0, 0.0, 0.0, 0.0, 1.687803291828622E9, 0.0, 2023-06-26 13:14:51.828
77.0, 48679.21604862405, 54515.94942998284, 74504.68981321929, 653.7885253177316, -1774.0356056732662, -5127.981916425457, 24374.130293623246, 17630.608991457106, 0.0, 0.0, 0.0, 196.0, 0.0, 176.0, 0.0, 14.0, 40.0, 242.0, 0.0, 0.0, 0.0, 1.687803291831634E9, 0.0, 2023-06-26 13:14:51.831
78.0, 48676.556191033866, 54513.20016541483, 72871.51490110336, 662.2374847218376, -1718.9385555909344, -5088.866363628669, 24451.98141956108, 17702.492201625373, 0.0, 0.0, 0.0, 196.0, 29.0, 224.0, 0.0, 14.0, 40.0, 246.0, 0.0, 0.0, 0.0, 1.6878032918356495E9, 0.0, 2023-06-26 13:14:51.835
79.0, 48629.77398988891, 54475.246903329724, 74979.10558928318, 575.0880330905954, -1781.8140127437132, -5155.787486527859, 24360.138101594224, 17574.483761129828, 0.0, 0.0, 0.0, 196.0, 8.0, 32.0, 0.0, 14.0, 40.0, 250.0, 0.0, 0.0, 0.0, 1.6878032918406913E9, 0.0, 2023-06-26 13:14:51.840
80.0, 48602.08017850878, 54444.96028959278, 76917.98531031434, 508.233965424772, -1828.618565633126, -5178.630969361183, 24316.0381097839, 17526.628676251017, 0.0, 0.0, 0.0, 196.0, 0.0, 0.0, 0.0, 14.0, 40.0, 254.0, 0.0, 0.0, 0.0, 1.687803291844698E9, 0.0, 2023-06-26 13:14:51.844
81.0, 48663.59217924979, 54504.125357165976, 75134.11493708074, 643.6631850794774, -1795.202707672442, -5137.0343729298565, 24357.72411319305, 17606.491459189827, 0.0, 0.0, 0.0, 196.0, 0.0, 0.0, 0.0, 14.0, 41.0, 2.0, 0.0, 0.0, 0.0, 1.6878032918487134E9, 0.0, 2023-06-26 13:14:51.848
82.0, 48692.53768831941, 54530.36630515651, 72799.36347000164, 693.1499473035274, -1681.946418517401, -5044.028764251324, 24445.968800302602, 17704.794431304268, 0.0, 0.0, 0.0, 196.0, 0.0, 0.0, 0.0, 14.0, 41.0, 6.0, 0.0, 0.0, 0.0, 1.6878032918527417E9, 0.0, 2023-06-26 13:14:51.852
83.0, 48653.46683901153, 54508.32748512358, 74540.45260434778, 601.8207194591427, -1745.559483237205, -5162.0459749753445, 24392.995165943525, 17618.33788375114, 0.0, 0.0, 0.0, 196.0, 0.0, 0.0, 0.0, 14.0, 41.0, 10.0, 0.0, 0.0, 0.0, 1.6878032918557563E9, 0.0, 2023-06-26 13:14:51.855
84.0, 48616.74292287147, 54469.949539893816, 76739.4619273498, 544.0191082977186, -1834.8994058250673, -5223.379161760708, 24346.05650258738, 17562.346763890597, 0.0, 0.0, 0.0, 196.0, 0.0, 0.0, 0.0, 14.0, 41.0, 14.0, 0.0, 0.0, 0.0, 1.6878032918597665E9, 0.0, 2023-06-26 13:14:51.859
85.0, 48640.81575164983, 54473.12348760647, 75739.98132228629, 580.2512860597714, -1807.5855741006822, -5149.193721913543, 24349.76689216696, 17594.510924161783, 0.0, 0.0, 0.0, 196.0, 0.0, 0.0, 0.0, 14.0, 41.0, 18.0, 0.0, 0.0, 0.0, 1.6878032918638003E9, 0.0, 2023-06-26 13:14:51.863
86.0, 48681.45122306958, 54511.255563647224, 72872.52072960386, 662.4610021663907, -1691.7141308443704, -5026.303830898265, 24429.3167506834, 17690.86929450861, 0.0, 0.0, 0.0, 196.0, 0.0, 0.0, 0.0, 14.0, 41.0, 22.0, 0.0, 0.0, 0.0, 1.687803291867803E9, 0.0, 2023-06-26 13:14:51.867
87.0, 48640.50282722746, 54488.747356980726, 74139.84228847531, 600.7701874697432, -1742.3855355245514, -5116.58252675325, 24397.3090526234, 17625.378683254563, 0.0, 0.0, 0.0, 196.0, 0.0, 208.0, 0.0, 14.0, 41.0, 26.0, 0.0, 0.0, 0.0, 1.6878032918728285E9, 0.0, 2023-06-26 13:14:51.872
88.0, 48611.75848385793, 54468.98841488224, 76484.4061713703, 544.4661431868248, -1803.271687420808, -5197.629952148193, 24334.210078026066, 17550.410932351464, 0.0, 0.0, 0.0, 196.0, 29.0, 176.0, 0.0, 14.0, 41.0, 30.0, 0.0, 0.0, 0.0, 1.6878032918768454E9, 0.0, 2023-06-26 13:14:51.876
89.0, 48632.500902712454, 54472.452935272806, 76260.46404367257, 570.8635533885424, -1836.2852139812965, -5203.642571406672, 24357.34413353731, 17596.58963639613, 0.0, 0.0, 0.0, 196.0, 8.0, 32.0, 0.0, 14.0, 41.0, 34.0, 0.0, 0.0, 0.0, 1.6878032918808773E9, 0.0, 2023-06-26 13:14:51.880
90.0, 48693.94584822009, 54520.84446201855, 73092.84187469982, 678.9118860854967, -1762.9491404234338, -5111.128701106156, 24465.1242453008, 17728.46492868244, 0.0, 0.0, 0.0, 196.0, 0.0, 0.0, 0.0, 14.0, 41.0, 38.0, 0.0, 0.0, 0.0, 1.6878032918838787E9, 0.0, 2023-06-26 13:14:51.883
91.0, 48662.02755713792, 54505.42175834439, 73692.00273656879, 620.8867574795196, -1739.5021604898168, -5085.938285105024, 24455.825919607392, 17682.845018249158, 0.0, 0.0, 0.0, 196.0, 0.0, 0.0, 0.0, 14.0, 41.0, 42.0, 0.0, 0.0, 0.0, 1.6878032918878915E9, 0.0, 2023-06-26 13:14:51.887
92.0, 48629.86339686673, 54494.35764483901, 76116.18353321357, 577.2114488138496, -1817.8450248056681, -5087.05587232779, 24389.977680442058, 17569.879301772035, 0.0, 0.0, 0.0, 196.0, 0.0, 0.0, 0.0, 14.0, 41.0, 46.0, 0.0, 0.0, 0.0, 1.6878032918919303E9, 0.0, 2023-06-26 13:14:51.891
93.0, 48602.437806420065, 54436.91366158887, 76653.81004259706, 554.7032421473554, -1759.752840966325, -5172.126611724689, 24328.82330761234, 17553.160196919467, 0.0, 0.0, 0.0, 196.0, 0.0, 0.0, 0.0, 14.0, 41.0, 50.0, 0.0, 0.0, 0.0, 1.6878032918959332E9, 0.0, 2023-06-26 13:14:51.895
94.0, 48669.5377432749, 54487.272141846675, 73489.2500626147, 639.550464099701, -1704.8793083285461, -5069.800325608293, 24405.26627364949, 17654.458302790918, 0.0, 0.0, 0.0, 196.0, 0.0, 0.0, 0.0, 14.0, 41.0, 54.0, 0.0, 0.0, 0.0, 1.6878032919009504E9, 0.0, 2023-06-26 13:14:51.900
95.0, 48660.93232165961, 54503.18658389886, 73340.34274105344, 645.2725106802596, -1704.2311077393424, -5082.67493041455, 24438.88329731027, 17679.35814611413, 0.0, 0.0, 0.0, 196.0, 0.0, 0.0, 0.0, 14.0, 41.0, 58.0, 0.0, 0.0, 0.0, 1.6878032919049726E9, 0.0, 2023-06-26 13:14:51.904
96.0, 48623.04611480786, 54473.2575980732, 75726.3244064241, 550.4564107008471, -1790.1512134255427, -5187.9292950545905, 24366.463645275075, 17575.24372044131, 0.0, 0.0, 0.0, 196.0, 0.0, 0.0, 0.0, 14.0, 41.0, 62.0, 0.0, 0.0, 0.0, 1.687803291909044E9, 0.0, 2023-06-26 13:14:51.909
97.0, 48604.51651865441, 54445.36262099298, 76873.25946965927, 549.1600095224392, -1831.2560714788524, -5203.508460939939, 24346.280020031933, 17531.61311526455, 0.0, 0.0, 0.0, 196.0, 0.0, 208.0, 0.0, 14.0, 41.0, 66.0, 0.0, 0.0, 0.0, 1.6878032919120011E9, 0.0, 2023-06-26 13:14:51.912
98.0, 48682.12177540324, 54505.01942694419, 74000.99325191895, 649.2734729377596, -1757.6741287319815, -5101.159823079089, 24411.770631285985, 17633.15709032501, 0.0, 0.0, 0.0, 196.0, 29.0, 160.0, 0.0, 14.0, 41.0, 70.0, 0.0, 0.0, 0.0, 1.687803291916361E9, 0.0, 2023-06-26 13:14:51.916
99.0, 48672.979911921015, 54511.50143283623, 73065.03630459742, 661.2987114547147, -1709.953154319901, -5076.952883833991, 24470.77923664799, 17710.091794740176, 0.0, 0.0, 0.0, 196.0, 8.0, 48.0, 0.0, 14.0, 41.0, 74.0, 0.0, 0.0, 0.0, 1.687803291920051E9, 0.0, 2023-06-26 13:14:51.920
100.0, 48635.6301469362, 54486.579237768565, 75331.52554411002, 584.6322279730115, -1784.0268354447885, -5179.994425772957, 24390.983508942547, 17593.86272357258, 0.0, 0.0, 0.0, 196.0, 0.0, 0.0, 0.0, 14.0, 41.0, 78.0, 0.0, 0.0, 0.0, 1.6878032919240725E9, 0.0, 2023-06-26 13:14:51.924
101.0, 48613.45721643653, 54455.06327808658, 76960.1183486126, 552.2892537461822, -1848.0645833092433, -5230.799940919869, 24359.556956238386, 17574.036726240724, 0.0, 0.0, 0.0, 196.0, 0.0, 0.0, 0.0, 14.0, 41.0, 82.0, 0.0, 0.0, 0.0, 1.687803291928074E9, 0.0, 2023-06-26 13:14:51.928
102.0, 48668.44250779659, 54493.910609949904, 74613.69927092783, 632.643775063011, -1814.1569869705424, -5106.837166170736, 24397.711384023594, 17635.995761870832, 0.0, 0.0, 0.0, 196.0, 0.0, 0.0, 0.0, 14.0, 41.0, 86.0, 0.0, 0.0, 0.0, 1.6878032919321773E9, 0.0, 2023-06-26 13:14:51.932
103.0, 48682.34529284779, 54514.63067705998, 72862.3953893656, 677.1237465290722, -1684.0698342406554, -5043.469970639941, 24483.11739958732, 17711.969341274424, 0.0, 0.0, 0.0, 196.0, 0.0, 0.0, 0.0, 14.0, 41.0, 90.0, 0.0, 0.0, 0.0, 1.6878032919371896E9, 0.0, 2023-06-26 13:14:51.937
104.0, 48640.279309782905, 54485.75222322372, 74913.41381232903, 585.7274634513216, -1770.168753882498, -5182.542524640861, 24401.1088491808, 17595.427345684453, 0.0, 0.0, 0.0, 196.0, 0.0, 0.0, 0.0, 14.0, 41.0, 94.0, 0.0, 0.0, 0.0, 1.6878032919401782E9, 0.0, 2023-06-26 13:14:51.940
105.0, 48615.13359727068, 54456.31497577608, 76883.67538257544, 550.1211345340174, -1847.5728449312264, -5216.383065746197, 24361.38979928372, 17564.76075229177, 0.0, 0.0, 0.0, 196.0, 0.0, 0.0, 0.0, 14.0, 41.0, 98.0, 0.0, 0.0, 0.0, 1.687803291944172E9, 0.0, 2023-06-26 13:14:51.944
106.0, 48654.472667512026, 54480.633673743454, 75228.39459519323, 611.6331352750225, -1839.9061965830563, -5166.9186552666015, 24398.985433457547, 17627.72561642237, 0.0, 0.0, 0.0, 196.0, 0.0, 0.0, 0.0, 14.0, 41.0, 102.0, 0.0, 0.0, 0.0, 1.6878032919481828E9, 0.0, 2023-06-26 13:14:51.948
107.0, 48683.73110100402, 54512.84253750355, 72791.20508327545, 686.1538512890162, -1724.7053056604036, -5045.8169038077485, 24502.451658541162, 17724.441614680483, 0.0, 0.0, 0.0, 196.0, 0.0, 208.0, 0.0, 14.0, 41.0, 106.0, 0.0, 0.0, 0.0, 1.6878032919522216E9, 0.0, 2023-06-26 13:14:51.952
108.0, 48645.68843194109, 54491.943656437834, 74463.2273272547, 598.9149926799528, -1731.8578638861018, -5159.766097040903, 24439.64325662175, 17633.045331602734, 0.0, 0.0, 0.0, 196.0, 29.0, 192.0, 0.0, 14.0, 41.0, 110.0, 0.0, 0.0, 0.0, 1.6878032919562275E9, 0.0, 2023-06-26 13:14:51.956
109.0, 48602.52721339789, 54452.22460654075, 76679.6933626763, 548.6012159110566, -1764.2008381129313, -5214.8184436343245, 24355.466587003066, 17558.70342954438, 0.0, 0.0, 0.0, 196.0, 8.0, 64.0, 0.0, 14.0, 41.0, 114.0, 0.0, 0.0, 0.0, 1.687803291960282E9, 0.0, 2023-06-26 13:14:51.960
110.0, 48636.144237058674, 54468.54137999313, 75825.56615180566, 599.5631932691566, -1810.3124869242297, -5122.729256478459, 24378.69004949213, 17599.29419747522, 0.0, 0.0, 0.0, 196.0, 0.0, 0.0, 0.0, 14.0, 41.0, 118.0, 0.0, 0.0, 0.0, 1.687803291964266E9, 0.0, 2023-06-26 13:14:51.964
111.0, 48675.81858346684, 54504.46063333281, 72895.83359907074, 678.6213134075778, -1761.563332267205, -5031.824711778726, 24473.059114582436, 17707.70015808346, 0.0, 0.0, 0.0, 196.0, 0.0, 0.0, 0.0, 14.0, 41.0, 122.0, 0.0, 0.0, 0.0, 1.687803291967285E9, 0.0, 2023-06-26 13:14:51.967
112.0, 48643.207388306546, 54486.98156916876, 74064.06987477183, 613.8012544871873, -1733.042506342233, -5111.978067395457, 24447.689884625663, 17650.59145100015, 0.0, 0.0, 0.0, 196.0, 0.0, 0.0, 0.0, 14.0, 41.0, 126.0, 0.0, 0.0, 0.0, 1.6878032919723115E9, 0.0, 2023-06-26 13:14:51.972
113.0, 48601.70019885305, 54448.335403005534, 76409.6395861673, 539.5264076622019, -1785.6138093011152, -5215.019609334423, 24365.882499919237, 17555.752999276283, 0.0, 0.0, 0.0, 196.0, 0.0, 0.0, 0.0, 14.0, 41.0, 130.0, 0.0, 0.0, 0.0, 1.6878032919763353E9, 0.0, 2023-06-26 13:14:51.976
114.0, 48618.307544983334, 54451.93403386284, 76306.17336108368, 570.2153527993385, -1808.2784781787966, -5171.411355902119, 24363.647325473707, 17577.14361872001, 0.0, 0.0, 0.0, 196.0, 0.0, 0.0, 0.0, 14.0, 41.0, 134.0, 0.0, 0.0, 0.0, 1.687803291980337E9, 0.0, 2023-06-26 13:14:51.980
115.0, 48682.077071914326, 54502.69484552084, 73143.0662444909, 679.8730110970749, -1728.7286196623588, -5056.635148124117, 24459.245736509056, 17697.999500989856, 0.0, 0.0, 0.0, 196.0, 0.0, 0.0, 0.0, 14.0, 41.0, 138.0, 0.0, 0.0, 0.0, 1.6878032919843554E9, 0.0, 2023-06-26 13:14:51.984
116.0, 48650.87403665472, 54488.54619128063, 73639.40908186545, 633.2249204188491, -1749.4039832835178, -5108.759416193893, 24468.477006969097, 17673.88196872258, 0.0, 0.0, 0.0, 196.0, 0.0, 0.0, 0.0, 14.0, 41.0, 142.0, 0.0, 0.0, 0.0, 1.6878032919883747E9, 0.0, 2023-06-26 13:14:51.988
117.0, 48623.89548109716, 54471.73767945024, 76022.93205534603, 563.6215881850229, -1812.5923648586709, -5199.395739960163, 24409.9601399851, 17591.58284563814, 0.0, 0.0, 0.0, 196.0, 0.0, 160.0, 0.0, 14.0, 41.0, 146.0, 0.0, 0.0, 0.0, 1.6878032919913783E9, 0.0, 2023-06-26 13:14:51.991
118.0, 48614.30658272584, 54444.6026616815, 76639.95196103478, 555.9996433257631, -1812.88293753659, -5186.856411320736, 24382.78041872745, 17583.2009414674, 0.0, 0.0, 0.0, 196.0, 29.0, 176.0, 0.0, 14.0, 41.0, 150.0, 0.0, 0.0, 0.0, 1.6878032919954123E9, 0.0, 2023-06-26 13:14:51.995
119.0, 48676.556191033866, 54491.78719422665, 73523.89526652041, 660.9857870323405, -1736.1270470770655, -5051.181322477022, 24448.807471848428, 17671.31151811022, 0.0, 0.0, 0.0, 196.0, 8.0, 80.0, 0.0, 14.0, 41.0, 154.0, 0.0, 0.0, 0.0, 1.6878032919994678E9, 0.0, 2023-06-26 13:14:51.999
120.0, 48645.88959764119, 54476.76682195268, 73272.63930709832, 632.5767198296452, -1708.3214769746635, -5084.418366482064, 24468.231137780087, 17681.9733002154, 0.0, 0.0, 0.0, 196.0, 0.0, 0.0, 0.0, 14.0, 41.0, 158.0, 0.0, 0.0, 0.0, 1.687803292004466E9, 0.0, 2023-06-26 13:14:52.004
121.0, 48627.60587067674, 54468.02728987066, 75645.36638800698, 557.6089689265453, -1790.397082614551, -5183.526001396895, 24405.19921841612, 17601.261150987288, 0.0, 0.0, 0.0, 196.0, 0.0, 0.0, 0.0, 14.0, 41.0, 162.0, 0.0, 0.0, 0.0, 1.68780329200847E9, 0.0, 2023-06-26 13:14:52.008
122.0, 48611.266745479916, 54440.24407151271, 76857.97087645184, 548.712974633333, -1817.6662108500257, -5185.671768864604, 24386.73667749604, 17590.889941560024, 0.0, 0.0, 0.0, 196.0, 0.0, 0.0, 0.0, 14.0, 41.0, 166.0, 0.0, 0.0, 0.0, 1.6878032920125256E9, 0.0, 2023-06-26 13:14:52.012
123.0, 48667.92841767412, 54480.49956327672, 74066.9308980621, 639.0587257216843, -1755.0589746307105, -5110.525204005862, 24435.776404830984, 17669.72454425389, 0.0, 0.0, 0.0, 196.0, 0.0, 0.0, 0.0, 14.0, 41.0, 170.0, 0.0, 0.0, 0.0, 1.6878032920165324E9, 0.0, 2023-06-26 13:14:52.016
124.0, 48670.9906066645, 54501.957237953815, 73000.37270788822, 666.6184266350779, -1706.019247295767, -5052.544778888796, 24495.679079971207, 17717.870201810623, 0.0, 0.0, 0.0, 196.0, 0.0, 0.0, 0.0, 14.0, 41.0, 174.0, 0.0, 0.0, 0.0, 1.6878032920195305E9, 0.0, 2023-06-26 13:14:52.019
125.0, 48646.96248137504, 54496.83868847355, 75237.26823774198, 584.0734343616289, -1767.5983032701379, -5161.956567997524, 24419.92901801217, 17604.94918882241, 0.0, 0.0, 0.0, 196.0, 0.0, 0.0, 0.0, 14.0, 41.0, 178.0, 0.0, 0.0, 0.0, 1.6878032920235581E9, 0.0, 2023-06-26 13:14:52.023
126.0, 48613.43486469208, 54453.40924899689, 76932.1116128101, 549.58469266709, -1817.7109143389362, -5207.308257497341, 24371.604546499795, 17559.642202811505, 0.0, 0.0, 0.0, 196.0, 0.0, 0.0, 0.0, 14.0, 41.0, 182.0, 0.0, 0.0, 0.0, 1.6878032920275905E9, 0.0, 2023-06-26 13:14:52.027
127.0, 48668.218990352034, 54488.322673836075, 74708.44831567387, 634.454266363891, -1790.8664692481125, -5123.1092361342, 24412.754108042016, 17630.094901334633, 0.0, 0.0, 0.0, 196.0, 0.0, 112.0, 0.0, 14.0, 41.0, 186.0, 0.0, 0.0, 0.0, 1.6878032920325956E9, 0.0, 2023-06-26 13:14:52.032
128.0, 48682.12177540324, 54511.30026713613, 72846.25742986887, 684.3657117325916, -1703.8734798280575, -5064.592369150206, 24491.923986902715, 17719.948914044966, 0.0, 0.0, 0.0, 196.0, 29.0, 144.0, 0.0, 14.0, 41.0, 190.0, 0.0, 0.0, 0.0, 1.687803292036632E9, 0.0, 2023-06-26 13:14:52.036
129.0, 48640.03344059389, 54486.087499390545, 74838.4684131704, 594.7352164668104, -1782.0151784438108, -5188.309274710331, 24414.31873015389, 17615.47686046086, 0.0, 0.0, 0.0, 196.0, 8.0, 48.0, 0.0, 14.0, 41.0, 194.0, 0.0, 0.0, 0.0, 1.6878032920406532E9, 0.0, 2023-06-26 13:14:52.040
130.0, 48606.28230646638, 54445.78730413763, 76835.88735293, 545.6284338985007, -1843.594234418182, -5249.843627195791, 24366.128369108246, 17558.882243500026, 0.0, 0.0, 0.0, 196.0, 0.0, 0.0, 0.0, 14.0, 41.0, 198.0, 0.0, 0.0, 0.0, 1.6878032920446565E9, 0.0, 2023-06-26 13:14:52.044
131.0, 48661.15583910416, 54481.952426666314, 75300.45661931713, 620.842053990609, -1816.9062515385451, -5129.747704237426, 24403.433430604153, 17614.42632847146, 0.0, 0.0, 0.0, 196.0, 0.0, 0.0, 0.0, 14.0, 41.0, 202.0, 0.0, 0.0, 0.0, 1.6878032920476754E9, 0.0, 2023-06-26 13:14:52.047
132.0, 48701.90306924618, 54527.058246977125, 72786.75708612884, 707.9691538773959, -1660.5557990736722, -4990.362225814131, 24492.728649703105, 17744.647591668083, 0.0, 0.0, 0.0, 196.0, 0.0, 0.0, 0.0, 14.0, 41.0, 206.0, 0.0, 0.0, 0.0, 1.6878032920517035E9, 0.0, 2023-06-26 13:14:52.051
133.0, 48647.56597847533, 54492.368339582485, 74390.98648917515, 617.7575132557766, -1723.8559393711018, -5121.477558788963, 24421.02425349048, 17640.019075872788, 0.0, 0.0, 0.0, 196.0, 0.0, 0.0, 0.0, 14.0, 41.0, 210.0, 0.0, 0.0, 0.0, 1.6878032920557213E9, 0.0, 2023-06-26 13:14:52.055
134.0, 48611.04322803536, 54455.08562983103, 76603.87624548392, 548.6682711444224, -1802.7352455538805, -5215.891327368179, 24352.359694523777, 17551.32735387413, 0.0, 0.0, 0.0, 196.0, 0.0, 0.0, 0.0, 14.0, 41.0, 214.0, 0.0, 0.0, 0.0, 1.6878032920597277E9, 0.0, 2023-06-26 13:14:52.059
135.0, 48633.10439981275, 54457.61137695448, 75857.26092544329, 580.0724721041289, -1817.5768038722044, -5177.043995504856, 24354.572517224853, 17583.58092112314, 0.0, 0.0, 0.0, 196.0, 0.0, 0.0, 0.0, 14.0, 41.0, 218.0, 0.0, 0.0, 0.0, 1.6878032920657654E9, 0.0, 2023-06-26 13:14:52.065
136.0, 48682.81467948135, 54504.818261244094, 72885.61885185467, 673.8827435830526, -1727.4098667394958, -5076.282331500332, 24456.36236147432, 17708.12484122811, 0.0, 0.0, 0.0, 196.0, 0.0, 0.0, 0.0, 14.0, 41.0, 222.0, 0.0, 0.0, 0.0, 1.687803292068778E9, 0.0, 2023-06-26 13:14:52.068
137.0, 48652.95274888906, 54492.92713319387, 73955.44039671903, 615.5223388102459, -1764.469059046395, -5137.123779907677, 24449.70154162664, 17670.30568960973, 0.0, 0.0, 0.0, 196.0, 0.0, 144.0, 0.0, 14.0, 41.0, 226.0, 0.0, 0.0, 0.0, 1.6878032920728006E9, 0.0, 2023-06-26 13:14:52.072
138.0, 48622.95670783004, 54468.809600926594, 76310.28608206345, 561.6546346729559, -1809.7760450573023, -5167.633911089171, 24386.088476906836, 17588.09597350311, 0.0, 0.0, 0.0, 196.0, 29.0, 176.0, 0.0, 14.0, 41.0, 230.0, 0.0, 0.0, 0.0, 1.687803292075818E9, 0.0, 2023-06-26 13:14:52.075
139.0, 48634.93724285808, 54466.864999158985, 76323.98770141456, 581.7265011938216, -1802.9364112539783, -5158.290881906853, 24381.461665804585, 17603.92100857747, 0.0, 0.0, 0.0, 196.0, 8.0, 0.0, 0.0, 14.0, 41.0, 234.0, 0.0, 0.0, 0.0, 1.6878032920798304E9, 0.0, 2023-06-26 13:14:52.079
140.0, 48689.274333628935, 54512.46255784781, 73138.21591594409, 678.3754442185693, -1723.632421926549, -5044.252281695876, 24456.585878918875, 17703.609788848138, 0.0, 0.0, 0.0, 196.0, 0.0, 0.0, 0.0, 14.0, 41.0, 238.0, 0.0, 0.0, 0.0, 1.6878032920838633E9, 0.0, 2023-06-26 13:14:52.083
141.0, 48655.858475668254, 54496.48106056226, 73538.02156901617, 637.7399727988211, -1745.0230413702777, -5075.880000100136, 24461.07857955439, 17678.061744935723, 0.0, 0.0, 0.0, 196.0, 0.0, 0.0, 0.0, 14.0, 41.0, 242.0, 0.0, 0.0, 0.0, 1.6878032920878751E9, 0.0, 2023-06-26 13:14:52.087
142.0, 48619.022800805906, 54464.45101075781, 75920.5163622518, 551.2163700123275, -1796.7673297843135, -5178.921542039102, 24381.97575592706, 17582.23981645582, 0.0, 0.0, 0.0, 196.0, 0.0, 0.0, 0.0, 14.0, 41.0, 246.0, 0.0, 0.0, 0.0, 1.6878032920918772E9, 0.0, 2023-06-26 13:14:52.091
143.0, 48606.014085532915, 54438.478283700744, 76640.24253371269, 545.1813990093946, -1827.8362545771904, -5189.203344488543, 24363.848491173805, 17569.0969907161, 0.0, 0.0, 0.0, 196.0, 0.0, 0.0, 0.0, 14.0, 41.0, 250.0, 0.0, 0.0, 0.0, 1.6878032920968983E9, 0.0, 2023-06-26 13:14:52.096
144.0, 48686.43566208311, 54503.41010134341, 73572.39855198843, 652.2462549503153, -1757.4506112874285, -5097.516488732874, 24449.478024182084, 17677.905282724536, 0.0, 0.0, 0.0, 196.0, 0.0, 0.0, 0.0, 14.0, 41.0, 254.0, 0.0, 0.0, 0.0, 1.6878032921009524E9, 0.0, 2023-06-26 13:14:52.100
145.0, 48679.126641646224, 54511.41202585841, 73202.58893997538, 654.7496503293098, -1709.1261397750545, -5076.416441967063, 24500.70822247365, 17721.871164068125, 0.0, 0.0, 0.0, 196.0, 0.0, 0.0, 0.0, 14.0, 42.0, 2.0, 0.0, 0.0, 0.0, 1.6878032921039314E9, 0.0, 2023-06-26 13:14:52.103
146.0, 48648.594158720276, 54492.234229115755, 75546.61638100343, 574.5068877347575, -1774.4379370734619, -5183.347187441253, 24415.570427843384, 17602.311682976688, 0.0, 0.0, 0.0, 196.0, 0.0, 0.0, 0.0, 14.0, 42.0, 6.0, 0.0, 0.0, 0.0, 1.687803292107955E9, 0.0, 2023-06-26 13:14:52.107
147.0, 48633.17145504612, 54469.14487709342, 76841.78821346619, 561.8334486285984, -1804.232812432386, -5192.64551313466, 24387.988375185538, 17580.116400732568, 0.0, 0.0, 0.0, 196.0, 0.0, 112.0, 0.0, 14.0, 42.0, 10.0, 0.0, 0.0, 0.0, 1.6878032921119852E9, 0.0, 2023-06-26 13:14:52.111
148.0, 48679.707787002066, 54497.15161289593, 74139.68582626413, 641.2939001672149, -1763.5749892681827, -5098.00822711089, 24430.411986161707, 17652.714866723403, 0.0, 0.0, 0.0, 196.0, 29.0, 176.0, 0.0, 14.0, 42.0, 14.0, 0.0, 0.0, 0.0, 1.6878032921161406E9, 0.0, 2023-06-26 13:14:52.116
149.0, 48674.36572007724, 54504.52768856617, 72963.11234988122, 655.4649061518796, -1716.8151398676803, -5071.700223886994, 24490.828751424404, 17704.682672581992, 0.0, 0.0, 0.0, 196.0, 7.0, 224.0, 0.0, 14.0, 42.0, 18.0, 0.0, 0.0, 0.0, 1.6878032921200342E9, 0.0, 2023-06-26 13:14:52.120
150.0, 48648.63886220919, 54494.29058960565, 75157.09253038079, 578.3066842921596, -1800.2094984304308, -5163.856466276225, 24424.64523609224, 17606.402052212008, 0.0, 0.0, 0.0, 196.0, 0.0, 0.0, 0.0, 14.0, 42.0, 22.0, 0.0, 0.0, 0.0, 1.6878032921240387E9, 0.0, 2023-06-26 13:14:52.124
151.0, 48617.972268816506, 54457.52196997666, 76854.99809443929, 546.9248350769085, -1837.3357459706958, -5207.59883017526, 24384.30033735041, 17560.55862433417, 0.0, 0.0, 0.0, 196.0, 0.0, 0.0, 0.0, 14.0, 42.0, 26.0, 0.0, 0.0, 0.0, 1.6878032921290631E9, 0.0, 2023-06-26 13:14:52.129
152.0, 48669.40363280817, 54488.92617093637, 74710.8846558195, 619.2774318787375, -1783.1551174110316, -5134.106294406211, 24421.918323268692, 17631.547764724226, 0.0, 0.0, 0.0, 196.0, 0.0, 0.0, 0.0, 14.0, 42.0, 30.0, 0.0, 0.0, 0.0, 1.6878032921320777E9, 0.0, 2023-06-26 13:14:52.132
153.0, 48686.547420805386, 54512.35079912553, 72770.64147837656, 671.2452377373264, -1699.3807791925406, -5070.627340153139, 24501.110553873845, 17716.260876209843, 0.0, 0.0, 0.0, 196.0, 0.0, 0.0, 0.0, 14.0, 42.0, 34.0, 0.0, 0.0, 0.0, 1.6878032921361053E9, 0.0, 2023-06-26 13:14:52.136
154.0, 48653.064507611336, 54496.88339196246, 74705.54258889468, 593.7293879663215, -1765.3407770801518, -5165.555198854828, 24427.46155589361, 17613.37579648206, 0.0, 0.0, 0.0, 196.0, 0.0, 0.0, 0.0, 14.0, 42.0, 38.0, 0.0, 0.0, 0.0, 1.6878032921401908E9, 0.0, 2023-06-26 13:14:52.140
155.0, 48630.19867303356, 54469.726022449264, 76713.109220637, 552.2892537461822, -1812.0335712472884, -5206.972981330512, 24377.170130869166, 17559.821016767146, 0.0, 0.0, 0.0, 196.0, 0.0, 0.0, 0.0, 14.0, 42.0, 42.0, 0.0, 0.0, 0.0, 1.6878032921441925E9, 0.0, 2023-06-26 13:14:52.144
156.0, 48670.901199686676, 54493.083595405056, 75314.6276253018, 612.8624812200643, -1797.5943443291599, -5146.578567812272, 24397.666680534683, 17615.946247094424, 0.0, 0.0, 0.0, 196.0, 0.0, 0.0, 0.0, 14.0, 42.0, 46.0, 0.0, 0.0, 0.0, 1.687803292148193E9, 0.0, 2023-06-26 13:14:52.148
157.0, 48697.9915139665, 54517.201127672335, 72732.12942268008, 683.9410285879408, -1728.6839161734483, -5066.581674406729, 24478.80351290745, 17708.035434250287, 0.0, 0.0, 0.0, 196.0, 0.0, 128.0, 0.0, 14.0, 42.0, 50.0, 0.0, 0.0, 0.0, 1.687803292152193E9, 0.0, 2023-06-26 13:14:52.152
158.0, 48672.555228776364, 54506.04760718914, 74271.96344995064, 613.2424608758046, -1767.3300823366742, -5165.30932966582, 24434.278837952475, 17613.19698252642, 0.0, 0.0, 0.0, 196.0, 29.0, 192.0, 0.0, 14.0, 42.0, 54.0, 0.0, 0.0, 0.0, 1.6878032921571987E9, 0.0, 2023-06-26 13:14:52.157
159.0, 48648.370641275724, 54485.2604848457, 76500.70059307822, 570.036538843696, -1800.6118298306264, -5224.720266428026, 24383.07099140537, 17554.344839375597, 0.0, 0.0, 0.0, 196.0, 7.0, 176.0, 0.0, 14.0, 42.0, 58.0, 0.0, 0.0, 0.0, 1.6878032921602132E9, 0.0, 2023-06-26 13:14:52.160
160.0, 48672.085842142806, 54491.7648424822, 75874.89645181852, 614.874138221042, -1812.9723445144111, -5140.387134598152, 24384.166226883677, 17615.946247094424, 0.0, 0.0, 0.0, 196.0, 0.0, 0.0, 0.0, 14.0, 42.0, 62.0, 0.0, 0.0, 0.0, 1.6878032921632347E9, 0.0, 2023-06-26 13:14:52.163
161.0, 48709.99440073901, 54522.81141553062, 72888.81515131178, 692.2111740364044, -1734.6518319430152, -5059.80909583677, 24477.84238789587, 17736.13157703061, 0.0, 0.0, 0.0, 196.0, 0.0, 0.0, 0.0, 14.0, 42.0, 66.0, 0.0, 0.0, 0.0, 1.687803292168249E9, 0.0, 2023-06-26 13:14:52.168
