%OpenBCI Raw EEG Data
%Number of channels = 8
%Sample Rate = 250 Hz
%Board = OpenBCI_GUI$BoardCytonSerial
Sample Index, EXG Channel 0, EXG Channel 1, EXG Channel 2, EXG Channel 3, EXG Channel 4, EXG Channel 5, EXG Channel 6, EXG Channel 7, Accel Channel 0, Accel Channel 1, Accel Channel 2, Other, Other, Other, Other, Other, Other, Other, Analog Channel 0, Analog Channel 1, Analog Channel 2, Timestamp, Other, Timestamp (Formatted)
55.0, 48361.03896630275, 54173.654815394264, 75909.34049002416, 910.4759586424778, -1679.7335958163258, -5090.587447951728, 25012.294949566716, 17979.45266717108, 0.0, 0.0, 0.0, 196.0, 0.0, 0.0, 0.0, 14.0, 96.0, 139.0, 0.0, 0.0, 0.0, 1.6878033235428991E9, 0.0, 2023-06-26 13:15:23.542
56.0, 48342.7105358494, 54145.87159703632, 77252.97090446603, 889.2418014099362, -1714.4905584443281, -5109.854651672203, 24977.94031833891, 17955.290431414895, 0.0, 0.0, 0.0, 196.0, 0.0, 0.0, 0.0, 14.0, 96.0, 143.0, 0.0, 0.0, 0.0, 1.6878033235429356E9, 0.0, 2023-06-26 13:15:23.542
57.0, 48405.787158702275, 54190.75389990257, 74722.0828797916, 971.8538489167511, -1662.075717696633, -5023.308697141254, 25027.158859629497, 18026.480737505048, 0.0, 0.0, 0.0, 196.0, 1.0, 0.0, 0.0, 14.0, 96.0, 147.0, 0.0, 0.0, 0.0, 1.6878033235429518E9, 0.0, 2023-06-26 13:15:23.542
0.0, 0.0, 0.0, 0.0, 0.0, 0.0, 0.0, 0.0, 0.0, 0.0, 0.0, 0.0, 196.0, 0.0, 0.0, 0.0, 14.0, 165.0, 14.0, 0.0, 0.0, 0.0, 1.6878033236028037E9, 0.0, 2023-06-26 13:15:23.602
1.0, 48576.06274796281, 54397.2393151807, 73593.40919177642, 1157.9544732516376, -1591.0418738176672, -4879.29640761571, 25146.539526765293, 18166.469713028637, 0.0, 0.0, 0.0, 196.0, 0.0, 0.0, 0.0, 14.0, 165.0, 29.0, 0.0, 0.0, 0.0, 1.6878033236198666E9, 0.0, 2023-06-26 13:15:23.619
2.0, 48521.03275311384, 54349.361878557436, 76406.89032159929, 1089.3569695183003, -1663.528581086228, -4954.9570625969245, 25082.032392267276, 18092.8207150484, 0.0, 0.0, 0.0, 196.0, 0.0, 0.0, 0.0, 14.0, 165.0, 33.0, 0.0, 0.0, 0.0, 1.6878033236228883E9, 0.0, 2023-06-26 13:15:23.622
3.0, 48511.287392531325, 54321.310439266024, 76429.44323175469, 1085.5795247053534, -1705.3486949621076, -4955.985242841869, 25051.90224074152, 18080.750773042535, 0.0, 0.0, 0.0, 196.0, 0.0, 0.0, 0.0, 14.0, 165.0, 36.0, 0.0, 0.0, 0.0, 1.687803323626927E9, 0.0, 2023-06-26 13:15:23.626
4.0, 48587.75271031293, 54389.617370321444, 73208.9815388896, 1202.1438720397798, -1600.7648826557258, -4840.627889708029, 25154.31793383574, 18195.795201754, 0.0, 0.0, 0.0, 196.0, 0.0, 0.0, 0.0, 14.0, 165.0, 40.0, 0.0, 0.0, 0.0, 1.6878033236299272E9, 0.0, 2023-06-26 13:15:23.629
5.0, 48578.00734973042, 54396.34524540249, 73218.01164364954, 1181.133232251791, -1590.5277836951952, -4869.305177844189, 25162.49867230638, 18176.97503292263, 0.0, 0.0, 0.0, 196.0, 0.0, 0.0, 0.0, 14.0, 165.0, 44.0, 0.0, 0.0, 0.0, 1.6878033236339445E9, 0.0, 2023-06-26 13:15:23.633
6.0, 48519.55753797979, 54351.150018113854, 75964.43754010649, 1100.9128214016941, -1650.698679768882, -4947.983318326869, 25098.192703508463, 18104.354215187337, 0.0, 0.0, 0.0, 196.0, 0.0, 0.0, 0.0, 14.0, 165.0, 48.0, 0.0, 0.0, 0.0, 1.687803323637953E9, 0.0, 2023-06-26 13:15:23.637
7.0, 48516.2047763115, 54338.23070981869, 76828.4889255153, 1098.0965016003254, -1688.4284244094401, -4938.394419955543, 25073.11404622961, 18096.15112497224, 0.0, 0.0, 0.0, 196.0, 2.0, 48.0, 0.0, 14.0, 165.0, 52.0, 0.0, 0.0, 0.0, 1.6878033236419778E9, 0.0, 2023-06-26 13:15:23.641
8.0, 48579.97430324248, 54385.92933248632, 73658.22925069681, 1199.0816830494027, -1619.4956445092732, -4843.243043809301, 25137.621180727623, 18187.12272490534, 0.0, 0.0, 0.0, 196.0, 30.0, 32.0, 0.0, 14.0, 165.0, 56.0, 0.0, 0.0, 0.0, 1.6878033236460032E9, 0.0, 2023-06-26 13:15:23.646
9.0, 48569.75955602641, 54386.756347031165, 72972.20950987453, 1187.9058108217491, -1591.8241848736031, -4854.173046847945, 25165.069122918743, 18182.942948692198, 0.0, 0.0, 0.0, 196.0, 5.0, 112.0, 0.0, 14.0, 165.0, 60.0, 0.0, 0.0, 0.0, 1.6878033236500304E9, 0.0, 2023-06-26 13:15:23.650
10.0, 48528.341773550725, 54358.86136995094, 75465.43484514176, 1108.914745916694, -1646.9435867003904, -4946.128123537079, 25099.846732598155, 18106.768203588512, 0.0, 0.0, 0.0, 196.0, 0.0, 0.0, 0.0, 14.0, 165.0, 64.0, 0.0, 0.0, 0.0, 1.6878033236530333E9, 0.0, 2023-06-26 13:15:23.653
11.0, 48492.467223699954, 54313.46497696221, 77044.5855909092, 1075.4094809781886, -1708.7014566304038, -4971.139725582567, 25049.510604084804, 18077.73328754107, 0.0, 0.0, 0.0, 196.0, 0.0, 0.0, 0.0, 14.0, 165.0, 68.0, 0.0, 0.0, 0.0, 1.6878033236580665E9, 0.0, 2023-06-26 13:15:23.658
12.0, 48565.55742806881, 54366.885646210394, 74204.19296076214, 1172.304293191945, -1642.853217465069, -4874.781355235738, 25107.491029201872, 18163.63104148281, 0.0, 0.0, 0.0, 196.0, 0.0, 0.0, 0.0, 14.0, 165.0, 72.0, 0.0, 0.0, 0.0, 1.6878033236620817E9, 0.0, 2023-06-26 13:15:23.662
13.0, 48576.82270727429, 54388.768004032136, 72785.79596111727, 1200.5792499279082, -1588.7396441387707, -4851.803761935683, 25166.566689797248, 18209.608579827378, 0.0, 0.0, 0.0, 196.0, 0.0, 0.0, 0.0, 14.0, 165.0, 76.0, 0.0, 0.0, 0.0, 1.6878033236661017E9, 0.0, 2023-06-26 13:15:23.666
14.0, 48541.909282435096, 54372.272416624124, 74965.13574899861, 1126.8408449698502, -1634.4936650387842, -4941.009574056813, 25108.58626468018, 18113.54078215847, 0.0, 0.0, 0.0, 196.0, 0.0, 0.0, 0.0, 14.0, 165.0, 80.0, 0.0, 0.0, 0.0, 1.6878033236702113E9, 0.0, 2023-06-26 13:15:23.670
15.0, 48507.308782018285, 54335.28027955059, 77103.1471613821, 1090.07222534087, -1689.8142325656693, -4961.751992911339, 25064.128644958575, 18079.34261314185, 0.0, 0.0, 0.0, 196.0, 0.0, 0.0, 0.0, 14.0, 165.0, 84.0, 0.0, 0.0, 0.0, 1.6878033236741943E9, 0.0, 2023-06-26 13:15:23.674
16.0, 48564.88687573515, 54374.015852691635, 74770.34029607062, 1161.7319180645845, -1655.1690286599433, -4884.772585007261, 25098.326813975196, 18150.175291320716, 0.0, 0.0, 0.0, 196.0, 0.0, 0.0, 0.0, 14.0, 165.0, 88.0, 0.0, 0.0, 0.0, 1.6878033236781936E9, 0.0, 2023-06-26 13:15:23.678
17.0, 48581.56127709881, 54395.02649247963, 72708.8165532132, 1207.5306424535088, -1587.3538359825416, -4836.2916512837, 25171.26055613286, 18214.950646752197, 0.0, 0.0, 0.0, 196.0, 2.0, 240.0, 0.0, 14.0, 165.0, 92.0, 0.0, 0.0, 0.0, 1.687803323681212E9, 0.0, 2023-06-26 13:15:23.681
18.0, 48552.816933729286, 54383.56004757405, 74477.55479545055, 1144.8339992563724, -1615.9640688853347, -4910.186518452945, 25134.40252952606, 18143.983858106596, 0.0, 0.0, 0.0, 196.0, 30.0, 16.0, 0.0, 14.0, 165.0, 96.0, 0.0, 0.0, 0.0, 1.6878033236852026E9, 0.0, 2023-06-26 13:15:23.685
19.0, 48500.55855519278, 54332.66512544932, 76998.76451477582, 1083.6796264266522, -1684.0474824962, -4965.350623768642, 25075.90801428652, 18089.467953380103, 0.0, 0.0, 0.0, 196.0, 5.0, 16.0, 0.0, 14.0, 165.0, 100.0, 0.0, 0.0, 0.0, 1.6878033236902244E9, 0.0, 2023-06-26 13:15:23.690
20.0, 48553.375727340666, 54366.57272178802, 75376.541957443, 1140.944795721149, -1667.9765782328343, -4895.836698512638, 25091.48718017187, 18131.10925330034, 0.0, 0.0, 0.0, 196.0, 0.0, 0.0, 0.0, 14.0, 165.0, 104.0, 0.0, 0.0, 0.0, 1.6878033236942244E9, 0.0, 2023-06-26 13:15:23.694
21.0, 48583.68469282206, 54397.73105355872, 72745.67457982, 1208.8717471208272, -1586.795042371159, -4825.853386623071, 25172.959288711463, 18215.531792108035, 0.0, 0.0, 0.0, 196.0, 0.0, 0.0, 0.0, 14.0, 165.0, 108.0, 0.0, 0.0, 0.0, 1.6878033236982431E9, 0.0, 2023-06-26 13:15:23.698
22.0, 48553.21926512948, 54383.604751062965, 74014.31489161431, 1146.9574149796267, -1612.0301618612007, -4909.918297519481, 25139.65518947306, 18140.474634227114, 0.0, 0.0, 0.0, 196.0, 0.0, 0.0, 0.0, 14.0, 165.0, 112.0, 0.0, 0.0, 0.0, 1.6878033237022724E9, 0.0, 2023-06-26 13:15:23.702
23.0, 48501.69849416, 54330.69817193725, 76747.19563093134, 1077.2199722790685, -1681.0747004836442, -4976.235923318377, 25080.221900966397, 18074.738153784056, 0.0, 0.0, 0.0, 196.0, 0.0, 0.0, 0.0, 14.0, 165.0, 116.0, 0.0, 0.0, 0.0, 1.6878033237062955E9, 0.0, 2023-06-26 13:15:23.706
24.0, 48537.68480273304, 54350.03243089109, 75966.02451396281, 1115.2402895975458, -1683.7345580738256, -4916.5120621337965, 25081.0712672557, 18111.61853213531, 0.0, 0.0, 0.0, 196.0, 0.0, 0.0, 0.0, 14.0, 165.0, 120.0, 0.0, 0.0, 0.0, 1.6878033237093077E9, 0.0, 2023-06-26 13:15:23.709
25.0, 48593.94414352705, 54405.263591440154, 72924.19796278453, 1217.521872225031, -1585.543344681662, -4819.751360386773, 25177.921375980543, 18219.443347387714, 0.0, 0.0, 0.0, 196.0, 0.0, 0.0, 0.0, 14.0, 165.0, 124.0, 0.0, 0.0, 0.0, 1.687803323713317E9, 0.0, 2023-06-26 13:15:23.713
26.0, 48574.67693980657, 54405.37535016243, 73598.46068602332, 1185.4247671872101, -1589.8348796170808, -4874.5354860467305, 25167.013724686352, 18178.338489334405, 0.0, 0.0, 0.0, 196.0, 0.0, 0.0, 0.0, 14.0, 165.0, 128.0, 0.0, 0.0, 0.0, 1.6878033237173553E9, 0.0, 2023-06-26 13:15:23.717
27.0, 48516.674162945055, 54353.20637860375, 76372.78155956049, 1107.0595511269034, -1653.5149995702507, -4952.476018962386, 25099.91378783152, 18097.738098828566, 0.0, 0.0, 0.0, 196.0, 3.0, 144.0, 0.0, 14.0, 165.0, 132.0, 0.0, 0.0, 0.0, 1.687803323722368E9, 0.0, 2023-06-26 13:15:23.722
28.0, 48512.38262800963, 54330.251137048144, 76461.40622632578, 1102.9691818915824, -1700.1183867595657, -4947.69274564895, 25068.800159549734, 18089.356194657827, 0.0, 0.0, 0.0, 196.0, 30.0, 32.0, 0.0, 14.0, 165.0, 136.0, 0.0, 0.0, 0.0, 1.6878033237263916E9, 0.0, 2023-06-26 13:15:23.726
29.0, 48585.65164633413, 54394.87003026844, 73234.57428629092, 1216.6725059357293, -1600.541365211173, -4823.640563921996, 25162.632782773115, 18208.51334434907, 0.0, 0.0, 0.0, 196.0, 5.0, 16.0, 0.0, 14.0, 165.0, 140.0, 0.0, 0.0, 0.0, 1.687803323729411E9, 0.0, 2023-06-26 13:15:23.729
30.0, 48578.02970147487, 54405.844736795996, 73241.77154800553, 1197.0476743039696, -1577.9437515668574, -4851.490837513308, 25179.821274259244, 18197.091602932407, 0.0, 0.0, 0.0, 196.0, 0.0, 0.0, 0.0, 14.0, 165.0, 144.0, 0.0, 0.0, 0.0, 1.6878033237334132E9, 0.0, 2023-06-26 13:15:23.733
31.0, 48523.02205837036, 54361.90120719686, 75930.21701934541, 1109.3394290613448, -1650.4751623243287, -4948.899739849537, 25104.451191955948, 18096.8216773059, 0.0, 0.0, 0.0, 196.0, 0.0, 0.0, 0.0, 14.0, 165.0, 148.0, 0.0, 0.0, 0.0, 1.6878033237374387E9, 0.0, 2023-06-26 13:15:23.737
32.0, 48519.959869379985, 54343.86334942143, 76823.52683824621, 1099.3929027787333, -1692.339979689119, -4940.830760101171, 25075.34922067514, 18096.01701450551, 0.0, 0.0, 0.0, 196.0, 0.0, 0.0, 0.0, 14.0, 165.0, 152.0, 0.0, 0.0, 0.0, 1.6878033237414649E9, 0.0, 2023-06-26 13:15:23.741
33.0, 48587.082157979276, 54395.138251201904, 73675.90948056096, 1199.461662705143, -1620.076789865111, -4835.3305262721215, 25142.270343574328, 18190.453134829182, 0.0, 0.0, 0.0, 196.0, 0.0, 0.0, 0.0, 14.0, 165.0, 156.0, 0.0, 0.0, 0.0, 1.6878033237454703E9, 0.0, 2023-06-26 13:15:23.745
34.0, 48588.24444869095, 54408.30342868608, 72946.48265200647, 1204.1331772963022, -1584.6939783923601, -4844.2488723097895, 25178.54722482529, 18205.18293442523, 0.0, 0.0, 0.0, 196.0, 0.0, 0.0, 0.0, 14.0, 165.0, 160.0, 0.0, 0.0, 0.0, 1.6878033237494907E9, 0.0, 2023-06-26 13:15:23.749
35.0, 48547.07253540427, 54380.22963765021, 75419.16673411927, 1124.5386152909537, -1639.1875313743988, -4938.327364722177, 25115.716471161424, 18112.6243606358, 0.0, 0.0, 0.0, 196.0, 0.0, 0.0, 0.0, 14.0, 165.0, 164.0, 0.0, 0.0, 0.0, 1.6878033237555096E9, 0.0, 2023-06-26 13:15:23.755
36.0, 48509.2980872748, 54333.80506441654, 77031.82274482521, 1083.7466816600183, -1704.2311077393424, -4971.4526500049415, 25061.28997341275, 18070.848950248834, 0.0, 0.0, 0.0, 196.0, 0.0, 0.0, 0.0, 14.0, 165.0, 168.0, 0.0, 0.0, 0.0, 1.6878033237585404E9, 0.0, 2023-06-26 13:15:23.758
37.0, 48575.70512005152, 54382.554219073565, 74216.30760625692, 1172.2595897030342, -1646.2506826222757, -4873.999044179803, 25115.001215338852, 18159.473617014126, 0.0, 0.0, 0.0, 196.0, 3.0, 192.0, 0.0, 14.0, 165.0, 172.0, 0.0, 0.0, 0.0, 1.687803323762566E9, 0.0, 2023-06-26 13:15:23.762
38.0, 48597.56512612881, 54413.08670199951, 72778.35283021365, 1217.6336309473074, -1569.5171439072067, -4826.85921512356, 25193.053506976787, 18224.69600733471, 0.0, 0.0, 0.0, 196.0, 30.0, 32.0, 0.0, 14.0, 165.0, 176.0, 0.0, 0.0, 0.0, 1.6878033237655773E9, 0.0, 2023-06-26 13:15:23.765
39.0, 48549.9112069501, 54379.98376846121, 74910.70925124995, 1134.5521968069313, -1625.664725978938, -4928.939632050948, 25127.473488744916, 18127.667084654222, 0.0, 0.0, 0.0, 196.0, 4.0, 208.0, 0.0, 14.0, 165.0, 180.0, 0.0, 0.0, 0.0, 1.6878033237695937E9, 0.0, 2023-06-26 13:15:23.769
40.0, 48509.4992529749, 54334.36385802792, 77075.47570174643, 1093.8720218982724, -1679.3312644161301, -4962.243731289355, 25085.318098702206, 18089.19973244664, 0.0, 0.0, 0.0, 196.0, 0.0, 0.0, 0.0, 14.0, 165.0, 184.0, 0.0, 0.0, 0.0, 1.687803323773604E9, 0.0, 2023-06-26 13:15:23.773
41.0, 48558.85190473222, 54365.499838054166, 74839.67540737097, 1160.524923863998, -1650.4528105798736, -4890.49463158782, 25114.15184904955, 18145.056741840453, 0.0, 0.0, 0.0, 196.0, 0.0, 0.0, 0.0, 14.0, 165.0, 188.0, 0.0, 0.0, 0.0, 1.6878033237776165E9, 0.0, 2023-06-26 13:15:23.777
42.0, 48585.249314933935, 54397.2393151807, 72704.0109281553, 1216.650154191274, -1568.600722384539, -4834.592918705096, 25192.628823832136, 18227.98171376964, 0.0, 0.0, 0.0, 196.0, 0.0, 0.0, 0.0, 14.0, 165.0, 192.0, 0.0, 0.0, 0.0, 1.687803323782683E9, 0.0, 2023-06-26 13:15:23.782
43.0, 48544.16680862508, 54374.70875676975, 74417.40625112131, 1143.5375980779647, -1612.0748653501112, -4915.193309210934, 25142.627971485614, 18143.335657517393, 0.0, 0.0, 0.0, 196.0, 0.0, 0.0, 0.0, 14.0, 165.0, 196.0, 0.0, 0.0, 0.0, 1.6878033237856698E9, 0.0, 2023-06-26 13:15:23.785
44.0, 48500.40209298159, 54332.26279404912, 76940.15824081401, 1091.9497718751159, -1676.984331248323, -4962.064917333712, 25087.6203283811, 18085.399935889236, 0.0, 0.0, 0.0, 196.0, 0.0, 0.0, 0.0, 14.0, 165.0, 200.0, 0.0, 0.0, 0.0, 1.6878033237886815E9, 0.0, 2023-06-26 13:15:23.788
45.0, 48550.69351800603, 54363.19760837527, 75431.84017322543, 1146.5327318349757, -1662.4109938634629, -4906.811405040194, 25106.82047686821, 18129.611686421835, 0.0, 0.0, 0.0, 196.0, 0.0, 0.0, 0.0, 14.0, 165.0, 204.0, 0.0, 0.0, 0.0, 1.68780332379371E9, 0.0, 2023-06-26 13:15:23.793
46.0, 48585.09285272275, 54395.38412039091, 72728.6649022895, 1223.5121397390533, -1587.2420772602652, -4834.592918705096, 25187.37616388514, 18213.944818251708, 0.0, 0.0, 0.0, 196.0, 0.0, 0.0, 0.0, 14.0, 165.0, 208.0, 0.0, 0.0, 0.0, 1.6878033237977393E9, 0.0, 2023-06-26 13:15:23.797
47.0, 48562.13761116715, 54389.259742410155, 73923.9467887815, 1170.7620228245287, -1597.3897692429746, -4892.171012421967, 25166.45493107497, 18171.141227619795, 0.0, 0.0, 0.0, 196.0, 3.0, 144.0, 0.0, 14.0, 165.0, 212.0, 0.0, 0.0, 0.0, 1.687803323801747E9, 0.0, 2023-06-26 13:15:23.801
48.0, 48517.5011774899, 54351.798218703065, 76657.96746706576, 1112.7368942185515, -1653.8279239926248, -4949.88321660557, 25114.710642660935, 18118.838145594378, 0.0, 0.0, 0.0, 196.0, 30.0, 48.0, 0.0, 14.0, 165.0, 216.0, 0.0, 0.0, 0.0, 1.6878033238057797E9, 0.0, 2023-06-26 13:15:23.805
49.0, 48541.59635801272, 54358.95077692876, 76012.04675579628, 1140.7883335099618, -1669.5412003447057, -4909.046579485725, 25102.908921588532, 18129.522279444012, 0.0, 0.0, 0.0, 196.0, 4.0, 160.0, 0.0, 14.0, 165.0, 220.0, 0.0, 0.0, 0.0, 1.6878033238097858E9, 0.0, 2023-06-26 13:15:23.809
50.0, 48584.824631789284, 54397.038149480606, 72948.76252994091, 1223.3333257834108, -1593.7687866412148, -4817.806758619161, 25177.966079469454, 18221.23148694414, 0.0, 0.0, 0.0, 196.0, 0.0, 0.0, 0.0, 14.0, 165.0, 224.0, 0.0, 0.0, 0.0, 1.687803323813804E9, 0.0, 2023-06-26 13:15:23.813
51.0, 48566.51855308039, 54398.04397798109, 73540.83788881754, 1188.3528457108553, -1598.7532256547483, -4862.420840551954, 25170.25472763237, 18185.111067904363, 0.0, 0.0, 0.0, 196.0, 0.0, 0.0, 0.0, 14.0, 165.0, 228.0, 0.0, 0.0, 0.0, 1.687803323816821E9, 0.0, 2023-06-26 13:15:23.816
52.0, 48515.84714840021, 54356.64854724986, 76283.08400906135, 1116.8943186872386, -1657.9182932279462, -4934.885196076059, 25108.049822813253, 18106.567037888413, 0.0, 0.0, 0.0, 196.0, 0.0, 0.0, 0.0, 14.0, 165.0, 232.0, 0.0, 0.0, 0.0, 1.6878033238208547E9, 0.0, 2023-06-26 13:15:23.820
53.0, 48511.6003169537, 54336.73314294018, 76501.79582855653, 1110.45701628411, -1699.827814081647, -4931.599489641129, 25078.67963059898, 18098.34159592886, 0.0, 0.0, 0.0, 196.0, 0.0, 0.0, 0.0, 14.0, 165.0, 236.0, 0.0, 0.0, 0.0, 1.6878033238258855E9, 0.0, 2023-06-26 13:15:23.825
54.0, 48582.50005036593, 54397.73105355872, 73274.51685363255, 1217.9689071141372, -1608.9679728708236, -4823.327639499622, 25166.45493107497, 18217.185821197727, 0.0, 0.0, 0.0, 196.0, 0.0, 0.0, 0.0, 14.0, 165.0, 240.0, 0.0, 0.0, 0.0, 1.6878033238298829E9, 0.0, 2023-06-26 13:15:23.829
55.0, 48581.49422186545, 54413.77960607763, 73164.63567789027, 1206.5918691863858, -1580.4918504347625, -4837.275128039733, 25191.712402309466, 18213.207210684683, 0.0, 0.0, 0.0, 196.0, 0.0, 0.0, 0.0, 14.0, 165.0, 244.0, 0.0, 0.0, 0.0, 1.6878033238339107E9, 0.0, 2023-06-26 13:15:23.833
56.0, 48527.11242760568, 54371.87008522393, 75806.67892774093, 1126.7067345031185, -1644.7307639993148, -4924.804559326716, 25124.0313200988, 18123.5767154189, 0.0, 0.0, 0.0, 196.0, 0.0, 0.0, 0.0, 14.0, 165.0, 248.0, 0.0, 0.0, 0.0, 1.6878033238379257E9, 0.0, 2023-06-26 13:15:23.837
57.0, 48503.50898546088, 54338.722448196706, 76843.46459430034, 1097.0906730998365, -1704.6334391395378, -4957.952196353936, 25074.186929963464, 18085.623453333792, 0.0, 0.0, 0.0, 196.0, 3.0, 208.0, 0.0, 14.0, 165.0, 252.0, 0.0, 0.0, 0.0, 1.6878033238419604E9, 0.0, 2023-06-26 13:15:23.841
58.0, 48580.75661429842, 54401.508498371666, 73743.18823137143, 1202.6803139067072, -1622.4907782662845, -4848.786276434216, 25148.50648027736, 18188.97791969513, 0.0, 0.0, 0.0, 196.0, 30.0, 48.0, 0.0, 14.0, 166.0, 0.0, 0.0, 0.0, 0.0, 1.6878033238449552E9, 0.0, 2023-06-26 13:15:23.844
59.0, 48587.23862019046, 54419.5463561471, 72945.29800955034, 1214.5043867235645, -1581.7211963798043, -4838.951508873882, 25190.773629042345, 18211.93316125073, 0.0, 0.0, 0.0, 196.0, 4.0, 160.0, 0.0, 14.0, 166.0, 4.0, 0.0, 0.0, 0.0, 1.6878033238489745E9, 0.0, 2023-06-26 13:15:23.848
60.0, 48550.73822149494, 54397.507536114164, 75341.09209073689, 1144.9010544897383, -1633.2643190937424, -4936.226300743378, 25134.179012081506, 18121.565058417924, 0.0, 0.0, 0.0, 196.0, 0.0, 0.0, 0.0, 14.0, 166.0, 8.0, 0.0, 0.0, 0.0, 1.687803323853E9, 0.0, 2023-06-26 13:15:23.853
61.0, 48514.19311931052, 54354.458076293246, 77035.86841057162, 1104.6008592368198, -1695.178651234943, -4968.390461014565, 25084.938119046466, 18085.511694611516, 0.0, 0.0, 0.0, 196.0, 0.0, 0.0, 0.0, 14.0, 166.0, 12.0, 0.0, 0.0, 0.0, 1.6878033238580036E9, 0.0, 2023-06-26 13:15:23.858
62.0, 48578.47673636398, 54401.843774538494, 74288.90607224776, 1183.4354619306878, -1645.110743655055, -4884.996102451814, 25129.239276556884, 18148.700076186666, 0.0, 0.0, 0.0, 196.0, 0.0, 0.0, 0.0, 14.0, 166.0, 16.0, 0.0, 0.0, 0.0, 1.6878033238620372E9, 0.0, 2023-06-26 13:15:23.862
63.0, 48595.0170272609, 54429.42582719634, 72766.08172250769, 1229.5694624864416, -1583.9787225697903, -4842.393677519998, 25198.373222157148, 18212.000216484095, 0.0, 0.0, 0.0, 196.0, 0.0, 0.0, 0.0, 14.0, 166.0, 20.0, 0.0, 0.0, 0.0, 1.6878033238660676E9, 0.0, 2023-06-26 13:15:23.866
64.0, 48554.42625933007, 54400.48031812672, 74830.28767469975, 1156.65807207323, -1632.280842337709, -4925.83273957166, 25148.797052955277, 18139.22293653762, 0.0, 0.0, 0.0, 196.0, 0.0, 0.0, 0.0, 14.0, 166.0, 24.0, 0.0, 0.0, 0.0, 1.6878033238690877E9, 0.0, 2023-06-26 13:15:23.869
65.0, 48510.1474535641, 54352.28995708108, 77047.44661419948, 1101.3598562908003, -1690.373026177052, -4976.861772163126, 25099.19853200895, 18092.597197603845, 0.0, 0.0, 0.0, 196.0, 0.0, 0.0, 0.0, 14.0, 166.0, 28.0, 0.0, 0.0, 0.0, 1.68780332387311E9, 0.0, 2023-06-26 13:15:23.873
66.0, 48557.711965765, 54381.12370742842, 74912.60914952865, 1163.5424093654644, -1667.887171255013, -4900.530564848253, 25121.751442164357, 18137.25598302555, 0.0, 0.0, 0.0, 196.0, 0.0, 0.0, 0.0, 14.0, 166.0, 32.0, 0.0, 0.0, 0.0, 1.6878033238772063E9, 0.0, 2023-06-26 13:15:23.877
67.0, 48587.12686146818, 54415.81361482306, 72737.69500704945, 1226.1049420958689, -1591.086577306578, -4830.234328536311, 25202.57535011475, 18234.37431268386, 0.0, 0.0, 0.0, 196.0, 4.0, 0.0, 0.0, 14.0, 166.0, 36.0, 0.0, 0.0, 0.0, 1.6878033238811853E9, 0.0, 2023-06-26 13:15:23.881
68.0, 48554.985052941454, 54398.58041984802, 74376.16728260128, 1158.625025585297, -1623.2283858333094, -4906.856108529104, 25164.93501245201, 18162.379343793316, 0.0, 0.0, 0.0, 196.0, 30.0, 96.0, 0.0, 14.0, 166.0, 40.0, 0.0, 0.0, 0.0, 1.687803323886175E9, 0.0, 2023-06-26 13:15:23.886
69.0, 48499.195098781005, 54344.04216337707, 76934.99498784482, 1093.5814492203533, -1695.2904099572195, -4964.188333056967, 25106.641662912567, 18095.927607527687, 0.0, 0.0, 0.0, 196.0, 4.0, 96.0, 0.0, 14.0, 166.0, 44.0, 0.0, 0.0, 0.0, 1.6878033238901892E9, 0.0, 2023-06-26 13:15:23.890
70.0, 48552.36989884018, 54379.87200973893, 75529.47259300621, 1153.0817929603807, -1669.720014300348, -4899.860012514593, 25126.06532884423, 18139.245288282073, 0.0, 0.0, 0.0, 196.0, 0.0, 0.0, 0.0, 14.0, 166.0, 48.0, 0.0, 0.0, 0.0, 1.6878033238942122E9, 0.0, 2023-06-26 13:15:23.894
71.0, 48586.70217832353, 54411.79030082111, 72815.34496728718, 1230.3741252868326, -1587.7338156382818, -4813.179947516912, 25212.968911286465, 18239.93989705323, 0.0, 0.0, 0.0, 196.0, 0.0, 0.0, 0.0, 14.0, 166.0, 52.0, 0.0, 0.0, 0.0, 1.6878033238972154E9, 0.0, 2023-06-26 13:15:23.897
72.0, 48557.57785529827, 54397.73105355872, 73928.193620228, 1172.8407350588723, -1615.3158682961307, -4883.319721617666, 25183.106980694174, 18178.606710267868, 0.0, 0.0, 0.0, 196.0, 0.0, 0.0, 0.0, 14.0, 166.0, 56.0, 0.0, 0.0, 0.0, 1.687803323901234E9, 0.0, 2023-06-26 13:15:23.901
73.0, 48507.66640992957, 54352.200550103254, 76632.01709175314, 1111.753417462518, -1672.2681131682532, -4934.393457698043, 25132.100299847163, 18124.046102052464, 0.0, 0.0, 0.0, 196.0, 0.0, 0.0, 0.0, 14.0, 166.0, 60.0, 0.0, 0.0, 0.0, 1.6878033239052553E9, 0.0, 2023-06-26 13:15:23.905
74.0, 48524.34081129322, 54351.68645998078, 76106.79580054234, 1132.0488014279367, -1688.8754592985463, -4903.346884649621, 25122.35493926465, 18132.53976494548, 0.0, 0.0, 0.0, 196.0, 0.0, 0.0, 0.0, 14.0, 166.0, 64.0, 0.0, 0.0, 0.0, 1.6878033239092665E9, 0.0, 2023-06-26 13:15:23.909
75.0, 48577.359149141215, 54400.48031812672, 73025.54077214489, 1225.4120380177544, -1603.9164786239241, -4814.029313806214, 25205.570483871757, 18235.648362117812, 0.0, 0.0, 0.0, 196.0, 0.0, 0.0, 0.0, 14.0, 166.0, 68.0, 0.0, 0.0, 0.0, 1.6878033239133022E9, 0.0, 2023-06-26 13:15:23.913
76.0, 48557.93548320955, 54401.10616697147, 73530.19845845681, 1189.716302122629, -1608.5656414706282, -4857.637567238518, 25204.005861759888, 18209.250951916096, 0.0, 0.0, 0.0, 196.0, 0.0, 0.0, 0.0, 14.0, 166.0, 72.0, 0.0, 0.0, 0.0, 1.6878033239183297E9, 0.0, 2023-06-26 13:15:23.918
77.0, 48509.02986634134, 54358.12376238391, 76229.95391249108, 1120.3588390778111, -1667.66365381046, -4929.721943106883, 25143.16441335254, 18130.572811433412, 0.0, 0.0, 0.0, 196.0, 4.0, 16.0, 0.0, 14.0, 166.0, 76.0, 0.0, 0.0, 0.0, 1.6878033239223464E9, 0.0, 2023-06-26 13:15:23.922
78.0, 48513.32140127676, 54348.020773890115, 76563.01725661961, 1118.6824582436632, -1702.0853402716327, -4928.291431461744, 25114.35301474965, 18119.531049672492, 0.0, 0.0, 0.0, 196.0, 30.0, 0.0, 0.0, 14.0, 166.0, 80.0, 0.0, 0.0, 0.0, 1.6878033239253514E9, 0.0, 2023-06-26 13:15:23.925
79.0, 48579.25904741992, 54403.72132107274, 73380.08414269498, 1222.7968839164835, -1618.7133334533376, -4826.054552323169, 25196.249806433894, 18218.79514679851, 0.0, 0.0, 0.0, 196.0, 4.0, 96.0, 0.0, 14.0, 166.0, 84.0, 0.0, 0.0, 0.0, 1.6878033239293716E9, 0.0, 2023-06-26 13:15:23.929
80.0, 48569.62544555968, 54409.62218160894, 73223.55487627446, 1207.0165523310368, -1601.4577867338405, -4855.558855004175, 25213.28183570884, 18206.322873392448, 0.0, 0.0, 0.0, 196.0, 0.0, 0.0, 0.0, 14.0, 166.0, 88.0, 0.0, 0.0, 0.0, 1.6878033239334073E9, 0.0, 2023-06-26 13:15:23.933
81.0, 48529.526416006855, 54380.25198939467, 75793.67021246794, 1135.9603567076156, -1656.241912393798, -4932.73942860835, 25154.65321000257, 18127.44356720967, 0.0, 0.0, 0.0, 196.0, 0.0, 0.0, 0.0, 14.0, 166.0, 92.0, 0.0, 0.0, 0.0, 1.6878033239373958E9, 0.0, 2023-06-26 13:15:23.937
82.0, 48516.8529769007, 54354.2792623376, 76890.26914718976, 1118.45894079911, -1701.7500641048032, -4948.832684616171, 25118.532790962792, 18101.180267474683, 0.0, 0.0, 0.0, 196.0, 0.0, 0.0, 0.0, 14.0, 166.0, 96.0, 0.0, 0.0, 0.0, 1.687803323941425E9, 0.0, 2023-06-26 13:15:23.941
83.0, 48583.304713166326, 54403.22958269472, 73828.79541263526, 1209.7881686434948, -1635.9465284283792, -4862.465544040864, 25177.362582369162, 18186.541579549503, 0.0, 0.0, 0.0, 196.0, 0.0, 0.0, 0.0, 14.0, 166.0, 100.0, 0.0, 0.0, 0.0, 1.687803323945443E9, 0.0, 2023-06-26 13:15:23.945
84.0, 48573.08996595025, 54401.977885005224, 72968.23089936149, 1207.8659186203383, -1607.6715716924157, -4867.762907476772, 25208.431507162037, 18199.818515755953, 0.0, 0.0, 0.0, 196.0, 0.0, 0.0, 0.0, 14.0, 166.0, 104.0, 0.0, 0.0, 0.0, 1.6878033239494903E9, 0.0, 2023-06-26 13:15:23.949
85.0, 48533.437971286534, 54375.692233525784, 75299.0708111609, 1132.9205194616939, -1662.6121595635605, -4960.008556843824, 25144.460814530947, 18106.00824427703, 0.0, 0.0, 0.0, 196.0, 0.0, 0.0, 0.0, 14.0, 166.0, 108.0, 0.0, 0.0, 0.0, 1.6878033239524868E9, 0.0, 2023-06-26 13:15:23.952
86.0, 48511.019171597865, 54347.55138725655, 77047.78189036631, 1113.4521500411213, -1703.9405350614234, -4977.375862285598, 25110.48616295888, 18087.679813823677, 0.0, 0.0, 0.0, 196.0, 0.0, 0.0, 0.0, 14.0, 166.0, 112.0, 0.0, 0.0, 0.0, 1.6878033239574983E9, 0.0, 2023-06-26 13:15:23.957
87.0, 48572.173544427584, 54393.93125700131, 74392.059372909, 1197.8523371043607, -1658.4100316059628, -4888.974712964859, 25154.89907919158, 18162.759323449056, 0.0, 0.0, 0.0, 196.0, 4.0, 32.0, 0.0, 14.0, 166.0, 116.0, 0.0, 0.0, 0.0, 1.6878033239615338E9, 0.0, 2023-06-26 13:15:23.961
88.0, 48585.38342540067, 54415.79126307861, 72807.85713289466, 1237.1690556012459, -1598.373245999008, -4840.024392607736, 25222.13312651314, 18221.23148694414, 0.0, 0.0, 0.0, 196.0, 30.0, 64.0, 0.0, 14.0, 166.0, 120.0, 0.0, 0.0, 0.0, 1.68780332396554E9, 0.0, 2023-06-26 13:15:23.965
89.0, 48547.94425343803, 54392.74661454518, 74785.56183404468, 1163.6765198321964, -1638.18170287391, -4924.692800604439, 25171.774646255333, 18133.702055657155, 0.0, 0.0, 0.0, 196.0, 4.0, 160.0, 0.0, 14.0, 166.0, 124.0, 0.0, 0.0, 0.0, 1.6878033239695745E9, 0.0, 2023-06-26 13:15:23.969
90.0, 48493.808328367275, 54338.007192374134, 77013.56136960523, 1107.3948272937332, -1702.174747249454, -4976.034757618279, 25120.857372386145, 18085.668156822703, 0.0, 0.0, 0.0, 196.0, 0.0, 0.0, 0.0, 14.0, 166.0, 128.0, 0.0, 0.0, 0.0, 1.6878033239736097E9, 0.0, 2023-06-26 13:15:23.973
91.0, 48554.53801805234, 54379.38027136091, 74994.01420283488, 1177.8251740724056, -1665.0037962202784, -4880.436346582931, 25157.871861204134, 18159.674782714224, 0.0, 0.0, 0.0, 196.0, 0.0, 0.0, 0.0, 14.0, 166.0, 132.0, 0.0, 0.0, 0.0, 1.687803323977605E9, 0.0, 2023-06-26 13:15:23.977
92.0, 48580.2648759204, 54406.470585640745, 72777.70462962445, 1241.8182184479497, -1592.3829784849859, -4824.892261611493, 25236.259429008893, 18236.207155729193, 0.0, 0.0, 0.0, 196.0, 0.0, 0.0, 0.0, 14.0, 166.0, 136.0, 0.0, 0.0, 0.0, 1.6878033239806285E9, 0.0, 2023-06-26 13:15:23.980
93.0, 48543.27273884687, 54386.398719119876, 74331.41909020176, 1169.2421042015678, -1630.8056272036586, -4916.579117367162, 25190.930091253533, 18153.25983205555, 0.0, 0.0, 0.0, 196.0, 0.0, 0.0, 0.0, 14.0, 166.0, 140.0, 0.0, 0.0, 0.0, 1.6878033239846742E9, 0.0, 2023-06-26 13:15:23.984
94.0, 48494.7471016344, 54341.315250553525, 76868.85617600157, 1120.9623361781046, -1685.1874214634206, -4961.327309766688, 25146.22660234292, 18115.507735670537, 0.0, 0.0, 0.0, 196.0, 0.0, 0.0, 0.0, 14.0, 166.0, 144.0, 0.0, 0.0, 0.0, 1.6878033239896705E9, 0.0, 2023-06-26 13:15:23.989
95.0, 48533.77324745336, 54364.941044442785, 75616.599692893, 1169.6444356017632, -1676.179668447932, -4898.317742147176, 25163.996239184886, 18163.362820549348, 0.0, 0.0, 0.0, 196.0, 0.0, 0.0, 0.0, 14.0, 166.0, 148.0, 0.0, 0.0, 0.0, 1.68780332399368E9, 0.0, 2023-06-26 13:15:23.993
96.0, 48575.14632644014, 54406.448233896284, 72877.19224419502, 1251.228302863634, -1590.1701557839103, -4808.1508050144685, 25254.52080422888, 18267.47724622217, 0.0, 0.0, 0.0, 196.0, 0.0, 0.0, 0.0, 14.0, 166.0, 152.0, 0.0, 0.0, 0.0, 1.687803323997699E9, 0.0, 2023-06-26 13:15:23.997
97.0, 48548.79361972733, 54394.62416107943, 73911.07218397525, 1194.7230928806177, -1608.923269381913, -4873.149677890501, 25227.497545182414, 18207.395757126305, 0.0, 0.0, 0.0, 196.0, 4.0, 48.0, 0.0, 14.0, 166.0, 156.0, 0.0, 0.0, 0.0, 1.6878033240017252E9, 0.0, 2023-06-26 13:15:24.001
98.0, 48495.64117141261, 54344.84682617746, 76559.70919844022, 1125.6114990248084, -1675.7996887921918, -4935.578100154174, 25165.806730485765, 18126.840070109378, 0.0, 0.0, 0.0, 196.0, 30.0, 112.0, 0.0, 14.0, 166.0, 160.0, 0.0, 0.0, 0.0, 1.687803324005738E9, 0.0, 2023-06-26 13:15:24.005
99.0, 48511.66737218707, 54343.818645932515, 76154.18149878758, 1139.7378015205625, -1702.0182850382669, -4914.813329555193, 25151.479262289915, 18132.58446843439, 0.0, 0.0, 0.0, 196.0, 4.0, 144.0, 0.0, 14.0, 166.0, 164.0, 0.0, 0.0, 0.0, 1.6878033240087852E9, 0.0, 2023-06-26 13:15:24.008
100.0, 48559.47775357697, 54388.25391390967, 73078.82733092635, 1233.5704247439414, -1613.8183014176252, -4828.021505835236, 25227.005806804398, 18230.66392310428, 0.0, 0.0, 0.0, 196.0, 0.0, 0.0, 0.0, 14.0, 166.0, 168.0, 0.0, 0.0, 0.0, 1.687803324012804E9, 0.0, 2023-06-26 13:15:24.012
101.0, 48552.07932616226, 54394.89238201289, 73526.5104206217, 1205.0495988189696, -1605.5481559691616, -4864.946587675404, 25232.973722573963, 18208.02160597105, 0.0, 0.0, 0.0, 196.0, 0.0, 0.0, 0.0, 14.0, 166.0, 172.0, 0.0, 0.0, 0.0, 1.6878033240167975E9, 0.0, 2023-06-26 13:15:24.016
102.0, 48508.493424474414, 54357.09558213897, 76175.5274147424, 1129.165426393202, -1671.1952294343985, -4943.5129694358075, 25164.465625818448, 18126.25892475354, 0.0, 0.0, 0.0, 196.0, 0.0, 0.0, 0.0, 14.0, 166.0, 176.0, 0.0, 0.0, 0.0, 1.6878033240218177E9, 0.0, 2023-06-26 13:15:24.021
103.0, 48511.55561346479, 54345.31621281102, 76616.10264970096, 1129.813626982406, -1695.759796590781, -4933.052353030724, 25136.704759204957, 18118.34640721636, 0.0, 0.0, 0.0, 196.0, 0.0, 0.0, 0.0, 14.0, 166.0, 180.0, 0.0, 0.0, 0.0, 1.6878033240258465E9, 0.0, 2023-06-26 13:15:24.025
104.0, 48573.447593861536, 54396.56876284704, 73457.6893994438, 1225.2555758065673, -1621.529653254706, -4830.994287847792, 25211.046661263306, 18215.487088619124, 0.0, 0.0, 0.0, 196.0, 0.0, 0.0, 0.0, 14.0, 166.0, 184.0, 0.0, 0.0, 0.0, 1.6878033240298784E9, 0.0, 2023-06-26 13:15:24.029
105.0, 48558.89660822113, 54397.41812913634, 73249.6393620538, 1203.2167557736345, -1609.8173391601254, -4860.34212831761, 25223.787155602833, 18208.02160597105, 0.0, 0.0, 0.0, 196.0, 0.0, 0.0, 0.0, 14.0, 166.0, 188.0, 0.0, 0.0, 0.0, 1.687803324032905E9, 0.0, 2023-06-26 13:15:24.032
106.0, 48515.22129955546, 54365.25396886516, 75752.0289125477, 1134.6639555292077, -1669.0718137111444, -4942.507140935319, 25159.92822169402, 18127.622381165314, 0.0, 0.0, 0.0, 196.0, 0.0, 0.0, 0.0, 14.0, 166.0, 192.0, 0.0, 0.0, 0.0, 1.6878033240369153E9, 0.0, 2023-06-26 13:15:24.036
107.0, 48494.9482673345, 54332.910994638325, 76936.80547914571, 1114.0332953969594, -1732.6178231975823, -4950.2184927724, 25121.080889830697, 18101.314377941417, 0.0, 0.0, 0.0, 196.0, 4.0, 32.0, 0.0, 14.0, 166.0, 196.0, 0.0, 0.0, 0.0, 1.6878033240409098E9, 0.0, 2023-06-26 13:15:24.040
108.0, 48570.787736271355, 54393.84185002349, 73917.15185846708, 1215.4431599906875, -1648.4858570678066, -4845.634680466018, 25191.243015675907, 18198.96914946665, 0.0, 0.0, 0.0, 196.0, 30.0, 112.0, 0.0, 14.0, 166.0, 200.0, 0.0, 0.0, 0.0, 1.687803324044941E9, 0.0, 2023-06-26 13:15:24.044
109.0, 48561.131782666664, 54400.301504171075, 72980.99374544546, 1222.8415874053942, -1605.279935035698, -4840.113799585557, 25232.414928962582, 18223.623123600857, 0.0, 0.0, 0.0, 196.0, 4.0, 64.0, 0.0, 14.0, 166.0, 204.0, 0.0, 0.0, 0.0, 1.6878033240499644E9, 0.0, 2023-06-26 13:15:24.049
110.0, 48518.66346820158, 54370.01489043413, 75235.77067086348, 1145.9292347346825, -1664.668520053449, -4926.078608760668, 25170.36648635465, 18138.97706734861, 0.0, 0.0, 0.0, 196.0, 0.0, 0.0, 0.0, 14.0, 166.0, 208.0, 0.0, 0.0, 0.0, 1.6878033240539677E9, 0.0, 2023-06-26 13:15:24.053
111.0, 48497.40695922458, 54341.76228544263, 77042.50687867486, 1126.8408449698502, -1704.6557908839932, -4940.987222312358, 25139.521079006325, 18118.547572916457, 0.0, 0.0, 0.0, 196.0, 0.0, 0.0, 0.0, 14.0, 166.0, 212.0, 0.0, 0.0, 0.0, 1.6878033240580041E9, 0.0, 2023-06-26 13:15:24.058
112.0, 48552.50400930691, 54381.14605917288, 74465.52955693359, 1204.2896395074893, -1664.6461683089935, -4858.799857950194, 25179.97773647043, 18188.240312128106, 0.0, 0.0, 0.0, 196.0, 0.0, 0.0, 0.0, 14.0, 166.0, 216.0, 0.0, 0.0, 0.0, 1.687803324062017E9, 0.0, 2023-06-26 13:15:24.062
113.0, 48561.355300111216, 54398.91569601485, 72835.08155764121, 1240.1865411027125, -1605.79402515817, -4821.6512586654735, 25246.787100647343, 18246.019571545075, 0.0, 0.0, 0.0, 196.0, 0.0, 0.0, 0.0, 14.0, 166.0, 220.0, 0.0, 0.0, 0.0, 1.6878033240650342E9, 0.0, 2023-06-26 13:15:24.065
114.0, 48529.54876775131, 54381.48133533971, 74760.77374944375, 1170.0467670019589, -1645.7812959887144, -4902.2069456824, 25194.75223955539, 18164.54746300548, 0.0, 0.0, 0.0, 196.0, 0.0, 0.0, 0.0, 14.0, 166.0, 224.0, 0.0, 0.0, 0.0, 1.687803324069068E9, 0.0, 2023-06-26 13:15:24.069
115.0, 48481.648979383586, 54334.56502372802, 77026.74889883386, 1122.973993179082, -1706.8015583517026, -4950.643175917051, 25146.248954087372, 18117.54174441597, 0.0, 0.0, 0.0, 196.0, 0.0, 0.0, 0.0, 14.0, 166.0, 228.0, 0.0, 0.0, 0.0, 1.6878033240730844E9, 0.0, 2023-06-26 13:15:24.073
116.0, 48524.67608746005, 54360.403640318356, 75090.23846271497, 1180.3062177069448, -1695.8715553130576, -4894.137965934035, 25160.8893467056, 18154.086846600396, 0.0, 0.0, 0.0, 196.0, 0.0, 0.0, 0.0, 14.0, 166.0, 232.0, 0.0, 0.0, 0.0, 1.6878033240770872E9, 0.0, 2023-06-26 13:15:24.077
117.0, 48564.70806177951, 54402.268457683145, 72794.8260658772, 1258.649082022796, -1601.2566210337427, -4809.402502703965, 25252.307981527803, 18259.452969962713, 0.0, 0.0, 0.0, 196.0, 4.0, 96.0, 0.0, 14.0, 166.0, 236.0, 0.0, 0.0, 0.0, 1.6878033240811863E9, 0.0, 2023-06-26 13:15:24.081
118.0, 48534.86848293168, 54386.21990516423, 74310.87783704733, 1193.8960783357713, -1630.3585923145524, -4886.896000730515, 25217.08163226624, 18189.402602839782, 0.0, 0.0, 0.0, 196.0, 30.0, 144.0, 0.0, 14.0, 166.0, 240.0, 0.0, 0.0, 0.0, 1.6878033240862029E9, 0.0, 2023-06-26 13:15:24.086
119.0, 48481.26899972785, 54332.978049871694, 76865.05637944417, 1126.1255891472804, -1691.691779099915, -4948.273891004788, 25163.8397769737, 18124.694302641667, 0.0, 0.0, 0.0, 196.0, 4.0, 64.0, 0.0, 14.0, 166.0, 244.0, 0.0, 0.0, 0.0, 1.6878033240891745E9, 0.0, 2023-06-26 13:15:24.089
120.0, 48515.44481700001, 54349.361878557436, 75706.31959513659, 1160.4802203750874, -1693.5916773786162, -4909.918297519481, 25165.56086129676, 18149.63884945379, 0.0, 0.0, 0.0, 196.0, 0.0, 0.0, 0.0, 14.0, 166.0, 248.0, 0.0, 0.0, 0.0, 1.6878033240931778E9, 0.0, 2023-06-26 13:15:24.093
121.0, 48561.84703848923, 54395.45117562428, 72912.57505566777, 1246.2438638501005, -1606.4645774918292, -4820.466616209343, 25247.927039614566, 18238.66584761928, 0.0, 0.0, 0.0, 196.0, 0.0, 0.0, 0.0, 14.0, 166.0, 252.0, 0.0, 0.0, 0.0, 1.6878033240971797E9, 0.0, 2023-06-26 13:15:24.097
122.0, 48535.94136666553, 54383.42593710732, 73859.4843577724, 1188.3081422219448, -1626.5140922682397, -4894.227372911856, 25221.28376022384, 18165.150960105773, 0.0, 0.0, 0.0, 196.0, 0.0, 0.0, 0.0, 14.0, 167.0, 0.0, 0.0, 0.0, 0.0, 1.687803324101221E9, 0.0, 2023-06-26 13:15:24.101
123.0, 48484.04061604031, 54336.71079119573, 76533.62471266088, 1121.007039667015, -1700.9901047933229, -4963.920112123503, 25162.610431028657, 18111.19384899066, 0.0, 0.0, 0.0, 196.0, 0.0, 0.0, 0.0, 14.0, 167.0, 4.0, 0.0, 0.0, 0.0, 1.687803324105228E9, 0.0, 2023-06-26 13:15:24.105
124.0, 48511.153282064595, 54344.80212268855, 76245.51072663197, 1140.9224439766938, -1701.9959332938115, -4929.476073917875, 25152.574497768226, 18125.051930552952, 0.0, 0.0, 0.0, 196.0, 0.0, 0.0, 0.0, 14.0, 167.0, 8.0, 0.0, 0.0, 0.0, 1.6878033241092668E9, 0.0, 2023-06-26 13:15:24.109
125.0, 48569.737204281955, 54394.26653316814, 73132.13624145224, 1231.6034712318744, -1612.5889554725834, -4844.070058354147, 25230.649141150614, 18209.31800714946, 0.0, 0.0, 0.0, 196.0, 0.0, 0.0, 0.0, 14.0, 167.0, 12.0, 0.0, 0.0, 0.0, 1.6878033241142888E9, 0.0, 2023-06-26 13:15:24.114
126.0, 48557.10846866471, 54394.53475410161, 73474.22969034073, 1203.3285144959111, -1608.7221036818153, -4880.302236116199, 25231.90083884011, 18196.622216298845, 0.0, 0.0, 0.0, 196.0, 0.0, 0.0, 0.0, 14.0, 167.0, 16.0, 0.0, 0.0, 0.0, 1.6878033241172943E9, 0.0, 2023-06-26 13:15:24.117
127.0, 48499.50802320338, 54345.919709911315, 76124.83365831777, 1127.4890455590541, -1678.884229527024, -4964.411850501519, 25163.906832207067, 18113.764299603023, 0.0, 0.0, 0.0, 196.0, 4.0, 144.0, 0.0, 14.0, 167.0, 20.0, 0.0, 0.0, 0.0, 1.6878033241203144E9, 0.0, 2023-06-26 13:15:24.120
128.0, 48503.397226738605, 54339.08007610799, 76684.32017377856, 1138.2849381309675, -1711.1601485204874, -4950.039678816757, 25141.51038426285, 18107.52816289999, 0.0, 0.0, 0.0, 196.0, 30.0, 80.0, 0.0, 14.0, 167.0, 24.0, 0.0, 0.0, 0.0, 1.6878033241253266E9, 0.0, 2023-06-26 13:15:24.125
129.0, 48571.055957204815, 54393.21600117874, 73498.97307145275, 1239.3818783023214, -1627.6540312354603, -4847.892206656004, 25221.686091624033, 18215.911771763775, 0.0, 0.0, 0.0, 196.0, 4.0, 48.0, 0.0, 14.0, 167.0, 28.0, 0.0, 0.0, 0.0, 1.687803324129347E9, 0.0, 2023-06-26 13:15:24.129
130.0, 48557.39904134262, 54391.494916855685, 73178.56081468593, 1225.9708316291371, -1609.0797315931002, -4867.941721432415, 25245.401292491115, 18217.141117708816, 0.0, 0.0, 0.0, 196.0, 0.0, 0.0, 0.0, 14.0, 167.0, 32.0, 0.0, 0.0, 0.0, 1.6878033241333787E9, 0.0, 2023-06-26 13:15:24.133
131.0, 48512.628497198646, 54357.40850656134, 75707.59364457054, 1149.0808307028808, -1663.081546197122, -4942.730658379872, 25179.709515536968, 18131.466881211625, 0.0, 0.0, 0.0, 196.0, 0.0, 0.0, 0.0, 14.0, 167.0, 36.0, 0.0, 0.0, 0.0, 1.6878033241373956E9, 0.0, 2023-06-26 13:15:24.137
132.0, 48485.60523815218, 54319.008209587126, 77003.68189855598, 1118.9059756882164, -1721.6207649255712, -4956.097001564146, 25134.089605103687, 18093.15599121523, 0.0, 0.0, 0.0, 196.0, 0.0, 0.0, 0.0, 14.0, 167.0, 40.0, 0.0, 0.0, 0.0, 1.6878033241424365E9, 0.0, 2023-06-26 13:15:24.142
133.0, 48547.854846460206, 54368.003233433155, 74036.2196011805, 1213.878537878816, -1658.4100316059628, -4858.285767827722, 25196.965062256466, 18182.831189969922, 0.0, 0.0, 0.0, 196.0, 0.0, 0.0, 0.0, 14.0, 167.0, 44.0, 0.0, 0.0, 0.0, 1.687803324145454E9, 0.0, 2023-06-26 13:15:24.145
134.0, 48549.37476508317, 54381.14605917288, 72940.35827402571, 1232.9222241547375, -1603.2682780347202, -4849.278014812233, 25246.94356285853, 18222.818460800467, 0.0, 0.0, 0.0, 196.0, 0.0, 0.0, 0.0, 14.0, 167.0, 48.0, 0.0, 0.0, 0.0, 1.6878033241484554E9, 0.0, 2023-06-26 13:15:24.148
135.0, 48516.517700733864, 54360.98478567419, 75166.65907700767, 1165.2411419440677, -1644.1943221323875, -4927.68793436145, 25195.8474750337, 18144.341486017882, 0.0, 0.0, 0.0, 196.0, 0.0, 0.0, 0.0, 14.0, 167.0, 52.0, 0.0, 0.0, 0.0, 1.6878033241524749E9, 0.0, 2023-06-26 13:15:24.152
136.0, 48477.64801712609, 54317.08595956397, 77101.38137357014, 1126.2149961251016, -1699.1125582590769, -4954.890007363559, 25157.022494914832, 18109.91979955671, 0.0, 0.0, 0.0, 196.0, 0.0, 0.0, 0.0, 14.0, 167.0, 56.0, 0.0, 0.0, 0.0, 1.6878033241575072E9, 0.0, 2023-06-26 13:15:24.157
137.0, 48536.723677721464, 54359.57662577351, 74590.4534566943, 1206.2342412751009, -1660.1981711623873, -4864.4995527862975, 25201.614225103167, 18184.328756848427, 0.0, 0.0, 0.0, 196.0, 4.0, 64.0, 0.0, 14.0, 167.0, 60.0, 0.0, 0.0, 0.0, 1.687803324161506E9, 0.0, 2023-06-26 13:15:24.161
138.0, 48546.737259237445, 54378.46384983824, 72791.71917339793, 1249.0154801625586, -1601.4801384782957, -4828.513244213253, 25267.417760779594, 18243.42676918826, 0.0, 0.0, 0.0, 196.0, 30.0, 64.0, 0.0, 14.0, 167.0, 64.0, 0.0, 0.0, 0.0, 1.6878033241665425E9, 0.0, 2023-06-26 13:15:24.166
139.0, 48508.560479707776, 54351.82057044752, 74699.6864318474, 1171.7454995805622, -1638.472275551829, -4919.194271468434, 25218.75801310039, 18160.568852492437, 0.0, 0.0, 0.0, 196.0, 4.0, 112.0, 0.0, 14.0, 167.0, 68.0, 0.0, 0.0, 0.0, 1.6878033241695676E9, 0.0, 2023-06-26 13:15:24.169
140.0, 48461.55476111827, 54297.55053491003, 77070.4912627329, 1117.6766297431743, -1692.9658285338676, -4965.618844702107, 25170.634707288114, 18117.117061271318, 0.0, 0.0, 0.0, 196.0, 0.0, 0.0, 0.0, 14.0, 167.0, 72.0, 0.0, 0.0, 0.0, 1.68780332417357E9, 0.0, 2023-06-26 13:15:24.173
141.0, 48510.32626751975, 54329.915860881316, 75233.04375803993, 1177.4675461611207, -1681.2088109503761, -4892.841564755627, 25187.264405162863, 18161.507625759557, 0.0, 0.0, 0.0, 196.0, 0.0, 0.0, 0.0, 14.0, 167.0, 76.0, 0.0, 0.0, 0.0, 1.6878033241775987E9, 0.0, 2023-06-26 13:15:24.177
142.0, 48545.5079132924, 54368.852599722464, 72788.70168789646, 1250.267177852056, -1602.083635578589, -4819.729008642317, 25271.463426526003, 18248.098283779418, 0.0, 0.0, 0.0, 196.0, 0.0, 0.0, 0.0, 14.0, 167.0, 80.0, 0.0, 0.0, 0.0, 1.6878033241816096E9, 0.0, 2023-06-26 13:15:24.181
143.0, 48513.47786348795, 54354.36866931542, 74209.4679724536, 1185.491822420576, -1631.1632551149435, -4905.515003861786, 25234.247772007915, 18173.823436954433, 0.0, 0.0, 0.0, 196.0, 0.0, 0.0, 0.0, 14.0, 167.0, 84.0, 0.0, 0.0, 0.0, 1.6878033241856809E9, 0.0, 2023-06-26 13:15:24.185
144.0, 48465.06398499775, 54307.16178502581, 76865.36930386655, 1119.0177344104927, -1695.2010029793983, -4969.418641259509, 25175.619146301648, 18106.25411346604, 0.0, 0.0, 0.0, 196.0, 0.0, 0.0, 0.0, 14.0, 167.0, 88.0, 0.0, 0.0, 0.0, 1.6878033241886668E9, 0.0, 2023-06-26 13:15:24.188
145.0, 48509.543956463815, 54332.59807021595, 75853.05879748569, 1169.3762146682996, -1690.2612674547754, -4907.593716096129, 25183.755181283377, 18141.480462727603, 0.0, 0.0, 0.0, 196.0, 0.0, 0.0, 0.0, 14.0, 167.0, 92.0, 0.0, 0.0, 0.0, 1.6878033241926854E9, 0.0, 2023-06-26 13:15:24.192
146.0, 48560.52828556637, 54379.80495450556, 72930.63526518765, 1257.6879570112178, -1602.821243145614, -4810.229517248812, 25275.307926572317, 18250.04288554703, 0.0, 0.0, 0.0, 196.0, 0.0, 0.0, 0.0, 14.0, 167.0, 96.0, 0.0, 0.0, 0.0, 1.6878033241967013E9, 0.0, 2023-06-26 13:15:24.196
147.0, 48539.42823880056, 54374.172314902826, 73794.73135408538, 1204.6249156743188, -1622.7589991997481, -4890.092300187624, 25249.938696615543, 18183.5911492814, 0.0, 0.0, 0.0, 196.0, 3.0, 240.0, 0.0, 14.0, 167.0, 100.0, 0.0, 0.0, 0.0, 1.6878033242017202E9, 0.0, 2023-06-26 13:15:24.201
148.0, 48477.71507235945, 54318.62822993138, 76544.68882616625, 1126.527920547476, -1684.7850900632252, -4976.41473727402, 25184.738658039412, 18106.34352044386, 0.0, 0.0, 0.0, 196.0, 30.0, 16.0, 0.0, 14.0, 167.0, 104.0, 0.0, 0.0, 0.0, 1.6878033242057304E9, 0.0, 2023-06-26 13:15:24.205
149.0, 48491.34963647719, 54317.108311308424, 76404.05165005346, 1144.2081504116238, -1704.566383906172, -4939.8696350895925, 25172.22168114444, 18122.10150028485, 0.0, 0.0, 0.0, 196.0, 4.0, 128.0, 0.0, 14.0, 167.0, 108.0, 0.0, 0.0, 0.0, 1.6878033242097661E9, 0.0, 2023-06-26 13:15:24.209
150.0, 48548.77126798288, 54367.243274121676, 73229.74630948858, 1240.365355058355, -1619.9650311428347, -4839.130322829524, 25252.10681582771, 18220.94091426622, 0.0, 0.0, 0.0, 196.0, 0.0, 0.0, 0.0, 14.0, 167.0, 112.0, 0.0, 0.0, 0.0, 1.687803324212777E9, 0.0, 2023-06-26 13:15:24.212
151.0, 48537.48363703294, 54372.697099768775, 73441.52908820262, 1215.6443256907853, -1612.1419205834773, -4873.39554707951, 25257.60534496371, 18197.60569305488, 0.0, 0.0, 0.0, 196.0, 0.0, 0.0, 0.0, 14.0, 167.0, 116.0, 0.0, 0.0, 0.0, 1.6878033242168293E9, 0.0, 2023-06-26 13:15:24.216
152.0, 48491.014360310364, 54335.45909350623, 76111.4673151335, 1141.0342026989701, -1668.110688699566, -4955.69467016395, 25198.574387857247, 18119.173421761207, 0.0, 0.0, 0.0, 196.0, 0.0, 0.0, 0.0, 14.0, 167.0, 120.0, 0.0, 0.0, 0.0, 1.6878033242208147E9, 0.0, 2023-06-26 13:15:24.220
153.0, 48492.66838940005, 54323.210337544726, 76813.28973928568, 1141.816513754906, -1704.856956584091, -4950.754934639327, 25174.16628291205, 18108.310473955928, 0.0, 0.0, 0.0, 196.0, 0.0, 0.0, 0.0, 14.0, 167.0, 124.0, 0.0, 0.0, 0.0, 1.6878033242248297E9, 0.0, 2023-06-26 13:15:24.224
154.0, 48555.543846552835, 54370.50662881215, 73610.39651756246, 1232.6316514768187, -1624.7706562007256, -4858.978671905837, 25240.349798244217, 18195.45992558717, 0.0, 0.0, 0.0, 196.0, 0.0, 0.0, 0.0, 14.0, 167.0, 128.0, 0.0, 0.0, 0.0, 1.687803324229849E9, 0.0, 2023-06-26 13:15:24.229
155.0, 48548.57010228278, 54377.01098644865, 73142.82037530189, 1231.3352502984108, -1598.4850047212847, -4857.950491660892, 25268.736513702457, 18219.5998095989, 0.0, 0.0, 0.0, 196.0, 0.0, 0.0, 0.0, 14.0, 167.0, 132.0, 0.0, 0.0, 0.0, 1.6878033242338488E9, 0.0, 2023-06-26 13:15:24.233
156.0, 48502.480805215935, 54346.478503522696, 75643.91352461738, 1159.3402814078668, -1655.0125664487562, -4936.6956873769395, 25207.60449261719, 18131.5786399339, 0.0, 0.0, 0.0, 196.0, 0.0, 0.0, 0.0, 14.0, 167.0, 136.0, 0.0, 0.0, 0.0, 1.687803324237878E9, 0.0, 2023-06-26 13:15:24.237
157.0, 48472.17183973454, 54305.64186640285, 77086.98685014092, 1130.7971037384395, -1709.819043853169, -4950.59847242814, 25165.5385095523, 18115.73125311509, 0.0, 0.0, 0.0, 196.0, 3.0, 192.0, 0.0, 14.0, 167.0, 140.0, 0.0, 0.0, 0.0, 1.687803324240914E9, 0.0, 2023-06-26 13:15:24.240
158.0, 48540.50112253441, 54356.13445712739, 74129.20285811459, 1227.2895845520002, -1652.889150725502, -4843.6006717205855, 25223.831859091744, 18203.394794868804, 0.0, 0.0, 0.0, 196.0, 30.0, 64.0, 0.0, 14.0, 167.0, 144.0, 0.0, 0.0, 0.0, 1.6878033242449095E9, 0.0, 2023-06-26 13:15:24.244
159.0, 48554.53801805234, 54381.0343004506, 72933.7645094114, 1258.939654700715, -1593.0982343075557, -4814.6104591620515, 25284.829769710275, 18253.529757682056, 0.0, 0.0, 0.0, 196.0, 4.0, 160.0, 0.0, 14.0, 167.0, 148.0, 0.0, 0.0, 0.0, 1.6878033242489326E9, 0.0, 2023-06-26 13:15:24.248
160.0, 48512.80731115428, 54354.2792623376, 75141.66982670664, 1179.747424095562, -1639.4557523078624, -4913.315762676688, 25223.854210836198, 18157.104332101862, 0.0, 0.0, 0.0, 196.0, 0.0, 0.0, 0.0, 14.0, 167.0, 152.0, 0.0, 0.0, 0.0, 1.687803324252942E9, 0.0, 2023-06-26 13:15:24.252
161.0, 48472.86474381265, 54309.12873853788, 77158.08774925325, 1139.2907666314563, -1700.3642559485743, -4958.7121556654165, 25178.100189936187, 18113.4737269251, 0.0, 0.0, 0.0, 196.0, 0.0, 0.0, 0.0, 14.0, 167.0, 156.0, 0.0, 0.0, 0.0, 1.6878033242569804E9, 0.0, 2023-06-26 13:15:24.256
162.0, 48534.19793059801, 54351.84292219197, 74721.12175478003, 1215.5102152240534, -1665.696700298393, -4874.088451157624, 25216.053452021297, 18194.610559297867, 0.0, 0.0, 0.0, 196.0, 0.0, 0.0, 0.0, 14.0, 167.0, 160.0, 0.0, 0.0, 0.0, 1.6878033242619824E9, 0.0, 2023-06-26 13:15:24.261
163.0, 48556.48261981996, 54382.57657081802, 72829.69478722749, 1266.8074687489832, -1592.0253505737007, -4813.068188794636, 25292.541121547358, 18273.735734669655, 0.0, 0.0, 0.0, 196.0, 0.0, 0.0, 0.0, 14.0, 167.0, 164.0, 0.0, 0.0, 0.0, 1.6878033242660153E9, 0.0, 2023-06-26 13:15:24.266
164.0, 48528.67704971755, 54371.355995101454, 74667.99165820976, 1206.5695174419307, -1623.9659934003346, -4890.896962988015, 25251.19039430504, 18193.85059998639, 0.0, 0.0, 0.0, 196.0, 0.0, 0.0, 0.0, 14.0, 167.0, 168.0, 0.0, 0.0, 0.0, 1.6878033242690156E9, 0.0, 2023-06-26 13:15:24.269
165.0, 48483.392415451104, 54323.679724178284, 77099.63793750262, 1154.0205662275037, -1688.0484447537, -4943.602376413629, 25198.619091346158, 18138.97706734861, 0.0, 0.0, 0.0, 196.0, 0.0, 0.0, 0.0, 14.0, 167.0, 172.0, 0.0, 0.0, 0.0, 1.6878033242730565E9, 0.0, 2023-06-26 13:15:24.273
166.0, 48525.95013689401, 54342.58929998748, 75355.6877798662, 1203.4402732181875, -1677.7889940487141, -4889.086471687135, 25209.258521706884, 18173.8904921878, 0.0, 0.0, 0.0, 196.0, 0.0, 0.0, 0.0, 14.0, 167.0, 176.0, 0.0, 0.0, 0.0, 1.6878033242770822E9, 0.0, 2023-06-26 13:15:24.277
167.0, 48561.02002394439, 54380.85548649496, 72844.22342112345, 1271.8366112514273, -1598.0379698321785, -4819.907822597959, 25286.707316244523, 18255.004972816107, 0.0, 0.0, 0.0, 196.0, 3.0, 208.0, 0.0, 14.0, 167.0, 180.0, 0.0, 0.0, 0.0, 1.687803324281114E9, 0.0, 2023-06-26 13:15:24.281
168.0, 48537.95302366651, 54376.78746900409, 74210.38439397626, 1219.7570466705617, -1622.2225573328208, -4893.668579300473, 25254.699618184524, 18183.61350102586, 0.0, 0.0, 0.0, 196.0, 30.0, 64.0, 0.0, 14.0, 167.0, 184.0, 0.0, 0.0, 0.0, 1.687803324285204E9, 0.0, 2023-06-26 13:15:24.285
169.0, 48491.30493298828, 54329.51352948112, 76854.10402466108, 1156.881589517783, -1677.2525521817868, -4959.717984165905, 25202.284777436827, 18122.77205261851, 0.0, 0.0, 0.0, 196.0, 4.0, 208.0, 0.0, 14.0, 167.0, 188.0, 0.0, 0.0, 0.0, 1.687803324289189E9, 0.0, 2023-06-26 13:15:24.289
170.0, 48517.67999144554, 54335.70496269524, 75954.87099347962, 1182.362578196833, -1691.6470756110043, -4923.5528616372185, 25194.32755641074, 18154.533881489504, 0.0, 0.0, 0.0, 196.0, 0.0, 0.0, 0.0, 14.0, 167.0, 192.0, 0.0, 0.0, 0.0, 1.6878033242931855E9, 0.0, 2023-06-26 13:15:24.293
171.0, 48569.62544555968, 54389.550315088076, 72983.09480942426, 1278.1398031878239, -1596.7862721426814, -4816.66681965194, 25287.6684412561, 18261.95636534171, 0.0, 0.0, 0.0, 196.0, 0.0, 0.0, 0.0, 14.0, 167.0, 196.0, 0.0, 0.0, 0.0, 1.6878033242961981E9, 0.0, 2023-06-26 13:15:24.296
172.0, 48547.54192203783, 54383.69415804079, 73767.64103980555, 1233.838645677405, -1608.6103449595387, -4864.231331852833, 25273.542138760346, 18210.27913216104, 0.0, 0.0, 0.0, 196.0, 0.0, 0.0, 0.0, 14.0, 167.0, 200.0, 0.0, 0.0, 0.0, 1.6878033243011992E9, 0.0, 2023-06-26 13:15:24.301
173.0, 48493.741273133906, 54333.08980859397, 76499.24772968862, 1156.7251273065958, -1674.7491568027922, -4946.9104345930145, 25204.31878618226, 18132.562116689936, 0.0, 0.0, 0.0, 196.0, 0.0, 0.0, 0.0, 14.0, 167.0, 204.0, 0.0, 0.0, 0.0, 1.687803324305209E9, 0.0, 2023-06-26 13:15:24.305
174.0, 48509.342790763716, 54329.17825331429, 76464.22254612714, 1170.85142980235, -1703.2476309833087, -4931.778303596771, 25184.582195828225, 18134.126738801806, 0.0, 0.0, 0.0, 196.0, 0.0, 0.0, 0.0, 14.0, 167.0, 208.0, 0.0, 0.0, 0.0, 1.687803324309239E9, 0.0, 2023-06-26 13:15:24.309
175.0, 48570.85479150472, 54382.88949524039, 73253.28269640001, 1270.4060996062876, -1617.1263595970106, -4823.57350868863, 25269.9658596475, 18238.26351621908, 0.0, 0.0, 0.0, 196.0, 0.0, 0.0, 0.0, 14.0, 167.0, 212.0, 0.0, 0.0, 0.0, 1.6878033243132627E9, 0.0, 2023-06-26 13:15:24.313
176.0, 48560.03654718835, 54385.079966197016, 73378.63127930538, 1250.937730185715, -1601.4577867338405, -4848.71922120085, 25285.589729021758, 18227.35586492489, 0.0, 0.0, 0.0, 196.0, 0.0, 0.0, 0.0, 14.0, 167.0, 216.0, 0.0, 0.0, 0.0, 1.6878033243172824E9, 0.0, 2023-06-26 13:15:24.317
177.0, 48504.62657268364, 54337.448398762754, 76039.0476630983, 1166.0681564889142, -1665.629645065027, -4941.411905457009, 25217.908646811087, 18139.334695259895, 0.0, 0.0, 0.0, 196.0, 4.0, 16.0, 0.0, 14.0, 167.0, 220.0, 0.0, 0.0, 0.0, 1.6878033243202913E9, 0.0, 2023-06-26 13:15:24.320
178.0, 48490.79084286581, 54309.82164261599, 76846.10210014608, 1149.2819964029786, -1708.9249740749567, -4946.061068303713, 25183.576367327736, 18121.855631095845, 0.0, 0.0, 0.0, 196.0, 30.0, 80.0, 0.0, 14.0, 167.0, 224.0, 0.0, 0.0, 0.0, 1.687803324324329E9, 0.0, 2023-06-26 13:15:24.324
179.0, 48560.461230333, 54364.650471764864, 73654.34004716159, 1249.842494707405, -1630.5374062701949, -4840.739648430306, 25257.895917641632, 18217.94578050921, 0.0, 0.0, 0.0, 196.0, 4.0, 240.0, 0.0, 14.0, 167.0, 228.0, 0.0, 0.0, 0.0, 1.6878033243283255E9, 0.0, 2023-06-26 13:15:24.328
180.0, 48555.16386689709, 54371.914788712835, 73090.58434850983, 1251.2506546080895, -1594.8863738639802, -4842.416029264454, 25294.99981343744, 18232.94380103872, 0.0, 0.0, 0.0, 196.0, 0.0, 0.0, 0.0, 14.0, 167.0, 232.0, 0.0, 0.0, 0.0, 1.687803324333347E9, 0.0, 2023-06-26 13:15:24.333
181.0, 48504.26894477236, 54335.3249830395, 75556.47350030822, 1172.7736798255062, -1650.4304588354182, -4928.850225073126, 25233.532516185347, 18149.281221542504, 0.0, 0.0, 0.0, 196.0, 0.0, 0.0, 0.0, 14.0, 167.0, 236.0, 0.0, 0.0, 0.0, 1.6878033243373623E9, 0.0, 2023-06-26 13:15:24.337
182.0, 48477.4915549149, 54300.053930289025, 77090.07139087575, 1142.5988248108417, -1702.465319927373, -4947.871559604592, 25197.121524467653, 18126.616552664826, 0.0, 0.0, 0.0, 196.0, 0.0, 0.0, 0.0, 14.0, 167.0, 240.0, 0.0, 0.0, 0.0, 1.6878033243413928E9, 0.0, 2023-06-26 13:15:24.341
183.0, 48547.07253540427, 54355.39684956037, 74195.69929786913, 1236.297337567489, -1643.724935498826, -4849.523884001242, 25254.409045506603, 18218.728091565143, 0.0, 0.0, 0.0, 196.0, 0.0, 0.0, 0.0, 14.0, 167.0, 244.0, 0.0, 0.0, 0.0, 1.6878033243453915E9, 0.0, 2023-06-26 13:15:24.345
184.0, 48557.82372448727, 54376.83217249301, 72900.34865145072, 1272.5742188184522, -1585.4539377038407, -4806.608534647052, 25314.95992123603, 18268.572481700478, 0.0, 0.0, 0.0, 196.0, 0.0, 0.0, 0.0, 14.0, 167.0, 248.0, 0.0, 0.0, 0.0, 1.6878033243483975E9, 0.0, 2023-06-26 13:15:24.348
185.0, 48517.21060481198, 54352.491122781175, 75053.11221517471, 1195.974790570115, -1637.1311708845105, -4891.656922299495, 25255.928964129565, 18182.78648648101, 0.0, 0.0, 0.0, 196.0, 0.0, 0.0, 0.0, 14.0, 167.0, 252.0, 0.0, 0.0, 0.0, 1.68780332435243E9, 0.0, 2023-06-26 13:15:24.352
186.0, 48475.88222931412, 54308.301723993034, 77144.65435083561, 1157.462734873621, -1696.6762181134486, -4931.174806496479, 25207.31391993927, 18141.703980172155, 0.0, 0.0, 0.0, 196.0, 0.0, 0.0, 0.0, 14.0, 168.0, 0.0, 0.0, 0.0, 0.0, 1.6878033243564527E9, 0.0, 2023-06-26 13:15:24.356
187.0, 48531.292203818826, 54344.310384310535, 74793.2508341373, 1222.327497282922, -1668.7141857998595, -4863.7395934748165, 25230.649141150614, 18193.627082541836, 0.0, 0.0, 0.0, 196.0, 4.0, 48.0, 0.0, 14.0, 168.0, 4.0, 0.0, 0.0, 0.0, 1.687803324360496E9, 0.0, 2023-06-26 13:15:24.360
188.0, 48561.53411406685, 54380.028471950114, 72826.83376393722, 1284.3088846574885, -1595.2440017752651, -4807.726121869818, 25301.660633285122, 18261.017592074586, 0.0, 0.0, 0.0, 196.0, 30.0, 112.0, 0.0, 14.0, 168.0, 8.0, 0.0, 0.0, 0.0, 1.687803324365516E9, 0.0, 2023-06-26 13:15:24.365
189.0, 48536.723677721464, 54370.104297411955, 74592.77803811766, 1216.8066164024613, -1633.3313743271083, -4898.92123924747, 25250.51984197138, 18163.049896126973, 0.0, 0.0, 0.0, 196.0, 5.0, 16.0, 0.0, 14.0, 168.0, 12.0, 0.0, 0.0, 0.0, 1.6878033243695247E9, 0.0, 2023-06-26 13:15:24.369
190.0, 48491.81902311075, 54324.43968348976, 77046.66430314354, 1163.005967498537, -1690.1048052435883, -4943.557672924719, 25202.70946058148, 18120.6262851508, 0.0, 0.0, 0.0, 196.0, 0.0, 0.0, 0.0, 14.0, 168.0, 16.0, 0.0, 0.0, 0.0, 1.6878033243735375E9, 0.0, 2023-06-26 13:15:24.373
191.0, 48537.75185796641, 54349.2277680907, 75422.29597834301, 1212.4033227447658, -1678.1019184710883, -4877.128288403545, 25215.964045043474, 18174.337527076903, 0.0, 0.0, 0.0, 196.0, 0.0, 0.0, 0.0, 14.0, 168.0, 20.0, 0.0, 0.0, 0.0, 1.6878033243765688E9, 0.0, 2023-06-26 13:15:24.376
192.0, 48577.76148054141, 54389.125631943425, 72832.71227272895, 1289.6062480933963, -1590.8183563731143, -4803.635752634496, 25300.453639084535, 18270.04769683453, 0.0, 0.0, 0.0, 196.0, 0.0, 0.0, 0.0, 14.0, 168.0, 24.0, 0.0, 0.0, 0.0, 1.6878033243805857E9, 0.0, 2023-06-26 13:15:24.380
193.0, 48550.89468370613, 54374.23937013619, 74119.83747718782, 1225.3449827843885, -1616.634621218994, -4881.777451250249, 25265.875490412178, 18198.61152155537, 0.0, 0.0, 0.0, 196.0, 0.0, 0.0, 0.0, 14.0, 168.0, 28.0, 0.0, 0.0, 0.0, 1.687803324384588E9, 0.0, 2023-06-26 13:15:24.384
194.0, 48495.149433034596, 54320.86340437692, 76792.23439600879, 1149.8631417588165, -1679.308912671675, -4960.5897021996625, 25204.497600137904, 18125.722482886613, 0.0, 0.0, 0.0, 196.0, 0.0, 0.0, 0.0, 14.0, 168.0, 32.0, 0.0, 0.0, 0.0, 1.687803324388619E9, 0.0, 2023-06-26 13:15:24.388
195.0, 48527.04537237232, 54333.35802952743, 76004.60362489267, 1186.8999823212603, -1689.3224941876524, -4912.73461732085, 25198.976719257444, 18148.051875597463, 0.0, 0.0, 0.0, 196.0, 0.0, 0.0, 0.0, 14.0, 168.0, 36.0, 0.0, 0.0, 0.0, 1.6878033243926427E9, 0.0, 2023-06-26 13:15:24.392
196.0, 48586.83628879026, 54385.2364284082, 72999.6798038101, 1282.6325038233406, -1588.9408098388685, -4802.696979367373, 25296.273862871392, 18263.27511826457, 0.0, 0.0, 0.0, 196.0, 0.0, 0.0, 0.0, 14.0, 168.0, 40.0, 0.0, 0.0, 0.0, 1.6878033243976429E9, 0.0, 2023-06-26 13:15:24.397
197.0, 48568.753727525924, 54382.53186732911, 73718.10957409258, 1239.1807126022236, -1594.3275802525975, -4862.018509151758, 25283.51101678741, 18224.405434656794, 0.0, 0.0, 0.0, 196.0, 4.0, 48.0, 0.0, 14.0, 168.0, 44.0, 0.0, 0.0, 0.0, 1.6878033244016728E9, 0.0, 2023-06-26 13:15:24.401
198.0, 48518.81993041276, 54336.263756306624, 76413.14881004677, 1169.0185867570146, -1648.3293948566193, -4932.672373374984, 25225.19531550352, 18150.35410527636, 0.0, 0.0, 0.0, 196.0, 30.0, 80.0, 0.0, 14.0, 168.0, 48.0, 0.0, 0.0, 0.0, 1.6878033244046965E9, 0.0, 2023-06-26 13:15:24.404
199.0, 48519.89281414662, 54316.28129676358, 76494.12918020836, 1163.877685532294, -1684.1145377295659, -4928.02321052828, 25196.674489578545, 18135.467843469127, 0.0, 0.0, 0.0, 196.0, 5.0, 64.0, 0.0, 14.0, 168.0, 52.0, 0.0, 0.0, 0.0, 1.6878033244087043E9, 0.0, 2023-06-26 13:15:24.408
200.0, 48582.65651257712, 54369.85842822295, 73279.85892055738, 1262.2700646245557, -1597.9709145988124, -4823.7076191553615, 25278.280708584873, 18241.28100172055, 0.0, 0.0, 0.0, 196.0, 0.0, 0.0, 0.0, 14.0, 168.0, 56.0, 0.0, 0.0, 0.0, 1.6878033244127398E9, 0.0, 2023-06-26 13:15:24.412
201.0, 48561.44470708904, 54365.65630026535, 73361.12986339687, 1237.1914073457012, -1590.594838928561, -4849.032145623225, 25285.52267378839, 18232.22854521615, 0.0, 0.0, 0.0, 196.0, 0.0, 0.0, 0.0, 14.0, 168.0, 60.0, 0.0, 0.0, 0.0, 1.6878033244167345E9, 0.0, 2023-06-26 13:15:24.416
202.0, 48513.14258732112, 54323.74677941165, 75980.46374088094, 1163.94474076566, -1645.8930547109908, -4923.8434343151375, 25224.971798058963, 18156.50083500157, 0.0, 0.0, 0.0, 196.0, 0.0, 0.0, 0.0, 14.0, 168.0, 64.0, 0.0, 0.0, 0.0, 1.6878033244207609E9, 0.0, 2023-06-26 13:15:24.420
203.0, 48506.61587794017, 54301.57384891198, 76887.20695819939, 1151.9865574820708, -1676.8725725260465, -4926.123312249579, 25193.925225010542, 18141.145186560774, 0.0, 0.0, 0.0, 196.0, 0.0, 0.0, 0.0, 14.0, 168.0, 68.0, 0.0, 0.0, 0.0, 1.687803324424783E9, 0.0, 2023-06-26 13:15:24.424
204.0, 48569.245465903936, 54349.674802979804, 73734.78397545624, 1242.9805091596259, -1604.3635135130303, -4822.612383677052, 25261.628658965667, 18233.033208016543, 0.0, 0.0, 0.0, 196.0, 0.0, 0.0, 0.0, 14.0, 168.0, 72.0, 0.0, 0.0, 0.0, 1.68780332442984E9, 0.0, 2023-06-26 13:15:24.429
205.0, 48558.91895996559, 54353.58635825948, 73103.7048225051, 1244.7239452271397, -1570.8135450856144, -4826.233366278811, 25298.240816383463, 18254.51323443809, 0.0, 0.0, 0.0, 196.0, 0.0, 0.0, 0.0, 14.0, 168.0, 76.0, 0.0, 0.0, 0.0, 1.6878033244328344E9, 0.0, 2023-06-26 13:15:24.432
206.0, 48514.88602338863, 54321.26573577711, 75511.61354918643, 1175.6570548602408, -1621.8425776770805, -4900.35175089261, 25240.841536622233, 18176.572701522437, 0.0, 0.0, 0.0, 196.0, 0.0, 0.0, 0.0, 14.0, 168.0, 80.0, 0.0, 0.0, 0.0, 1.6878033244368477E9, 0.0, 2023-06-26 13:15:24.436
207.0, 48480.106709016174, 54274.79645905453, 77108.35511784018, 1140.4083538542216, -1675.7326335588257, -4926.480940160864, 25200.45193439149, 18143.045084839476, 0.0, 0.0, 0.0, 196.0, 3.0, 240.0, 0.0, 14.0, 168.0, 84.0, 0.0, 0.0, 0.0, 1.6878033244408784E9, 0.0, 2023-06-26 13:15:24.440
208.0, 48548.413640071594, 54325.73608466818, 74277.81960699793, 1225.456741506665, -1619.5850514870945, -4835.039953594202, 25253.112644328197, 18229.926315537254, 0.0, 0.0, 0.0, 196.0, 30.0, 16.0, 0.0, 14.0, 168.0, 88.0, 0.0, 0.0, 0.0, 1.6878033244448912E9, 0.0, 2023-06-26 13:15:24.444
209.0, 48561.26589313339, 54348.445457034766, 72910.45163994451, 1258.4702680671535, -1554.4967716332403, -4811.011828304748, 25318.715014304522, 18283.86107490791, 0.0, 0.0, 0.0, 196.0, 5.0, 96.0, 0.0, 14.0, 168.0, 92.0, 0.0, 0.0, 0.0, 1.6878033244489057E9, 0.0, 2023-06-26 13:15:24.448
210.0, 48521.703305447496, 54323.411503244824, 74986.95105158699, 1183.7260346086068, -1597.859155876536, -4880.7045675163945, 25265.987249134454, 18199.192666911207, 0.0, 0.0, 0.0, 196.0, 0.0, 0.0, 0.0, 14.0, 168.0, 96.0, 0.0, 0.0, 0.0, 1.6878033244529338E9, 0.0, 2023-06-26 13:15:24.452
211.0, 48470.65192111158, 54269.230874685156, 77148.87883053767, 1131.0653246719032, -1665.4061276204739, -4926.905623305514, 25210.55492288529, 18145.816701151933, 0.0, 0.0, 0.0, 196.0, 0.0, 0.0, 0.0, 14.0, 168.0, 100.0, 0.0, 0.0, 0.0, 1.68780332445796E9, 0.0, 2023-06-26 13:15:24.457
212.0, 48528.498235761916, 54307.117081536904, 74883.46247475893, 1200.8251191169165, -1631.3197173261306, -4848.3615932895655, 25238.94163834353, 18202.098393690398, 0.0, 0.0, 0.0, 196.0, 0.0, 0.0, 0.0, 14.0, 168.0, 104.0, 0.0, 0.0, 0.0, 1.687803324460966E9, 0.0, 2023-06-26 13:15:24.460
213.0, 48555.45443957501, 54339.37064878591, 72839.17192687654, 1258.0455849225027, -1550.0934779755448, -4794.583296130097, 25318.67031081561, 18280.57536847298, 0.0, 0.0, 0.0, 196.0, 0.0, 0.0, 0.0, 14.0, 168.0, 108.0, 0.0, 0.0, 0.0, 1.6878033244639847E9, 0.0, 2023-06-26 13:15:24.463
214.0, 48536.880139932655, 54334.85559640594, 74517.81028721455, 1204.1108255518468, -1584.1351847809774, -4878.335282604133, 25278.504226029425, 18207.41810887076, 0.0, 0.0, 0.0, 196.0, 0.0, 0.0, 0.0, 14.0, 168.0, 112.0, 0.0, 0.0, 0.0, 1.6878033244690142E9, 0.0, 2023-06-26 13:15:24.469
215.0, 48483.83945034021, 54282.9101422918, 77003.54778808926, 1145.8621795013166, -1644.6190052770385, -4927.933803550459, 25225.865867837176, 18157.171387335227, 0.0, 0.0, 0.0, 196.0, 0.0, 0.0, 0.0, 14.0, 168.0, 116.0, 0.0, 0.0, 0.0, 1.687803324473026E9, 0.0, 2023-06-26 13:15:24.473
216.0, 48525.5031020049, 54308.3687792264, 75481.4610459162, 1186.587057898886, -1639.9921941747898, -4870.378061578043, 25235.790042375334, 18194.007062197576, 0.0, 0.0, 0.0, 196.0, 0.0, 0.0, 0.0, 14.0, 168.0, 120.0, 0.0, 0.0, 0.0, 1.6878033244770763E9, 0.0, 2023-06-26 13:15:24.477
217.0, 48566.27268389138, 54353.69811698176, 72880.74617156341, 1276.0163874645696, -1559.6600246024161, -4787.877772793505, 25320.950188750052, 18283.682260952268, 0.0, 0.0, 0.0, 196.0, 3.0, 144.0, 0.0, 14.0, 168.0, 124.0, 0.0, 0.0, 0.0, 1.687803324481092E9, 0.0, 2023-06-26 13:15:24.481
218.0, 48538.53416902234, 54342.29872730956, 74090.31082276236, 1209.2070232876567, -1582.12352778, -4875.809535480683, 25277.63250799567, 18211.910809506277, 0.0, 0.0, 0.0, 196.0, 30.0, 16.0, 0.0, 14.0, 168.0, 128.0, 0.0, 0.0, 0.0, 1.6878033244861035E9, 0.0, 2023-06-26 13:15:24.486
219.0, 48494.07654930074, 54303.38434021287, 76727.74961325522, 1157.5521418514422, -1629.4645225363402, -4935.131065265067, 25228.101042282706, 18157.238442568596, 0.0, 0.0, 0.0, 196.0, 5.0, 96.0, 0.0, 14.0, 168.0, 132.0, 0.0, 0.0, 0.0, 1.6878033244892087E9, 0.0, 2023-06-26 13:15:24.489
220.0, 48517.568232723264, 54308.01115131511, 76066.09327388922, 1193.002008557559, -1648.6423192789937, -4896.484899101842, 25217.7521845999, 18176.97503292263, 0.0, 0.0, 0.0, 196.0, 0.0, 0.0, 0.0, 14.0, 168.0, 136.0, 0.0, 0.0, 0.0, 1.6878033244921908E9, 0.0, 2023-06-26 13:15:24.492
221.0, 48568.753727525924, 54352.26760533662, 73071.71947618955, 1283.5042218570975, -1561.5152193922067, -4811.414159704943, 25308.164990921618, 18282.698784196233, 0.0, 0.0, 0.0, 196.0, 0.0, 0.0, 0.0, 14.0, 168.0, 140.0, 0.0, 0.0, 0.0, 1.6878033244971867E9, 0.0, 2023-06-26 13:15:24.497
222.0, 48542.57983476875, 54345.09269536647, 73717.52842873674, 1236.8561311788717, -1580.7377196237708, -4856.028241637736, 25290.395354079646, 18234.12844349485, 0.0, 0.0, 0.0, 196.0, 0.0, 0.0, 0.0, 14.0, 168.0, 144.0, 0.0, 0.0, 0.0, 1.6878033245011811E9, 0.0, 2023-06-26 13:15:24.501
223.0, 48499.88800285912, 54311.945058339246, 76380.47055965311, 1171.142002480269, -1628.4586940358513, -4916.6238208560735, 25235.968856330976, 18160.568852492437, 0.0, 0.0, 0.0, 196.0, 0.0, 0.0, 0.0, 14.0, 168.0, 148.0, 0.0, 0.0, 0.0, 1.6878033245051856E9, 0.0, 2023-06-26 13:15:24.505
224.0, 48506.057084328786, 54297.57288665449, 76574.75192245864, 1180.909714807238, -1654.3196623706417, -4907.236088184844, 25216.56754214377, 18164.70392521667, 0.0, 0.0, 0.0, 196.0, 0.0, 0.0, 0.0, 14.0, 168.0, 152.0, 0.0, 0.0, 0.0, 1.687803324509198E9, 0.0, 2023-06-26 13:15:24.509
225.0, 48562.31642512279, 54344.62330873291, 73384.2192154192, 1274.1388409303238, -1570.7688415967039, -4814.118720784035, 25300.20776989553, 18271.925243368776, 0.0, 0.0, 0.0, 196.0, 0.0, 0.0, 0.0, 14.0, 168.0, 156.0, 0.0, 0.0, 0.0, 1.6878033245122125E9, 0.0, 2023-06-26 13:15:24.512
226.0, 48557.711965765, 54355.37449781591, 73399.64191909337, 1262.1583059022792, -1551.635748342961, -4834.034125093714, 25322.20188643955, 18270.51708346809, 0.0, 0.0, 0.0, 196.0, 0.0, 0.0, 0.0, 14.0, 168.0, 160.0, 0.0, 0.0, 0.0, 1.687803324516246E9, 0.0, 2023-06-26 13:15:24.516
227.0, 48510.527433219846, 54318.60587818693, 75953.35107485665, 1183.7036828641515, -1617.0146008747342, -4915.238012699844, 25258.208842064007, 18191.54837030749, 0.0, 0.0, 0.0, 196.0, 3.0, 112.0, 0.0, 14.0, 168.0, 164.0, 0.0, 0.0, 0.0, 1.6878033245202696E9, 0.0, 2023-06-26 13:15:24.520
228.0, 48495.55176443479, 54292.74490985214, 76968.99199116135, 1165.7328803220846, -1648.1282291565217, -4918.188442967945, 25221.730795112944, 18168.682535729713, 0.0, 0.0, 0.0, 196.0, 30.0, 16.0, 0.0, 14.0, 168.0, 168.0, 0.0, 0.0, 0.0, 1.6878033245242972E9, 0.0, 2023-06-26 13:15:24.524
229.0, 48552.883988962654, 54335.59320397297, 73877.74573299238, 1260.4819250681312, -1588.8066993721366, -4822.634735421507, 25278.23600509596, 18255.89904259432, 0.0, 0.0, 0.0, 196.0, 5.0, 48.0, 0.0, 14.0, 168.0, 171.0, 0.0, 0.0, 0.0, 1.6878033245292957E9, 0.0, 2023-06-26 13:15:24.529
230.0, 48551.475829061965, 54346.344393055966, 73164.99330580156, 1268.327387371944, -1552.440411143352, -4815.236308006801, 25317.351557892747, 18275.412115503805, 0.0, 0.0, 0.0, 196.0, 0.0, 0.0, 0.0, 14.0, 168.0, 175.0, 0.0, 0.0, 0.0, 1.6878033245333152E9, 0.0, 2023-06-26 13:15:24.533
231.0, 48516.2047763115, 54321.84688113295, 75452.94021999124, 1192.487918435087, -1599.6472954329606, -4900.910544503992, 25258.6111734642, 18193.85059998639, 0.0, 0.0, 0.0, 196.0, 0.0, 0.0, 0.0, 14.0, 168.0, 179.0, 0.0, 0.0, 0.0, 1.6878033245373397E9, 0.0, 2023-06-26 13:15:24.537
232.0, 48484.13002301813, 54279.82560155697, 77123.44254534753, 1163.2518366875454, -1653.626758292527, -4926.950326794426, 25218.646254378113, 18166.290899072996, 0.0, 0.0, 0.0, 196.0, 0.0, 0.0, 0.0, 14.0, 168.0, 183.0, 0.0, 0.0, 0.0, 1.6878033245403528E9, 0.0, 2023-06-26 13:15:24.540
233.0, 48548.50304704941, 54329.66999169231, 74366.24310806312, 1252.1223726418464, -1607.7833304146923, -4834.2129390493565, 25264.24381306694, 18240.76691159808, 0.0, 0.0, 0.0, 196.0, 0.0, 0.0, 0.0, 14.0, 168.0, 187.0, 0.0, 0.0, 0.0, 1.687803324544407E9, 0.0, 2023-06-26 13:15:24.544
234.0, 48557.488448320444, 54348.33369831249, 72959.04433239036, 1281.8948962563154, -1559.1012309910336, -4785.3743774145105, 25326.49342137497, 18295.215761091204, 0.0, 0.0, 0.0, 196.0, 0.0, 0.0, 0.0, 14.0, 168.0, 191.0, 0.0, 0.0, 0.0, 1.687803324548404E9, 0.0, 2023-06-26 13:15:24.548
235.0, 48517.45647400099, 54323.053875333535, 74981.92190908456, 1200.199270272168, -1603.98353385729, -4889.153526920501, 25258.074731597273, 18204.93706523622, 0.0, 0.0, 0.0, 196.0, 0.0, 0.0, 0.0, 14.0, 168.0, 195.0, 0.0, 0.0, 0.0, 1.6878033245524333E9, 0.0, 2023-06-26 13:15:24.552
236.0, 48471.233066467415, 54274.63999684334, 77166.15672900161, 1147.1809324241797, -1668.5130200997617, -4939.891986834048, 25195.623957589145, 18153.081018099907, 0.0, 0.0, 0.0, 196.0, 0.0, 0.0, 0.0, 14.0, 168.0, 199.0, 0.0, 0.0, 0.0, 1.687803324556428E9, 0.0, 2023-06-26 13:15:24.556
237.0, 48533.61678524218, 54316.28129676358, 74998.77512440385, 1233.0563346214694, -1635.6336040060048, -4848.518055500753, 25231.051472550807, 18215.50944036358, 0.0, 0.0, 0.0, 196.0, 3.0, 176.0, 0.0, 14.0, 168.0, 203.0, 0.0, 0.0, 0.0, 1.6878033245614593E9, 0.0, 2023-06-26 13:15:24.561
238.0, 48563.6128263012, 54350.90414892485, 72883.74130532042, 1298.6587045977956, -1548.2382831857542, -4779.249999433756, 25318.558552093335, 18302.703595483734, 0.0, 0.0, 0.0, 196.0, 29.0, 224.0, 0.0, 14.0, 168.0, 207.0, 0.0, 0.0, 0.0, 1.6878033245654757E9, 0.0, 2023-06-26 13:15:24.565
239.0, 48527.157131094595, 54331.36872427091, 74478.04653382857, 1224.8308926619163, -1593.5452691966618, -4870.646282511507, 25267.395409035136, 18224.293675934518, 0.0, 0.0, 0.0, 196.0, 5.0, 0.0, 0.0, 14.0, 168.0, 211.0, 0.0, 0.0, 0.0, 1.687803324568499E9, 0.0, 2023-06-26 13:15:24.568
240.0, 48473.06590951275, 54273.47770613166, 76977.91033719902, 1175.008854271037, -1651.9280257139237, -4925.45275991592, 25213.639463620122, 18171.25298634207, 0.0, 0.0, 0.0, 196.0, 0.0, 0.0, 0.0, 14.0, 168.0, 215.0, 0.0, 0.0, 0.0, 1.687803324572502E9, 0.0, 2023-06-26 13:15:24.572
241.0, 48515.333058277734, 54293.86249707491, 75571.53857607109, 1213.7667791565393, -1648.1952843898875, -4876.904770958993, 25219.517972411868, 18201.561951823467, 0.0, 0.0, 0.0, 196.0, 0.0, 0.0, 0.0, 14.0, 168.0, 219.0, 0.0, 0.0, 0.0, 1.6878033245766385E9, 0.0, 2023-06-26 13:15:24.576
242.0, 48549.732392994454, 54330.69817193725, 72916.97834932547, 1285.6276375803516, -1575.5074114212289, -4805.1556712574575, 25301.124191418196, 18292.75706920112, 0.0, 0.0, 0.0, 196.0, 0.0, 0.0, 0.0, 14.0, 168.0, 223.0, 0.0, 0.0, 0.0, 1.6878033245805695E9, 0.0, 2023-06-26 13:15:24.580
243.0, 48523.98318338194, 54318.38236074238, 74053.56455487783, 1233.5033695105756, -1597.0097895872343, -4869.01460516627, 25273.497435271434, 18233.14496673882, 0.0, 0.0, 0.0, 196.0, 0.0, 0.0, 0.0, 14.0, 168.0, 227.0, 0.0, 0.0, 0.0, 1.6878033245845644E9, 0.0, 2023-06-26 13:15:24.584
244.0, 48482.341883461704, 54279.915008534794, 76685.72833367925, 1174.8970955487605, -1651.3245286136305, -4932.78413209726, 25225.307074225795, 18178.517303290046, 0.0, 0.0, 0.0, 196.0, 0.0, 0.0, 0.0, 14.0, 168.0, 231.0, 0.0, 0.0, 0.0, 1.6878033245885832E9, 0.0, 2023-06-26 13:15:24.588
245.0, 48501.45262497099, 54280.3620434239, 76128.61110313072, 1206.3907034862882, -1661.561627574161, -4900.441157870431, 25218.400385189103, 18194.968187209153, 0.0, 0.0, 0.0, 196.0, 0.0, 0.0, 0.0, 14.0, 168.0, 235.0, 0.0, 0.0, 0.0, 1.6878033245936077E9, 0.0, 2023-06-26 13:15:24.593
246.0, 48550.648814517124, 54322.94211661126, 73086.38222055223, 1294.2554109401, -1580.1118707790222, -4811.078883538114, 25298.91136871712, 18289.24784532164, 0.0, 0.0, 0.0, 196.0, 0.0, 0.0, 0.0, 14.0, 168.0, 239.0, 0.0, 0.0, 0.0, 1.6878033245966165E9, 0.0, 2023-06-26 13:15:24.596
247.0, 48529.5040642624, 54318.38236074238, 73652.32839016062, 1252.5247040420418, -1591.533612195684, -4867.181762120934, 25288.38369707867, 18244.589059899936, 0.0, 0.0, 0.0, 196.0, 4.0, 48.0, 0.0, 14.0, 168.0, 243.0, 0.0, 0.0, 0.0, 1.6878033246006637E9, 0.0, 2023-06-26 13:15:24.600
248.0, 48482.56540090626, 54278.953883523216, 76266.27549723095, 1186.5647061544307, -1649.7822582462143, -4946.172827025989, 25226.84934459321, 18171.27533808653, 0.0, 0.0, 0.0, 196.0, 30.0, 32.0, 0.0, 14.0, 168.0, 247.0, 0.0, 0.0, 0.0, 1.6878033246046548E9, 0.0, 2023-06-26 13:15:24.604
249.0, 48490.00853180987, 54268.40386014031, 76567.44290202176, 1190.878592834305, -1677.5207731152504, -4930.5936611406405, 25205.816353060767, 18163.787503694, 0.0, 0.0, 0.0, 196.0, 5.0, 16.0, 0.0, 14.0, 168.0, 251.0, 0.0, 0.0, 0.0, 1.6878033246086848E9, 0.0, 2023-06-26 13:15:24.608
250.0, 48550.447648817026, 54318.717636909205, 73390.05302072204, 1285.3147131579774, -1592.047702318156, -4821.874776110027, 25288.786028478866, 18288.890217410353, 0.0, 0.0, 0.0, 196.0, 0.0, 0.0, 0.0, 14.0, 168.0, 255.0, 0.0, 0.0, 0.0, 1.6878033246127057E9, 0.0, 2023-06-26 13:15:24.612
251.0, 48536.05312538781, 54319.075264820494, 73324.69651993472, 1273.8259165079496, -1578.4131382004189, -4836.895148383993, 25302.957034463532, 18291.639481978356, 0.0, 0.0, 0.0, 196.0, 0.0, 0.0, 0.0, 14.0, 169.0, 3.0, 0.0, 0.0, 0.0, 1.6878033246167324E9, 0.0, 2023-06-26 13:15:24.616
252.0, 48491.84137485521, 54284.7653370816, 75807.23772135231, 1195.2818864920005, -1636.9300051844127, -4918.92605053497, 25236.058263308798, 18190.676652273734, 0.0, 0.0, 0.0, 196.0, 0.0, 0.0, 0.0, 14.0, 169.0, 7.0, 0.0, 0.0, 0.0, 1.6878033246217642E9, 0.0, 2023-06-26 13:15:24.621
253.0, 48477.60331363718, 54258.814961768985, 76878.69094356192, 1175.6794066046962, -1677.4760696263397, -4929.140797751045, 25205.883408294132, 18161.887605415297, 0.0, 0.0, 0.0, 196.0, 0.0, 0.0, 0.0, 14.0, 169.0, 11.0, 0.0, 0.0, 0.0, 1.687803324624779E9, 0.0, 2023-06-26 13:15:24.624
254.0, 48547.4078115711, 54316.32600025249, 73795.80423781923, 1276.351663631399, -1604.6764379354047, -4828.513244213253, 25278.01248765141, 18269.108923567408, 0.0, 0.0, 0.0, 196.0, 0.0, 0.0, 0.0, 14.0, 169.0, 15.0, 0.0, 0.0, 0.0, 1.687803324627787E9, 0.0, 2023-06-26 13:15:24.627
255.0, 48543.54095978034, 54323.99264860066, 73005.42420213511, 1280.9561229891924, -1569.8524200740362, -4835.285822783211, 25314.490534602468, 18309.990264176162, 0.0, 0.0, 0.0, 196.0, 0.0, 0.0, 0.0, 14.0, 169.0, 19.0, 0.0, 0.0, 0.0, 1.6878033246328137E9, 0.0, 2023-06-26 13:15:24.632
0.0, 48505.31947676176, 54296.79057559855, 75271.7122759476, 1211.9339361112043, -1623.1389788554882, -4895.881402001548, 25250.452786738013, 18220.873859032854, 0.0, 0.0, 0.0, 196.0, 0.0, 0.0, 0.0, 14.0, 169.0, 23.0, 0.0, 0.0, 0.0, 1.687803324636821E9, 0.0, 2023-06-26 13:15:24.636
1.0, 48469.15435423307, 54254.2552059001, 77007.99578523586, 1171.2090577136348, -1687.0649679976664, -4922.502329647819, 25204.139972226618, 18174.06930614344, 0.0, 0.0, 0.0, 196.0, 0.0, 0.0, 0.0, 14.0, 169.0, 27.0, 0.0, 0.0, 0.0, 1.6878033246408722E9, 0.0, 2023-06-26 13:15:24.640
2.0, 48535.628442243156, 54303.02671230158, 74329.72035762315, 1253.0611459089691, -1642.1156098980439, -4837.163369317457, 25258.208842064007, 18249.55114716901, 0.0, 0.0, 0.0, 196.0, 0.0, 0.0, 0.0, 14.0, 169.0, 31.0, 0.0, 0.0, 0.0, 1.6878033246448915E9, 0.0, 2023-06-26 13:15:24.644
3.0, 48546.78196272635, 54322.785654400075, 72848.71612175896, 1294.8142045514828, -1552.5745216100838, -4795.5891246305855, 25324.347653907258, 18309.09619439795, 0.0, 0.0, 0.0, 196.0, 0.0, 0.0, 0.0, 14.0, 169.0, 35.0, 0.0, 0.0, 0.0, 1.6878033246488912E9, 0.0, 2023-06-26 13:15:24.648
4.0, 48514.438988499525, 54304.07724429098, 74781.47146480936, 1220.4275990042208, -1596.629809931494, -4878.804669237694, 25272.603365493225, 18230.015722515076, 0.0, 0.0, 0.0, 196.0, 0.0, 0.0, 0.0, 14.0, 169.0, 39.0, 0.0, 0.0, 0.0, 1.6878033246529157E9, 0.0, 2023-06-26 13:15:24.652
5.0, 48470.85308681167, 54258.83731351344, 77018.2775876853, 1176.8193455719168, -1654.6772902819266, -4925.49746340483, 25222.84838233571, 18180.730125991122, 0.0, 0.0, 0.0, 196.0, 0.0, 0.0, 0.0, 14.0, 169.0, 43.0, 0.0, 0.0, 0.0, 1.6878033246559465E9, 0.0, 2023-06-26 13:15:24.655
6.0, 48515.914203633576, 54284.58652312595, 74981.31841198426, 1233.6151282328522, -1639.142827885488, -4859.693927728406, 25239.075748810264, 18222.773757311556, 0.0, 0.0, 0.0, 196.0, 0.0, 0.0, 0.0, 14.0, 169.0, 47.0, 0.0, 0.0, 0.0, 1.68780332465996E9, 0.0, 2023-06-26 13:15:24.659
7.0, 48538.93650042254, 54312.48150020617, 72848.31379035876, 1291.9531812612036, -1562.0293095146787, -4801.065302022136, 25318.826773026798, 18312.85128746644, 0.0, 0.0, 0.0, 196.0, 4.0, 32.0, 0.0, 14.0, 169.0, 51.0, 0.0, 0.0, 0.0, 1.68780332466496E9, 0.0, 2023-06-26 13:15:24.664
8.0, 48521.569194980766, 54310.80511937203, 74401.22358813568, 1234.553901499975, -1592.986475585279, -4871.048613911702, 25280.359420819215, 18247.539490168034, 0.0, 0.0, 0.0, 196.0, 30.0, 112.0, 0.0, 14.0, 169.0, 55.0, 0.0, 0.0, 0.0, 1.6878033246689763E9, 0.0, 2023-06-26 13:15:24.668
9.0, 48472.417708923545, 54260.67015655877, 76923.5508946837, 1179.2556857175452, -1665.2049619203763, -4925.542166893741, 25219.495620667414, 18185.6922132602, 0.0, 0.0, 0.0, 196.0, 5.0, 32.0, 0.0, 14.0, 169.0, 59.0, 0.0, 0.0, 0.0, 1.6878033246730013E9, 0.0, 2023-06-26 13:15:24.673
10.0, 48514.707209432985, 54284.22889521467, 75629.11666978797, 1228.9212618972376, -1652.1738949029323, -4871.920331945459, 25224.301245725306, 18212.693120562213, 0.0, 0.0, 0.0, 196.0, 0.0, 0.0, 0.0, 14.0, 169.0, 63.0, 0.0, 0.0, 0.0, 1.68780332467703E9, 0.0, 2023-06-26 13:15:24.677
11.0, 48552.23578837345, 54322.51743346661, 72938.0113408579, 1306.9288500462592, -1567.3937281839524, -4792.884563551494, 25314.19996192455, 18312.04662466605, 0.0, 0.0, 0.0, 196.0, 0.0, 0.0, 0.0, 14.0, 169.0, 67.0, 0.0, 0.0, 0.0, 1.6878033246810384E9, 0.0, 2023-06-26 13:15:24.681
12.0, 48520.74218043592, 54308.18996527076, 74026.2730748979, 1245.908587683271, -1602.7318361677928, -4871.965035434369, 25283.15338887613, 18245.37137095587, 0.0, 0.0, 0.0, 196.0, 0.0, 0.0, 0.0, 14.0, 169.0, 71.0, 0.0, 0.0, 0.0, 1.6878033246840577E9, 0.0, 2023-06-26 13:15:24.684
13.0, 48481.514868916856, 54276.31637767749, 76641.1366034909, 1196.6229911593189, -1639.4781040523178, -4926.749161094327, 25234.203068519008, 18180.439553313205, 0.0, 0.0, 0.0, 196.0, 0.0, 0.0, 0.0, 14.0, 169.0, 75.0, 0.0, 0.0, 0.0, 1.6878033246880667E9, 0.0, 2023-06-26 13:15:24.688
14.0, 48498.32338074725, 54276.20461895521, 76211.26785412645, 1215.1749390572238, -1658.7006042838818, -4884.124384418057, 25218.221571233462, 18194.521152320045, 0.0, 0.0, 0.0, 196.0, 0.0, 0.0, 0.0, 14.0, 169.0, 79.0, 0.0, 0.0, 0.0, 1.6878033246921024E9, 0.0, 2023-06-26 13:15:24.692
15.0, 48555.32032910828, 54327.97125911371, 73159.04774177643, 1310.035742525547, -1569.0254055291898, -4791.610514117541, 25307.561493821326, 18309.94556068725, 0.0, 0.0, 0.0, 196.0, 0.0, 0.0, 0.0, 14.0, 169.0, 83.0, 0.0, 0.0, 0.0, 1.6878033246971774E9, 0.0, 2023-06-26 13:15:24.697
16.0, 48539.20472135601, 54327.99361085816, 73639.92317198792, 1272.104832184891, -1570.2323997297765, -4857.794029449705, 25301.68298502958, 18268.818350889487, 0.0, 0.0, 0.0, 196.0, 0.0, 0.0, 0.0, 14.0, 169.0, 87.0, 0.0, 0.0, 0.0, 1.687803324701196E9, 0.0, 2023-06-26 13:15:24.701
17.0, 48485.64994164109, 54278.797421312025, 76223.67307229913, 1197.941744082182, -1639.2545866077646, -4929.766646595794, 25231.632617906645, 18182.16063763626, 0.0, 0.0, 0.0, 196.0, 4.0, 80.0, 0.0, 14.0, 169.0, 91.0, 0.0, 0.0, 0.0, 1.6878033247051823E9, 0.0, 2023-06-26 13:15:24.705
18.0, 48495.37295047915, 54273.008319498105, 76636.71095808876, 1206.8377383753943, -1664.9143892424572, -4901.7152073043835, 25215.31584445427, 18200.734937278623, 0.0, 0.0, 0.0, 196.0, 30.0, 112.0, 0.0, 14.0, 169.0, 95.0, 0.0, 0.0, 0.0, 1.687803324709188E9, 0.0, 2023-06-26 13:15:24.709
19.0, 48548.8606749607, 54316.79538688605, 73477.78361770912, 1299.6645330982844, -1592.5170889517176, -4808.039046292191, 25288.67426975659, 18302.547133272546, 0.0, 0.0, 0.0, 196.0, 5.0, 16.0, 0.0, 14.0, 169.0, 99.0, 0.0, 0.0, 0.0, 1.687803324712212E9, 0.0, 2023-06-26 13:15:24.712
20.0, 48536.03077364335, 54318.33765725347, 73342.01912188758, 1289.0251027375582, -1567.4831351617736, -4813.202299261367, 25306.846237998754, 18297.42858379228, 0.0, 0.0, 0.0, 196.0, 0.0, 0.0, 0.0, 14.0, 169.0, 103.0, 0.0, 0.0, 0.0, 1.6878033247162197E9, 0.0, 2023-06-26 13:15:24.716
21.0, 48488.779185864834, 54281.949017280225, 75768.07746506661, 1207.8882703647937, -1622.8707579220245, -4901.357579393099, 25243.255525023407, 18208.155716437785, 0.0, 0.0, 0.0, 196.0, 0.0, 0.0, 0.0, 14.0, 169.0, 107.0, 0.0, 0.0, 0.0, 1.6878033247202375E9, 0.0, 2023-06-26 13:15:24.720
22.0, 48475.21167698046, 54257.98794722414, 76959.22427883439, 1193.292581235478, -1659.1029356840772, -4911.840547542638, 25214.779402587345, 18199.103259933385, 0.0, 0.0, 0.0, 196.0, 0.0, 0.0, 0.0, 14.0, 169.0, 111.0, 0.0, 0.0, 0.0, 1.687803324725264E9, 0.0, 2023-06-26 13:15:24.725
23.0, 48538.64592774462, 54307.72057863719, 73940.88941107862, 1285.4711753691645, -1594.0593593191338, -4831.016639592247, 25271.597536992736, 18277.312013782503, 0.0, 0.0, 0.0, 196.0, 0.0, 0.0, 0.0, 14.0, 169.0, 115.0, 0.0, 0.0, 0.0, 1.6878033247292728E9, 0.0, 2023-06-26 13:15:24.729
24.0, 48526.955965394496, 54308.12291003739, 73126.77182278298, 1287.6392945813293, -1557.9612920238128, -4840.113799585557, 25309.975482222497, 18291.70653721172, 0.0, 0.0, 0.0, 196.0, 0.0, 0.0, 0.0, 14.0, 169.0, 119.0, 0.0, 0.0, 0.0, 1.6878033247333028E9, 0.0, 2023-06-26 13:15:24.733
25.0, 48498.72571214745, 54294.041311030545, 75303.11647690732, 1227.4236950187321, -1603.0894640790777, -4883.118555917568, 25258.6111734642, 18230.41805391527, 0.0, 0.0, 0.0, 196.0, 0.0, 0.0, 0.0, 14.0, 169.0, 123.0, 0.0, 0.0, 0.0, 1.6878033247363212E9, 0.0, 2023-06-26 13:15:24.736
26.0, 48471.61304612316, 54259.19494142472, 77090.25020483139, 1198.0982062933692, -1652.3974123474852, -4897.758948535794, 25224.681225381046, 18202.590132068413, 0.0, 0.0, 0.0, 196.0, 0.0, 0.0, 0.0, 14.0, 169.0, 127.0, 0.0, 0.0, 0.0, 1.6878033247403257E9, 0.0, 2023-06-26 13:15:24.740
27.0, 48524.18434908204, 54292.40963368531, 74501.1358858509, 1266.58395130443, -1619.2944788091754, -4832.402447748476, 25260.57812697627, 18265.97967934366, 0.0, 0.0, 0.0, 196.0, 4.0, 32.0, 0.0, 14.0, 169.0, 131.0, 0.0, 0.0, 0.0, 1.6878033247443564E9, 0.0, 2023-06-26 13:15:24.744
28.0, 48538.131837622146, 54315.49898570764, 72990.8285130058, 1304.358399433899, -1553.2003704548324, -4799.791252588183, 25322.000720739452, 18318.729796258187, 0.0, 0.0, 0.0, 196.0, 30.0, 112.0, 0.0, 14.0, 169.0, 135.0, 0.0, 0.0, 0.0, 1.6878033247483635E9, 0.0, 2023-06-26 13:15:24.748
29.0, 48512.49438673191, 54302.579677412476, 74847.78909060826, 1245.036869649514, -1589.3654929835193, -4881.665692527973, 25269.7646939474, 18237.637667374333, 0.0, 0.0, 0.0, 196.0, 5.0, 32.0, 0.0, 14.0, 169.0, 139.0, 0.0, 0.0, 0.0, 1.6878033247523947E9, 0.0, 2023-06-26 13:15:24.752
30.0, 48463.56641811925, 54251.37183086537, 77074.53692847931, 1192.622028901819, -1649.7152030128484, -4930.727771607372, 25215.09232700972, 18190.050803428985, 0.0, 0.0, 0.0, 196.0, 0.0, 0.0, 0.0, 14.0, 169.0, 143.0, 0.0, 0.0, 0.0, 1.6878033247574008E9, 0.0, 2023-06-26 13:15:24.757
31.0, 48510.19215705302, 54278.104517233915, 75116.14413453867, 1247.361451072866, -1628.793970202681, -4880.436346582931, 25229.620960905668, 18226.841774802422, 0.0, 0.0, 0.0, 196.0, 0.0, 0.0, 0.0, 14.0, 169.0, 147.0, 0.0, 0.0, 0.0, 1.6878033247629187E9, 0.0, 2023-06-26 13:15:24.762
32.0, 48540.858750445695, 54308.61464841541, 72943.97925662747, 1312.7626553490943, -1550.6299198424722, -4811.637677149496, 25312.09889794575, 18311.152554887838, 0.0, 0.0, 0.0, 196.0, 0.0, 0.0, 0.0, 14.0, 169.0, 151.0, 0.0, 0.0, 0.0, 1.6878033247654333E9, 0.0, 2023-06-26 13:15:24.765
33.0, 48512.58379370973, 54294.57775289747, 74424.84938202493, 1246.0203464055476, -1581.7435481242596, -4883.275018128756, 25270.837577681254, 18241.057484275996, 0.0, 0.0, 0.0, 196.0, 0.0, 0.0, 0.0, 14.0, 169.0, 155.0, 0.0, 0.0, 0.0, 1.6878033247694623E9, 0.0, 2023-06-26 13:15:24.769
34.0, 48463.186438463505, 54246.47679882965, 76900.57330138366, 1188.6881218776848, -1639.567511030139, -4933.052353030724, 25218.42273693356, 18185.044012671, 0.0, 0.0, 0.0, 196.0, 0.0, 0.0, 0.0, 14.0, 169.0, 159.0, 0.0, 0.0, 0.0, 1.6878033247724714E9, 0.0, 2023-06-26 13:15:24.772
35.0, 48499.820947625754, 54263.777049038064, 75732.1805634714, 1227.1107705963577, -1644.149618643477, -4887.63360829754, 25220.523800912357, 18212.715472306667, 0.0, 0.0, 0.0, 196.0, 0.0, 0.0, 0.0, 14.0, 169.0, 163.0, 0.0, 0.0, 0.0, 1.687803324776506E9, 0.0, 2023-06-26 13:15:24.776
36.0, 48545.48556154795, 54306.915915836806, 73018.90230404167, 1313.0532280270133, -1558.1401059794553, -4793.823336818617, 25313.194133424062, 18318.103947413438, 0.0, 0.0, 0.0, 196.0, 0.0, 0.0, 0.0, 14.0, 169.0, 167.0, 0.0, 0.0, 0.0, 1.6878033247805228E9, 0.0, 2023-06-26 13:15:24.780
37.0, 48522.262099058884, 54298.17638375478, 74005.84358046575, 1257.48679131112, -1572.7581468532262, -4862.040860896213, 25287.6684412561, 18257.32955423946, 0.0, 0.0, 0.0, 196.0, 3.0, 224.0, 0.0, 14.0, 169.0, 171.0, 0.0, 0.0, 0.0, 1.6878033247845416E9, 0.0, 2023-06-26 13:15:24.784
38.0, 48476.17280199204, 54258.21146466869, 76568.94046890027, 1198.1876132711905, -1633.3313743271083, -4939.042620544747, 25229.866830094677, 18186.295710360493, 0.0, 0.0, 0.0, 196.0, 30.0, 112.0, 0.0, 14.0, 169.0, 175.0, 0.0, 0.0, 0.0, 1.6878033247885573E9, 0.0, 2023-06-26 13:15:24.788
39.0, 48480.08435727172, 54245.247452884614, 76271.9528403226, 1204.6472674187742, -1679.6441888385045, -4938.036792044258, 25207.828010061745, 18184.77579173753, 0.0, 0.0, 0.0, 196.0, 5.0, 80.0, 0.0, 14.0, 169.0, 179.0, 0.0, 0.0, 0.0, 1.6878033247915747E9, 0.0, 2023-06-26 13:15:24.791
40.0, 48535.31551782078, 54295.091843019945, 73255.62962956782, 1298.7034080867063, -1582.928190580391, -4815.817453362639, 25291.848217469244, 18294.209932590715, 0.0, 0.0, 0.0, 196.0, 0.0, 0.0, 0.0, 14.0, 169.0, 183.0, 0.0, 0.0, 0.0, 1.687803324796596E9, 0.0, 2023-06-26 13:15:24.796
41.0, 48521.479788002944, 54295.60593314242, 73697.5906726826, 1271.8366112514273, -1561.0681845031006, -4844.762962432261, 25288.115476145205, 18267.05256307752, 0.0, 0.0, 0.0, 196.0, 0.0, 0.0, 0.0, 14.0, 169.0, 187.0, 0.0, 0.0, 0.0, 1.687803324800626E9, 0.0, 2023-06-26 13:15:24.800
42.0, 48479.9949502939, 54261.25130191461, 76179.41661827762, 1213.006819845059, -1614.3323915400972, -4907.8172335406825, 25235.700635397512, 18202.232504157128, 0.0, 0.0, 0.0, 196.0, 0.0, 0.0, 0.0, 14.0, 169.0, 191.0, 0.0, 0.0, 0.0, 1.687803324804628E9, 0.0, 2023-06-26 13:15:24.804
43.0, 48472.88709555711, 54238.76544699258, 76696.34541229552, 1202.881479606805, -1660.75696477377, -4913.047541743224, 25205.905760038586, 18186.854503971877, 0.0, 0.0, 0.0, 196.0, 0.0, 0.0, 0.0, 14.0, 169.0, 195.0, 0.0, 0.0, 0.0, 1.6878033248086553E9, 0.0, 2023-06-26 13:15:24.808
44.0, 48543.67507024707, 54295.40476744232, 73566.83296761906, 1307.1747192352677, -1572.2664084752093, -4810.698903882373, 25290.663575013114, 18293.785249446064, 0.0, 0.0, 0.0, 196.0, 0.0, 0.0, 0.0, 14.0, 169.0, 199.0, 0.0, 0.0, 0.0, 1.687803324812673E9, 0.0, 2023-06-26 13:15:24.812
45.0, 48527.96179389498, 54294.35423545292, 73396.53502661407, 1288.868640526371, -1553.5356466216622, -4819.416084219943, 25310.57897932279, 18293.852304679433, 0.0, 0.0, 0.0, 196.0, 0.0, 0.0, 0.0, 14.0, 169.0, 203.0, 0.0, 0.0, 0.0, 1.6878033248167028E9, 0.0, 2023-06-26 13:15:24.816
46.0, 48488.35450272018, 54264.91698800528, 75712.37691788399, 1218.393590258788, -1607.7386269257818, -4905.1797276949565, 25247.256487280905, 18211.284960661527, 0.0, 0.0, 0.0, 196.0, 0.0, 0.0, 0.0, 14.0, 169.0, 207.0, 0.0, 0.0, 0.0, 1.6878033248197021E9, 0.0, 2023-06-26 13:15:24.819
47.0, 48468.863781555156, 54237.692563258715, 76961.32534281319, 1208.2235465316232, -1658.3206246281416, -4921.4965011473305, 25211.292530452316, 18189.290844117506, 0.0, 0.0, 0.0, 196.0, 3.0, 160.0, 0.0, 14.0, 169.0, 211.0, 0.0, 0.0, 0.0, 1.687803324823727E9, 0.0, 2023-06-26 13:15:24.823
48.0, 48537.19306435503, 54292.007302285114, 74019.38873760567, 1306.1688907347789, -1596.8309756315919, -4817.694999896884, 25275.28557482786, 18283.72696444118, 0.0, 0.0, 0.0, 196.0, 30.0, 64.0, 0.0, 14.0, 169.0, 215.0, 0.0, 0.0, 0.0, 1.6878033248287387E9, 0.0, 2023-06-26 13:15:24.828
49.0, 48538.22124459997, 54304.546630924546, 73177.26441350751, 1318.484701929653, -1546.8748267739807, -4809.246040492778, 25315.6751770586, 18308.895028697854, 0.0, 0.0, 0.0, 196.0, 5.0, 144.0, 0.0, 14.0, 169.0, 219.0, 0.0, 0.0, 0.0, 1.6878033248327787E9, 0.0, 2023-06-26 13:15:24.832
50.0, 48506.21354653997, 54285.592351626445, 75235.6589121412, 1248.032003406525, -1592.1594610404327, -4898.943590991926, 25254.230231550962, 18223.243143945117, 0.0, 0.0, 0.0, 196.0, 0.0, 0.0, 0.0, 14.0, 169.0, 223.0, 0.0, 0.0, 0.0, 1.6878033248368015E9, 0.0, 2023-06-26 13:15:24.836
51.0, 48471.32247344524, 54245.62743254035, 77061.61762018414, 1206.1895377861904, -1647.792952989692, -4916.422655155976, 25209.638501362624, 18186.139248149306, 0.0, 0.0, 0.0, 196.0, 0.0, 0.0, 0.0, 14.0, 169.0, 227.0, 0.0, 0.0, 0.0, 1.687803324840812E9, 0.0, 2023-06-26 13:15:24.840
52.0, 48532.812122441785, 54288.78865108355, 74543.78301427163, 1279.324445643955, -1604.6540861909493, -4829.250851780278, 25248.41877799258, 18249.99818205812, 0.0, 0.0, 0.0, 196.0, 0.0, 0.0, 0.0, 14.0, 169.0, 231.0, 0.0, 0.0, 0.0, 1.687803324844829E9, 0.0, 2023-06-26 13:15:24.844
53.0, 48540.724639978966, 54303.65256114633, 73041.81284210835, 1318.0823705294574, -1547.2324546852656, -4790.515278639231, 25311.517752589913, 18314.751185745143, 0.0, 0.0, 0.0, 196.0, 0.0, 0.0, 0.0, 14.0, 169.0, 235.0, 0.0, 0.0, 0.0, 1.6878033248478522E9, 0.0, 2023-06-26 13:15:24.847
54.0, 48511.86853788717, 54286.776994082575, 74802.10212494161, 1242.7346399706173, -1595.8474988755584, -4875.429555824942, 25256.42070250758, 18240.789263342533, 0.0, 0.0, 0.0, 196.0, 0.0, 0.0, 0.0, 14.0, 169.0, 239.0, 0.0, 0.0, 0.0, 1.6878033248518755E9, 0.0, 2023-06-26 13:15:24.851
55.0, 48465.35455767567, 54242.00644993859, 77017.20470395144, 1191.8620695903385, -1646.6753657669267, -4925.251594215822, 25212.119544997164, 18196.242236643106, 0.0, 0.0, 0.0, 196.0, 0.0, 0.0, 0.0, 14.0, 169.0, 243.0, 0.0, 0.0, 0.0, 1.6878033248568892E9, 0.0, 2023-06-26 13:15:24.856
56.0, 48509.14162506362, 54268.44856362922, 75185.36748711676, 1249.48486679612, -1636.3935633174854, -4850.015622379258, 25235.208897019496, 18248.388856457335, 0.0, 0.0, 0.0, 196.0, 0.0, 0.0, 0.0, 14.0, 169.0, 247.0, 0.0, 0.0, 0.0, 1.687803324860904E9, 0.0, 2023-06-26 13:15:24.860
57.0, 48538.28829983334, 54299.09280527745, 73044.1374235317, 1314.6402018833403, -1557.4024984124303, -4805.423892190921, 25312.30006364585, 18324.80947075003, 0.0, 0.0, 0.0, 196.0, 3.0, 144.0, 0.0, 14.0, 169.0, 251.0, 0.0, 0.0, 0.0, 1.6878033248649197E9, 0.0, 2023-06-26 13:15:24.864
58.0, 48518.68581994603, 54291.113232506905, 74404.39753584833, 1244.098096382391, -1588.0020365717455, -4887.477146086353, 25267.976554390974, 18243.51617616608, 0.0, 0.0, 0.0, 196.0, 30.0, 0.0, 0.0, 14.0, 169.0, 255.0, 0.0, 0.0, 0.0, 1.6878033248689475E9, 0.0, 2023-06-26 13:15:24.868
59.0, 48471.568342634244, 54244.42043833977, 76802.24797752476, 1198.4334824601988, -1643.2331971208093, -4910.9911812533355, 25219.115641011675, 18190.7437075071, 0.0, 0.0, 0.0, 196.0, 5.0, 112.0, 0.0, 14.0, 170.0, 3.0, 0.0, 0.0, 0.0, 1.6878033248719544E9, 0.0, 2023-06-26 13:15:24.871
60.0, 48503.15135754959, 54255.86453150088, 75739.95897054183, 1237.0796486234246, -1645.1554471439658, -4865.259512097778, 25220.85907707919, 18217.9010770203, 0.0, 0.0, 0.0, 196.0, 0.0, 0.0, 0.0, 14.0, 170.0, 7.0, 0.0, 0.0, 0.0, 1.6878033248759925E9, 0.0, 2023-06-26 13:15:24.875
61.0, 48537.640099244134, 54290.01799702859, 73085.7563717075, 1313.4779111716641, -1556.575483867584, -4793.264543207234, 25307.71795603251, 18308.313883342016, 0.0, 0.0, 0.0, 196.0, 0.0, 0.0, 0.0, 14.0, 170.0, 11.0, 0.0, 0.0, 0.0, 1.6878033248820243E9, 0.0, 2023-06-26 13:15:24.882
62.0, 48516.383590267134, 54285.92762779327, 74025.71428128652, 1263.5888175474188, -1582.637617902472, -4860.431535295432, 25278.548929518336, 18258.268327506583, 0.0, 0.0, 0.0, 196.0, 0.0, 0.0, 0.0, 14.0, 170.0, 15.0, 0.0, 0.0, 0.0, 1.687803324885028E9, 0.0, 2023-06-26 13:15:24.885
63.0, 48466.22627570943, 54240.553586548995, 76481.94747948021, 1202.2109272731457, -1647.591787289594, -4924.4916349043415, 25222.446050935516, 18199.46088784467, 0.0, 0.0, 0.0, 196.0, 0.0, 0.0, 0.0, 14.0, 170.0, 19.0, 0.0, 0.0, 0.0, 1.6878033248880455E9, 0.0, 2023-06-26 13:15:24.888
64.0, 48482.52069741735, 54234.2503946126, 76271.97519206705, 1223.5344914835086, -1661.2263514073315, -4886.225448396855, 25218.579199144748, 18218.616332842867, 0.0, 0.0, 0.0, 196.0, 0.0, 0.0, 0.0, 14.0, 170.0, 23.0, 0.0, 0.0, 0.0, 1.687803324893058E9, 0.0, 2023-06-26 13:15:24.893
65.0, 48531.09103811873, 54275.98110151066, 73296.98035681013, 1305.6548006123069, -1578.7707661117038, -4805.982685802303, 25297.05617392733, 18306.52574378559, 0.0, 0.0, 0.0, 196.0, 0.0, 0.0, 0.0, 14.0, 170.0, 27.0, 0.0, 0.0, 0.0, 1.6878033248970854E9, 0.0, 2023-06-26 13:15:24.897
66.0, 48508.292258774316, 54268.60502584041, 73744.79755697222, 1270.0484716950027, -1587.5550016826394, -4863.225503352345, 25287.109647644716, 18269.555958456513, 0.0, 0.0, 0.0, 196.0, 0.0, 0.0, 0.0, 14.0, 170.0, 31.0, 0.0, 0.0, 0.0, 1.687803324900179E9, 0.0, 2023-06-26 13:15:24.900
67.0, 48477.245685725895, 54245.35921160689, 76101.00669872841, 1214.9290698682155, -1629.598633003072, -4922.2117569699, 25239.70159765501, 18213.497783362604, 0.0, 0.0, 0.0, 196.0, 3.0, 208.0, 0.0, 14.0, 170.0, 35.0, 0.0, 0.0, 0.0, 1.6878033249041743E9, 0.0, 2023-06-26 13:15:24.904
68.0, 48466.24862745388, 54219.36413280536, 76717.40075557241, 1205.7872063859948, -1681.7005493283928, -4913.002838254313, 25210.823143818754, 18199.930274478233, 0.0, 0.0, 0.0, 196.0, 30.0, 16.0, 0.0, 14.0, 170.0, 39.0, 0.0, 0.0, 0.0, 1.687803324908175E9, 0.0, 2023-06-26 13:15:24.908
69.0, 48531.068686374274, 54273.25418868711, 73644.25941041224, 1303.7996058225162, -1596.115719809022, -4806.09444452458, 25286.37204007769, 18290.745412200144, 0.0, 0.0, 0.0, 196.0, 5.0, 96.0, 0.0, 14.0, 170.0, 43.0, 0.0, 0.0, 0.0, 1.6878033249121864E9, 0.0, 2023-06-26 13:15:24.912
70.0, 48518.618764712664, 54276.24932244412, 73483.12568463394, 1286.745224803117, -1567.7513560952373, -4839.085619340613, 25309.729613033487, 18287.884388909864, 0.0, 0.0, 0.0, 196.0, 0.0, 0.0, 0.0, 14.0, 170.0, 47.0, 0.0, 0.0, 0.0, 1.6878033249161775E9, 0.0, 2023-06-26 13:15:24.916
71.0, 48490.79084286581, 54261.4077641258, 75655.71524568979, 1231.8269886764276, -1607.6268682035052, -4901.514041604286, 25260.354609531714, 18226.9535335247, 0.0, 0.0, 0.0, 196.0, 0.0, 0.0, 0.0, 14.0, 170.0, 51.0, 0.0, 0.0, 0.0, 1.6878033249212031E9, 0.0, 2023-06-26 13:15:24.921
72.0, 48459.45369713947, 54223.63331599633, 76948.98717987385, 1205.586040685897, -1674.2350666803202, -4896.596657824119, 25222.870734080167, 18205.98759722562, 0.0, 0.0, 0.0, 196.0, 0.0, 0.0, 0.0, 14.0, 170.0, 55.0, 0.0, 0.0, 0.0, 1.6878033249252331E9, 0.0, 2023-06-26 13:15:24.925
73.0, 48516.6518112006, 54265.0063949831, 74095.67524143163, 1279.3691491328657, -1614.1982810733655, -4826.501587212275, 25268.803568935822, 18270.85235963492, 0.0, 0.0, 0.0, 196.0, 0.0, 0.0, 0.0, 14.0, 170.0, 59.0, 0.0, 0.0, 0.0, 1.6878033249282827E9, 0.0, 2023-06-26 13:15:24.928
74.0, 48518.93168913504, 54279.24445620114, 73295.39338295381, 1299.262201698089, -1564.666815360405, -4810.9671248158365, 25314.088203202275, 18311.19725837675, 0.0, 0.0, 0.0, 196.0, 0.0, 0.0, 0.0, 14.0, 170.0, 63.0, 0.0, 0.0, 0.0, 1.6878033249322662E9, 0.0, 2023-06-26 13:15:24.932
75.0, 48493.383645222624, 54264.64876707182, 75258.52474671898, 1235.5820817449192, -1609.3479525265639, -4898.027169469258, 25253.202051306016, 18224.114861978873, 0.0, 0.0, 0.0, 196.0, 0.0, 0.0, 0.0, 14.0, 170.0, 67.0, 0.0, 0.0, 0.0, 1.6878033249362776E9, 0.0, 2023-06-26 13:15:24.936
76.0, 48460.325415173225, 54224.750903219094, 77067.56318420926, 1193.1137672798357, -1665.1379066870102, -4928.090265761646, 25215.919341554563, 18188.039146428007, 0.0, 0.0, 0.0, 196.0, 0.0, 0.0, 0.0, 14.0, 170.0, 71.0, 0.0, 0.0, 0.0, 1.687803324940304E9, 0.0, 2023-06-26 13:15:24.940
77.0, 48513.47786348795, 54258.61379606889, 74648.85856495603, 1256.6374250218184, -1630.626813248016, -4853.480142769831, 25245.66951342458, 18251.13812102534, 0.0, 0.0, 0.0, 196.0, 4.0, 16.0, 0.0, 14.0, 170.0, 75.0, 0.0, 0.0, 0.0, 1.687803324944657E9, 0.0, 2023-06-26 13:15:24.944
78.0, 48519.959869379985, 54275.13173522136, 73181.06421006491, 1292.78019580605, -1574.3227689650976, -4822.612383677052, 25305.259264142427, 18303.4188513063, 0.0, 0.0, 0.0, 196.0, 30.0, 32.0, 0.0, 14.0, 170.0, 79.0, 0.0, 0.0, 0.0, 1.6878033249483302E9, 0.0, 2023-06-26 13:15:24.948
79.0, 48495.97644757944, 54265.07345021647, 74870.7219804194, 1232.8551689213716, -1615.2264613183095, -4889.242933898322, 25255.32546702927, 18225.813594557476, 0.0, 0.0, 0.0, 196.0, 5.0, 96.0, 0.0, 14.0, 170.0, 83.0, 0.0, 0.0, 0.0, 1.6878033249533696E9, 0.0, 2023-06-26 13:15:24.953
80.0, 48454.44690638148, 54221.17462410625, 77011.57206434871, 1183.9942555420705, -1666.657825309971, -4932.851187330626, 25211.069013007764, 18181.13245739132, 0.0, 0.0, 0.0, 196.0, 0.0, 0.0, 0.0, 14.0, 170.0, 87.0, 0.0, 0.0, 0.0, 1.6878033249563851E9, 0.0, 2023-06-26 13:15:24.956
81.0, 48497.96575283596, 54246.700316274204, 75246.09717680182, 1232.6316514768187, -1658.141810672499, -4881.375119850054, 25225.57529515926, 18223.958399767685, 0.0, 0.0, 0.0, 196.0, 0.0, 0.0, 0.0, 14.0, 170.0, 91.0, 0.0, 0.0, 0.0, 1.6878033249603972E9, 0.0, 2023-06-26 13:15:24.960
82.0, 48522.03858161433, 54276.38343291086, 73145.1673084697, 1302.4361494107425, -1581.6094376575277, -4825.607517434063, 25303.605235052735, 18303.262389095114, 0.0, 0.0, 0.0, 196.0, 0.0, 0.0, 0.0, 14.0, 170.0, 95.0, 0.0, 0.0, 0.0, 1.687803324964414E9, 0.0, 2023-06-26 13:15:24.964
83.0, 48503.46428197197, 54270.773145052575, 74507.08144987602, 1244.165151615757, -1619.249775320265, -4889.600561809607, 25261.986286876952, 18235.46954816217, 0.0, 0.0, 0.0, 196.0, 0.0, 0.0, 0.0, 14.0, 170.0, 99.0, 0.0, 0.0, 0.0, 1.6878033249684417E9, 0.0, 2023-06-26 13:15:24.968
84.0, 48460.4371738955, 54230.137673632824, 76802.89617811397, 1194.3431132248777, -1664.4450026088957, -4940.763704867805, 25215.09232700972, 18183.61350102586, 0.0, 0.0, 0.0, 196.0, 0.0, 0.0, 0.0, 14.0, 170.0, 103.0, 0.0, 0.0, 0.0, 1.6878033249724524E9, 0.0, 2023-06-26 13:15:24.972
85.0, 48487.48278468642, 54241.58176679394, 75835.28916064372, 1227.3119362964555, -1658.0077002057674, -4897.356617135599, 25215.002920031897, 18203.394794868804, 0.0, 0.0, 0.0, 196.0, 0.0, 0.0, 0.0, 14.0, 170.0, 107.0, 0.0, 0.0, 0.0, 1.687803324976475E9, 0.0, 2023-06-26 13:15:24.976
86.0, 48522.686782203535, 54276.87517128887, 73218.25751283855, 1304.1348819893458, -1578.3013794781423, -4811.950601571871, 25297.704374516532, 18299.395537304346, 0.0, 0.0, 0.0, 196.0, 0.0, 0.0, 0.0, 14.0, 170.0, 111.0, 0.0, 0.0, 0.0, 1.6878033249804873E9, 0.0, 2023-06-26 13:15:24.980
87.0, 48502.57021219376, 54274.12590672087, 74176.4097424042, 1261.9571402021816, -1605.5481559691616, -4875.742480247317, 25270.122321858686, 18248.70178087971, 0.0, 0.0, 0.0, 196.0, 4.0, 32.0, 0.0, 14.0, 170.0, 115.0, 0.0, 0.0, 0.0, 1.6878033249835272E9, 0.0, 2023-06-26 13:15:24.983
88.0, 48469.757851333365, 54247.773200008065, 76502.93576752374, 1216.8513198913718, -1649.5810925461165, -4940.40607695652, 25221.90960906859, 18179.791352723998, 0.0, 0.0, 0.0, 196.0, 30.0, 80.0, 0.0, 14.0, 170.0, 119.0, 0.0, 0.0, 0.0, 1.687803324987553E9, 0.0, 2023-06-26 13:15:24.987
89.0, 48482.11836601715, 54243.280499372544, 76369.49585312555, 1229.3906485307991, -1676.246723681298, -4909.717131819383, 25208.6997280955, 18190.83311448492, 0.0, 0.0, 0.0, 196.0, 5.0, 48.0, 0.0, 14.0, 170.0, 123.0, 0.0, 0.0, 0.0, 1.6878033249925494E9, 0.0, 2023-06-26 13:15:24.992
90.0, 48536.18723585454, 54290.39797668433, 73409.05200350904, 1329.124132290379, -1592.2712197627093, -4795.879697308505, 25293.591653536758, 18314.505316556137, 0.0, 0.0, 0.0, 196.0, 0.0, 0.0, 0.0, 14.0, 170.0, 127.0, 0.0, 0.0, 0.0, 1.6878033249965703E9, 0.0, 2023-06-26 13:15:24.996
91.0, 48516.33888677823, 54284.251246959124, 73862.97122990743, 1298.323428430966, -1588.3373127385753, -4837.029258850725, 25293.18932213656, 18284.24105456365, 0.0, 0.0, 0.0, 196.0, 0.0, 0.0, 0.0, 14.0, 170.0, 131.0, 0.0, 0.0, 0.0, 1.6878033250036297E9, 0.0, 2023-06-26 13:15:25.003
92.0, 48474.7422903469, 54249.382525608846, 76127.33705369677, 1233.6374799773073, -1637.153522628966, -4919.64130635754, 25228.816298105277, 18199.66205354477, 0.0, 0.0, 0.0, 196.0, 0.0, 0.0, 0.0, 14.0, 170.0, 135.0, 0.0, 0.0, 0.0, 1.6878033250066211E9, 0.0, 2023-06-26 13:15:25.006
93.0, 48466.87447629863, 54227.38840906482, 76771.51432889872, 1228.3848200303103, -1671.9104852569683, -4913.360466165598, 25208.252693206396, 18200.623178556347, 0.0, 0.0, 0.0, 196.0, 0.0, 0.0, 0.0, 14.0, 170.0, 139.0, 0.0, 0.0, 0.0, 1.687803325009631E9, 0.0, 2023-06-26 13:15:25.009
94.0, 48526.88891016113, 54274.59529335443, 73717.26020780328, 1323.4691409431864, -1594.0593593191338, -4805.088616024091, 25286.707316244523, 18306.212819363216, 0.0, 0.0, 0.0, 196.0, 0.0, 0.0, 0.0, 14.0, 170.0, 143.0, 0.0, 0.0, 0.0, 1.6878033250136473E9, 0.0, 2023-06-26 13:15:25.013
95.0, 48513.522566976855, 54275.243493943635, 73556.30529598061, 1309.9686872921811, -1580.2012777568434, -4802.5181654117305, 25308.455563599535, 18314.929999700787, 0.0, 0.0, 0.0, 196.0, 0.0, 0.0, 0.0, 14.0, 170.0, 147.0, 0.0, 0.0, 0.0, 1.687803325016697E9, 0.0, 2023-06-26 13:15:25.016
96.0, 48481.291351472304, 54250.54481632052, 75673.19430985383, 1239.0242503910365, -1627.117589368533, -4884.72788151835, 25247.010618091896, 18230.03807425953, 0.0, 0.0, 0.0, 196.0, 0.0, 0.0, 0.0, 14.0, 170.0, 151.0, 0.0, 0.0, 0.0, 1.6878033250196905E9, 0.0, 2023-06-26 13:15:25.019
97.0, 48458.3361099167, 54219.83351943893, 76993.51185482882, 1208.9835058431038, -1676.8949242705019, -4908.353675407609, 25215.047623520808, 18198.41035585527, 0.0, 0.0, 0.0, 196.0, 4.0, 48.0, 0.0, 14.0, 170.0, 155.0, 0.0, 0.0, 0.0, 1.687803325024711E9, 0.0, 2023-06-26 13:15:25.024
98.0, 48521.25627055839, 54267.97917699566, 74163.78100678694, 1293.1378237173349, -1615.472330507318, -4824.9369651004035, 25270.636411981155, 18280.932996384265, 0.0, 0.0, 0.0, 196.0, 30.0, 48.0, 0.0, 14.0, 170.0, 159.0, 0.0, 0.0, 0.0, 1.6878033250287356E9, 0.0, 2023-06-26 13:15:25.028
99.0, 48512.06970358726, 54267.308624662, 73327.89281939183, 1298.4351871532426, -1580.0448155456563, -4801.445281677876, 25308.612025810722, 18314.013578178117, 0.0, 0.0, 0.0, 196.0, 5.0, 80.0, 0.0, 14.0, 170.0, 163.0, 0.0, 0.0, 0.0, 1.687803325032747E9, 0.0, 2023-06-26 13:15:25.032
100.0, 48486.186383508015, 54251.39418260982, 75250.18754603715, 1228.1836543302124, -1623.4295515334072, -4876.055404669691, 25248.083501825753, 18224.02545500105, 0.0, 0.0, 0.0, 196.0, 0.0, 0.0, 0.0, 14.0, 170.0, 167.0, 0.0, 0.0, 0.0, 1.6878033250357573E9, 0.0, 2023-06-26 13:15:25.035
101.0, 48463.745232074885, 54222.98511540713, 77063.65162892958, 1201.0262848170144, -1661.5839793186165, -4920.490672646842, 25214.64529212061, 18194.677614531232, 0.0, 0.0, 0.0, 196.0, 0.0, 0.0, 0.0, 14.0, 170.0, 171.0, 0.0, 0.0, 0.0, 1.6878033250397825E9, 0.0, 2023-06-26 13:15:25.039
102.0, 48517.54588097881, 54255.26103440059, 74706.63782437299, 1276.0163874645696, -1630.336240570097, -4837.6774594399285, 25249.983400104455, 18254.28971699354, 0.0, 0.0, 0.0, 196.0, 0.0, 0.0, 0.0, 14.0, 170.0, 175.0, 0.0, 0.0, 0.0, 1.6878033250438154E9, 0.0, 2023-06-26 13:15:25.043
103.0, 48522.01622986987, 54269.2085229407, 73201.60546321934, 1314.0143530385917, -1569.472440418296, -4793.778633329705, 25306.8238862543, 18308.358586830927, 0.0, 0.0, 0.0, 196.0, 0.0, 0.0, 0.0, 14.0, 170.0, 179.0, 0.0, 0.0, 0.0, 1.68780332504785E9, 0.0, 2023-06-26 13:15:25.047
104.0, 48498.7480638919, 54258.90436874681, 74846.33622721866, 1248.0767068954358, -1615.4946822517732, -4875.96599769187, 25255.437225751546, 18231.490937649123, 0.0, 0.0, 0.0, 196.0, 0.0, 0.0, 0.0, 14.0, 170.0, 183.0, 0.0, 0.0, 0.0, 1.6878033250518534E9, 0.0, 2023-06-26 13:15:25.051
105.0, 48459.96778726194, 54218.69358047171, 76975.00461041983, 1201.138043539291, -1665.8755142540354, -4923.441102914942, 25213.684167109033, 18185.02166092654, 0.0, 0.0, 0.0, 196.0, 0.0, 0.0, 0.0, 14.0, 170.0, 187.0, 0.0, 0.0, 0.0, 1.6878033250568616E9, 0.0, 2023-06-26 13:15:25.056
106.0, 48502.771377893856, 54241.71587726067, 75296.09802914834, 1248.3002243399887, -1651.369232102541, -4875.518962802764, 25230.51503068388, 18220.516231121568, 0.0, 0.0, 0.0, 196.0, 0.0, 0.0, 0.0, 14.0, 170.0, 191.0, 0.0, 0.0, 0.0, 1.687803325060891E9, 0.0, 2023-06-26 13:15:25.060
107.0, 48520.74218043592, 54262.74886879312, 73139.22174444459, 1306.5265186460638, -1578.1449172669552, -4818.566717930641, 25308.969653722008, 18298.076784381483, 0.0, 0.0, 0.0, 196.0, 4.0, 96.0, 0.0, 14.0, 170.0, 195.0, 0.0, 0.0, 0.0, 1.687803325063907E9, 0.0, 2023-06-26 13:15:25.063
108.0, 48501.63143892663, 54257.09387744593, 74465.99894356716, 1251.943558686204, -1602.597725701061, -4882.53741056173, 25270.39054279215, 18238.28586796354, 0.0, 0.0, 0.0, 196.0, 30.0, 80.0, 0.0, 14.0, 170.0, 199.0, 0.0, 0.0, 0.0, 1.6878033250679233E9, 0.0, 2023-06-26 13:15:25.067
109.0, 48456.70443257147, 54214.290286814015, 76746.90505825343, 1189.6492468892632, -1653.2244268923316, -4932.605318141618, 25224.234190491938, 18192.88947497481, 0.0, 0.0, 0.0, 196.0, 5.0, 64.0, 0.0, 14.0, 170.0, 203.0, 0.0, 0.0, 0.0, 1.6878033250719423E9, 0.0, 2023-06-26 13:15:25.071
110.0, 48486.90163933059, 54223.990943907615, 75868.50385290431, 1230.262366564556, -1665.920217742946, -4892.886268244537, 25220.99318754592, 18211.441422872715, 0.0, 0.0, 0.0, 196.0, 0.0, 0.0, 0.0, 14.0, 170.0, 207.0, 0.0, 0.0, 0.0, 1.68780332507596E9, 0.0, 2023-06-26 13:15:25.075
111.0, 48523.75966593739, 54257.42915361276, 73215.91057967074, 1319.35641996341, -1582.4141004579187, -4819.751360386773, 25299.023127439395, 18300.803697205032, 0.0, 0.0, 0.0, 196.0, 0.0, 0.0, 0.0, 14.0, 170.0, 211.0, 0.0, 0.0, 0.0, 1.6878033250799785E9, 0.0, 2023-06-26 13:15:25.079
112.0, 48496.87051735765, 54244.82276973996, 74157.83544276183, 1268.6626635387736, -1608.7668071707258, -4880.883381472037, 25271.306964314816, 18245.79605410052, 0.0, 0.0, 0.0, 196.0, 0.0, 0.0, 0.0, 14.0, 170.0, 215.0, 0.0, 0.0, 0.0, 1.6878033250840213E9, 0.0, 2023-06-26 13:15:25.084
113.0, 48466.181572220514, 54221.73341771763, 76443.1448511058, 1225.389686273299, -1654.5208280707393, -4932.40415244152, 25229.7550713724, 18200.89139948981, 0.0, 0.0, 0.0, 196.0, 0.0, 0.0, 0.0, 14.0, 170.0, 219.0, 0.0, 0.0, 0.0, 1.6878033250890455E9, 0.0, 2023-06-26 13:15:25.089
114.0, 48466.65095885408, 54207.562411732964, 76383.42098992121, 1226.6413839627962, -1670.0329387227225, -4911.527623120263, 25208.207989717484, 18194.11882091985, 0.0, 0.0, 0.0, 196.0, 0.0, 0.0, 0.0, 14.0, 170.0, 223.0, 0.0, 0.0, 0.0, 1.6878033250920434E9, 0.0, 2023-06-26 13:15:25.092
115.0, 48526.77715143885, 54261.4077641258, 73394.54572135756, 1331.515768947097, -1576.4908881772624, -4796.61730487553, 25295.737421004465, 18294.053470379527, 0.0, 0.0, 0.0, 196.0, 0.0, 0.0, 0.0, 14.0, 170.0, 227.0, 0.0, 0.0, 0.0, 1.687803325096072E9, 0.0, 2023-06-26 13:15:25.096
116.0, 48507.085264573725, 54256.713897790185, 73822.55927593223, 1300.1562714763013, -1583.084652791578, -4838.057439095669, 25297.7714297499, 18275.90385388182, 0.0, 0.0, 0.0, 196.0, 0.0, 0.0, 0.0, 14.0, 170.0, 231.0, 0.0, 0.0, 0.0, 1.6878033251000924E9, 0.0, 2023-06-26 13:15:25.100
117.0, 48479.45850842697, 54237.491397558624, 76016.80767736527, 1256.7491837440948, -1623.4295515334072, -4886.918352474971, 25251.145690816127, 18227.42292015826, 0.0, 0.0, 0.0, 196.0, 4.0, 80.0, 0.0, 14.0, 170.0, 235.0, 0.0, 0.0, 0.0, 1.6878033251041045E9, 0.0, 2023-06-26 13:15:25.104
118.0, 48471.27776995632, 54215.40787403678, 76721.53582829665, 1247.517913284053, -1657.5383135722059, -4888.639436798029, 25222.28958872433, 18209.921504249753, 0.0, 0.0, 0.0, 196.0, 30.0, 48.0, 0.0, 14.0, 170.0, 239.0, 0.0, 0.0, 0.0, 1.6878033251081765E9, 0.0, 2023-06-26 13:15:25.108
119.0, 48527.850035172705, 54258.524389091064, 73706.86664663156, 1330.1523125353233, -1592.3829784849859, -4810.050703293169, 25282.23696735346, 18286.833856920464, 0.0, 0.0, 0.0, 196.0, 5.0, 16.0, 0.0, 14.0, 170.0, 243.0, 0.0, 0.0, 0.0, 1.6878033251121979E9, 0.0, 2023-06-26 13:15:25.112
120.0, 48510.50508147539, 54255.395144867325, 73533.73003408076, 1317.4565216847088, -1576.6697021329048, -4809.3801509595105, 25304.454601342037, 18290.67835696678, 0.0, 0.0, 0.0, 196.0, 0.0, 0.0, 0.0, 14.0, 170.0, 247.0, 0.0, 0.0, 0.0, 1.6878033251171873E9, 0.0, 2023-06-26 13:15:25.117
121.0, 48487.795709108796, 54243.146388905814, 75606.74257358821, 1264.3040733699886, -1623.630717233505, -4886.8065937526935, 25248.396426248128, 18214.16833569626, 0.0, 0.0, 0.0, 196.0, 0.0, 0.0, 0.0, 14.0, 170.0, 251.0, 0.0, 0.0, 0.0, 1.6878033251201794E9, 0.0, 2023-06-26 13:15:25.120
122.0, 48460.99596750688, 54207.62946696633, 76986.85103498114, 1228.295413052489, -1676.0232062367447, -4916.467358644886, 25206.978643772443, 18183.434687070214, 0.0, 0.0, 0.0, 196.0, 0.0, 0.0, 0.0, 14.0, 170.0, 255.0, 0.0, 0.0, 0.0, 1.6878033251231997E9, 0.0, 2023-06-26 13:15:25.123
123.0, 48516.540052478325, 54246.63326104084, 74209.84795210934, 1302.9725912776698, -1625.888243423491, -4836.224596050334, 25251.570373960778, 18246.556013412002, 0.0, 0.0, 0.0, 196.0, 0.0, 0.0, 0.0, 14.0, 171.0, 3.0, 0.0, 0.0, 0.0, 1.687803325128207E9, 0.0, 2023-06-26 13:15:25.128
124.0, 48513.589622210224, 54255.08222044495, 73323.89185713432, 1314.7519606056167, -1580.3577399680305, -4819.505491197764, 25302.644110041158, 18288.264368565604, 0.0, 0.0, 0.0, 196.0, 0.0, 0.0, 0.0, 14.0, 171.0, 7.0, 0.0, 0.0, 0.0, 1.687803325132249E9, 0.0, 2023-06-26 13:15:25.132
125.0, 48481.26899972785, 54233.02104866756, 75197.5491878449, 1239.6277474913297, -1635.9912319172897, -4906.789053295738, 25243.09906281222, 18219.443347387714, 0.0, 0.0, 0.0, 196.0, 0.0, 0.0, 0.0, 14.0, 171.0, 11.0, 0.0, 0.0, 0.0, 1.6878033251362777E9, 0.0, 2023-06-26 13:15:25.136
126.0, 48456.8385430382, 54202.22034480815, 77039.82466934022, 1213.2526890340673, -1670.5917323341052, -4924.73750409335, 25219.674434623055, 18200.153791922785, 0.0, 0.0, 0.0, 196.0, 0.0, 0.0, 0.0, 14.0, 171.0, 15.0, 0.0, 0.0, 0.0, 1.6878033251402926E9, 0.0, 2023-06-26 13:15:25.140
127.0, 48507.82287214075, 54233.35632483439, 74756.30340055269, 1269.48967808362, -1644.1049151545662, -4849.345070045599, 25248.776405903867, 18246.08662677844, 0.0, 0.0, 0.0, 196.0, 4.0, 80.0, 0.0, 14.0, 171.0, 19.0, 0.0, 0.0, 0.0, 1.6878033251442957E9, 0.0, 2023-06-26 13:15:25.144
128.0, 48516.383590267134, 54249.0025459531, 73168.70369538113, 1308.001733780114, -1592.762958140726, -4803.635752634496, 25309.26022639993, 18304.8717146959, 0.0, 0.0, 0.0, 196.0, 30.0, 128.0, 0.0, 14.0, 171.0, 23.0, 0.0, 0.0, 0.0, 1.687803325148326E9, 0.0, 2023-06-26 13:15:25.148
129.0, 48488.68977888701, 54233.46808355667, 74800.71631678537, 1236.0514683784806, -1623.3177928111306, -4884.102032673602, 25257.873565897175, 18234.351960939402, 0.0, 0.0, 0.0, 196.0, 5.0, 16.0, 0.0, 14.0, 171.0, 27.0, 0.0, 0.0, 0.0, 1.6878033251513429E9, 0.0, 2023-06-26 13:15:25.151
130.0, 48449.39541213458, 54196.028911594025, 76913.76083061229, 1195.7736248700173, -1669.7870695337142, -4927.442065172442, 25218.55684740029, 18196.197533154194, 0.0, 0.0, 0.0, 196.0, 0.0, 0.0, 0.0, 14.0, 171.0, 31.0, 0.0, 0.0, 0.0, 1.687803325155376E9, 0.0, 2023-06-26 13:15:25.155
131.0, 48494.1436045341, 54219.74411246111, 75307.74328800956, 1246.1768086167347, -1657.5383135722059, -4876.01070118078, 25231.94554232902, 18225.88064979084, 0.0, 0.0, 0.0, 196.0, 0.0, 0.0, 0.0, 14.0, 171.0, 35.0, 0.0, 0.0, 0.0, 1.6878033251604118E9, 0.0, 2023-06-26 13:15:25.160
132.0, 48521.59154672522, 54247.97436570816, 73093.84770320031, 1316.584803650952, -1565.8738095609915, -4807.90493582546, 25312.277711901395, 18311.44312756576, 0.0, 0.0, 0.0, 196.0, 0.0, 0.0, 0.0, 14.0, 171.0, 39.0, 0.0, 0.0, 0.0, 1.6878033251643927E9, 0.0, 2023-06-26 13:15:25.164
133.0, 48498.92687784754, 54239.54775804851, 74402.05060268052, 1257.4197360777541, -1601.3907315004744, -4879.698739015906, 25272.402199793127, 18240.90102206481, 0.0, 0.0, 0.0, 196.0, 0.0, 0.0, 0.0, 14.0, 171.0, 43.0, 0.0, 0.0, 0.0, 1.6878033251684165E9, 0.0, 2023-06-26 13:15:25.168
134.0, 48454.22338893692, 54200.499260485085, 76676.78763589713, 1202.9485348401709, -1650.5422175576948, -4938.684992633462, 25220.389690445627, 18183.479390559125, 0.0, 0.0, 0.0, 196.0, 0.0, 0.0, 0.0, 14.0, 171.0, 47.0, 0.0, 0.0, 0.0, 1.6878033251724398E9, 0.0, 2023-06-26 13:15:25.172
135.0, 48479.346749704695, 54210.646952467796, 75896.93527185146, 1237.7278492126286, -1662.56745607465, -4895.881402001548, 25215.002920031897, 18203.864181502366, 0.0, 0.0, 0.0, 196.0, 0.0, 0.0, 0.0, 14.0, 171.0, 51.0, 0.0, 0.0, 0.0, 1.687803325175456E9, 0.0, 2023-06-26 13:15:25.175
136.0, 48519.669296702064, 54249.94131922023, 73193.20120730416, 1323.7820653655608, -1579.6424841454607, -4803.5686974011305, 25299.62662453969, 18303.888237939864, 0.0, 0.0, 0.0, 196.0, 0.0, 0.0, 0.0, 14.0, 171.0, 55.0, 0.0, 0.0, 0.0, 1.6878033251795049E9, 0.0, 2023-06-26 13:15:25.179
137.0, 48495.283543501326, 54242.453484827696, 74088.05329657237, 1277.8268787654495, -1596.2945337646645, -4864.2983870862, 25278.43717079606, 18249.931126824755, 0.0, 0.0, 0.0, 196.0, 4.0, 80.0, 0.0, 14.0, 171.0, 59.0, 0.0, 0.0, 0.0, 1.6878033251855068E9, 0.0, 2023-06-26 13:15:25.185
138.0, 48453.39637439208, 54207.696522199694, 76335.25298062003, 1224.8085409174612, -1643.3002523541752, -4926.413884927498, 25228.83864984973, 18190.877817973833, 0.0, 0.0, 0.0, 196.0, 30.0, 80.0, 0.0, 14.0, 171.0, 63.0, 0.0, 0.0, 0.0, 1.6878033251885242E9, 0.0, 2023-06-26 13:15:25.188
139.0, 48462.694700085485, 54201.482737241124, 76377.00603926255, 1235.0232881335364, -1665.4508311093846, -4900.038826470235, 25218.08746076673, 18210.12266994985, 0.0, 0.0, 0.0, 196.0, 5.0, 16.0, 0.0, 14.0, 171.0, 67.0, 0.0, 0.0, 0.0, 1.6878033251925457E9, 0.0, 2023-06-26 13:15:25.192
140.0, 48516.33888677823, 54246.52150231857, 73388.46604686571, 1335.0920480599461, -1568.958350295824, -4781.284008179189, 25303.091144930262, 18314.7735374896, 0.0, 0.0, 0.0, 196.0, 0.0, 0.0, 0.0, 14.0, 171.0, 71.0, 0.0, 0.0, 0.0, 1.6878033251965668E9, 0.0, 2023-06-26 13:15:25.196
141.0, 48488.68977888701, 54233.75865623458, 73770.27854565126, 1293.5625068619856, -1575.8426875880584, -4830.502549469776, 25297.190284394062, 18281.46943825119, 0.0, 0.0, 0.0, 196.0, 0.0, 0.0, 0.0, 14.0, 171.0, 75.0, 0.0, 0.0, 0.0, 1.6878033252005837E9, 0.0, 2023-06-26 13:15:25.200
142.0, 48456.70443257147, 54211.272801312545, 75936.430804304, 1241.9970324035924, -1626.245871334776, -4901.692855559928, 25241.04270232233, 18208.200419926696, 0.0, 0.0, 0.0, 196.0, 0.0, 0.0, 0.0, 14.0, 171.0, 79.0, 0.0, 0.0, 0.0, 1.6878033252035904E9, 0.0, 2023-06-26 13:15:25.203
143.0, 48440.99115621939, 54189.21162953516, 76746.79329953114, 1232.7881136880058, -1676.6714068259487, -4902.743387549328, 25215.025271776354, 18195.37051860935, 0.0, 0.0, 0.0, 196.0, 0.0, 0.0, 0.0, 14.0, 171.0, 83.0, 0.0, 0.0, 0.0, 1.687803325207619E9, 0.0, 2023-06-26 13:15:25.207
144.0, 48512.36027626518, 54247.1026476744, 73751.50308030882, 1326.710143889206, -1591.1536325399438, -4800.707674110851, 25294.709240759523, 18294.746374457645, 0.0, 0.0, 0.0, 196.0, 0.0, 0.0, 0.0, 14.0, 171.0, 87.0, 0.0, 0.0, 0.0, 1.6878033252116435E9, 0.0, 2023-06-26 13:15:25.211
145.0, 48495.55176443479, 54245.35921160689, 73513.9487402378, 1320.4293036972647, -1566.9019898059357, -4812.419988205432, 25319.05029047135, 18303.508258284124, 0.0, 0.0, 0.0, 196.0, 0.0, 0.0, 0.0, 14.0, 171.0, 91.0, 0.0, 0.0, 0.0, 1.6878033252156613E9, 0.0, 2023-06-26 13:15:25.215
146.0, 48465.35455767567, 54227.008429409085, 75522.8788283919, 1260.5713320459524, -1615.3829235294968, -4875.518962802764, 25253.626734450667, 18212.894286262308, 0.0, 0.0, 0.0, 196.0, 0.0, 0.0, 0.0, 14.0, 171.0, 95.0, 0.0, 0.0, 0.0, 1.6878033252206795E9, 0.0, 2023-06-26 13:15:25.220
147.0, 48442.17579867552, 54195.80539414947, 76935.21850528938, 1238.0854771239135, -1659.9746537178344, -4895.277904901255, 25227.631655649147, 18200.39966111179, 0.0, 0.0, 0.0, 196.0, 4.0, 80.0, 0.0, 14.0, 171.0, 99.0, 0.0, 0.0, 0.0, 1.6878033252247007E9, 0.0, 2023-06-26 13:15:25.224
148.0, 48497.0493313133, 54233.24456611211, 74227.90816162922, 1312.9414693047368, -1617.8639671640358, -4814.878680095516, 25267.842443924244, 18273.087534080452, 0.0, 0.0, 0.0, 196.0, 30.0, 48.0, 0.0, 14.0, 171.0, 103.0, 0.0, 0.0, 0.0, 1.687803325227712E9, 0.0, 2023-06-26 13:15:25.227
149.0, 48494.52358418985, 54241.15708364929, 73301.09307778992, 1326.3748677223764, -1577.7425858667596, -4800.059473521647, 25313.417650868614, 18304.357624573426, 0.0, 0.0, 0.0, 196.0, 5.0, 48.0, 0.0, 14.0, 171.0, 107.0, 0.0, 0.0, 0.0, 1.687803325231724E9, 0.0, 2023-06-26 13:15:25.231
150.0, 48470.607217622666, 54229.1989003657, 75124.43663173159, 1260.4819250681312, -1630.6044615035607, -4883.565590806674, 25254.31963852878, 18223.46666138967, 0.0, 0.0, 0.0, 196.0, 0.0, 0.0, 0.0, 14.0, 171.0, 111.0, 0.0, 0.0, 0.0, 1.6878033252357328E9, 0.0, 2023-06-26 13:15:25.235
151.0, 48440.76763877483, 54195.58187670492, 76995.0764769407, 1225.389686273299, -1680.9405900169124, -4917.2720214452775, 25213.08067000874, 18191.36955635185, 0.0, 0.0, 0.0, 196.0, 0.0, 0.0, 0.0, 14.0, 171.0, 115.0, 0.0, 0.0, 0.0, 1.6878033252397776E9, 0.0, 2023-06-26 13:15:25.239
152.0, 48501.81025288228, 54235.83736846893, 74789.13811315753, 1288.3769021483545, -1649.46933382384, -4845.724087443839, 25244.596629690725, 18247.71830412368, 0.0, 0.0, 0.0, 196.0, 0.0, 0.0, 0.0, 14.0, 171.0, 119.0, 0.0, 0.0, 0.0, 1.6878033252437935E9, 0.0, 2023-06-26 13:15:25.243
153.0, 48518.17172982356, 54259.95490073621, 73144.20618345811, 1337.416629483298, -1580.6259609014942, -4795.656179863951, 25317.709185804033, 18316.58402879048, 0.0, 0.0, 0.0, 196.0, 0.0, 0.0, 0.0, 14.0, 171.0, 123.0, 0.0, 0.0, 0.0, 1.6878033252478132E9, 0.0, 2023-06-26 13:15:25.247
154.0, 48492.55663067778, 54243.05698192799, 74726.4861734493, 1263.521762314053, -1627.698734724371, -4888.5053263312975, 25259.885222898152, 18230.619219615368, 0.0, 0.0, 0.0, 196.0, 0.0, 0.0, 0.0, 14.0, 171.0, 127.0, 0.0, 0.0, 0.0, 1.687803325252838E9, 0.0, 2023-06-26 13:15:25.252
155.0, 48450.20007493497, 54195.80539414947, 76854.2381351278, 1209.1623197987462, -1672.8939620130018, -4931.375972196576, 25210.197294974005, 18187.949739450185, 0.0, 0.0, 0.0, 196.0, 0.0, 0.0, 0.0, 14.0, 171.0, 131.0, 0.0, 0.0, 0.0, 1.6878033252558508E9, 0.0, 2023-06-26 13:15:25.255
156.0, 48490.7461393769, 54213.8432519249, 75367.78007361652, 1244.612186504863, -1667.149563687988, -4883.610294295585, 25214.04179502032, 18206.814611770467, 0.0, 0.0, 0.0, 196.0, 0.0, 0.0, 0.0, 14.0, 171.0, 135.0, 0.0, 0.0, 0.0, 1.6878033252598712E9, 0.0, 2023-06-26 13:15:25.259
157.0, 48528.09590436172, 54255.08222044495, 73103.36954633828, 1328.7218008901837, -1578.2566759892318, -4804.775691601717, 25301.68298502958, 18303.754127473134, 0.0, 0.0, 0.0, 196.0, 4.0, 144.0, 0.0, 14.0, 171.0, 139.0, 0.0, 0.0, 0.0, 1.68780332526388E9, 0.0, 2023-06-26 13:15:25.263
158.0, 48497.652828413586, 54238.29606035901, 74356.18482305823, 1268.036814694025, -1609.5938217155722, -4874.021395924258, 25261.13692058765, 18249.037057046542, 0.0, 0.0, 0.0, 196.0, 30.0, 16.0, 0.0, 14.0, 171.0, 143.0, 0.0, 0.0, 0.0, 1.6878033252679224E9, 0.0, 2023-06-26 13:15:25.267
