%OpenBCI Raw EEG Data
%Number of channels = 8
%Sample Rate = 250 Hz
%Board = OpenBCI_GUI$BoardCytonSerial
Sample Index, EXG Channel 0, EXG Channel 1, EXG Channel 2, EXG Channel 3, EXG Channel 4, EXG Channel 5, EXG Channel 6, EXG Channel 7, Accel Channel 0, Accel Channel 1, Accel Channel 2, Other, Other, Other, Other, Other, Other, Other, Analog Channel 0, Analog Channel 1, Analog Channel 2, Timestamp, Other, Timestamp (Formatted)
208.0, 48358.24499824584, 54065.00298559701, 73757.94038271194, 1596.115719809022, -1430.1540172283671, -4672.743937104218, 25449.763292045987, 18393.45167797228, 0.0, 0.0, 0.0, 196.0, 29.0, 224.0, 0.0, 14.0, 224.0, 72.0, 0.0, 0.0, 0.0, 1.6878033628479364E9, 0.0, 2023-06-26 13:16:02.847
209.0, 48338.3072421917, 54062.45488672911, 74514.09989763498, 1555.435544900363, -1441.061668522557, -4721.4483882723325, 25441.8060710199, 18350.69279082928, 0.0, 0.0, 0.0, 196.0, 6.0, 64.0, 0.0, 14.0, 224.0, 76.0, 0.0, 0.0, 0.0, 1.6878033628479655E9, 0.0, 2023-06-26 13:16:02.847
210.0, 48315.28494540274, 54045.445209198624, 76561.7208554412, 1505.0994163870116, -1485.0051981216907, -4782.356891913044, 25389.950023883586, 18279.74835392813, 0.0, 0.0, 0.0, 196.0, 0.0, 0.0, 0.0, 14.0, 224.0, 80.0, 0.0, 0.0, 0.0, 1.687803362847983E9, 0.0, 2023-06-26 13:16:02.847
0.0, 0.0, 0.0, 0.0, 0.0, 0.0, 0.0, 0.0, 0.0, 0.0, 0.0, 0.0, 196.0, 0.0, 0.0, 0.0, 15.0, 62.0, 175.0, 0.0, 0.0, 0.0, 1.6878033629302175E9, 0.0, 2023-06-26 13:16:02.930
1.0, 48854.18550422019, 55003.82095620882, 75234.87660108526, 2502.7471784051872, -1143.649356800241, -4323.162653823216, 26818.606474233446, 19486.38492660343, 0.0, 0.0, 0.0, 196.0, 0.0, 0.0, 0.0, 15.0, 62.0, 190.0, 0.0, 0.0, 0.0, 1.6878033629473119E9, 0.0, 2023-06-26 13:16:02.947
2.0, 48755.256683261, 54915.35275165472, 78412.17707540716, 2392.5530782405235, -1225.1885205732012, -4442.677431425743, 26751.90886877881, 19391.144143479367, 0.0, 0.0, 0.0, 196.0, 0.0, 0.0, 0.0, 15.0, 62.0, 194.0, 0.0, 0.0, 0.0, 1.6878033629714005E9, 0.0, 2023-06-26 13:16:02.971
3.0, 48729.619232370766, 54880.864009960176, 80187.9784688924, 2355.471534189169, -1296.9823237636476, -4468.940731160728, 26679.779789421536, 19341.143291132845, 0.0, 0.0, 0.0, 196.0, 0.0, 0.0, 0.0, 15.0, 62.0, 197.0, 0.0, 0.0, 0.0, 1.687803362974435E9, 0.0, 2023-06-26 13:16:02.974
4.0, 48819.65205903674, 54960.95031034354, 77368.79764423343, 2455.272073182115, -1242.8911021818046, -4373.968168970128, 26701.349222820907, 19405.471611675217, 0.0, 0.0, 0.0, 196.0, 0.0, 0.0, 0.0, 15.0, 62.0, 201.0, 0.0, 0.0, 0.0, 1.6878033629955583E9, 0.0, 2023-06-26 13:16:02.995
5.0, 48843.501370370555, 54988.06297636783, 75197.70565005609, 2500.847280126486, -1160.7260895640957, -4326.113084091316, 26780.29558423705, 19475.946661942802, 0.0, 0.0, 0.0, 196.0, 0.0, 0.0, 0.0, 15.0, 62.0, 205.0, 0.0, 0.0, 0.0, 1.687803362999561E9, 0.0, 2023-06-26 13:16:02.999
6.0, 48761.64928217522, 54919.97956275697, 77865.96749615282, 2410.814453460509, -1204.3343429963998, -4418.895175325296, 26754.971057769188, 19409.494925677172, 0.0, 0.0, 0.0, 196.0, 0.0, 0.0, 0.0, 15.0, 62.0, 209.0, 0.0, 0.0, 0.0, 1.687803363002592E9, 0.0, 2023-06-26 13:16:03.002
7.0, 48708.80975828288, 54868.45879178748, 80362.03150296587, 2346.7543538515993, -1295.1718324627677, -4480.474231299667, 26676.404676008784, 19333.96838116269, 0.0, 0.0, 0.0, 196.0, 3.0, 16.0, 0.0, 15.0, 62.0, 213.0, 0.0, 0.0, 0.0, 1.6878033630066097E9, 0.0, 2023-06-26 13:16:03.006
8.0, 48803.51409954001, 54949.70738288252, 78106.69578393648, 2449.237102179182, -1254.20108487619, -4396.543430869989, 26684.406600523784, 19387.366698666418, 0.0, 0.0, 0.0, 196.0, 29.0, 144.0, 0.0, 15.0, 62.0, 217.0, 0.0, 0.0, 0.0, 1.687803363009605E9, 0.0, 2023-06-26 13:16:03.009
9.0, 48855.34779493187, 55000.80347070736, 75303.18353214068, 2532.1844258528267, -1156.0769267173919, -4319.318153776902, 26781.279060993085, 19486.51903707016, 0.0, 0.0, 0.0, 196.0, 8.0, 16.0, 0.0, 15.0, 62.0, 221.0, 0.0, 0.0, 0.0, 1.6878033630126176E9, 0.0, 2023-06-26 13:16:03.012
10.0, 48781.38587252926, 54947.24869099244, 77305.65396614719, 2454.2885964260813, -1181.8708398188162, -4396.834003547908, 26769.499691665136, 19443.469577249238, 0.0, 0.0, 0.0, 196.0, 0.0, 0.0, 0.0, 15.0, 62.0, 225.0, 0.0, 0.0, 0.0, 1.6878033630166526E9, 0.0, 2023-06-26 13:16:03.016
11.0, 48696.11396743226, 54857.97582363794, 80371.26277342591, 2357.729060379155, -1292.78019580605, -4488.319693603479, 26673.81187365197, 19348.429959825273, 0.0, 0.0, 0.0, 196.0, 0.0, 0.0, 0.0, 15.0, 62.0, 229.0, 0.0, 0.0, 0.0, 1.6878033630196507E9, 0.0, 2023-06-26 13:16:03.019
12.0, 48770.47822123507, 54916.71620806649, 78865.11282504951, 2427.1535786573386, -1269.132050172335, -4418.045809035994, 26661.496062457092, 19369.21708216871, 0.0, 0.0, 0.0, 196.0, 0.0, 0.0, 0.0, 15.0, 62.0, 233.0, 0.0, 0.0, 0.0, 1.687803363022662E9, 0.0, 2023-06-26 13:16:03.022
14.0, 48803.8717274513, 54970.78507790388, 76746.48037510877, 2497.8074428805644, -1144.789295767462, -4360.668881019221, 26791.717325653713, 19473.063286908065, 0.0, 0.0, 0.0, 196.0, 0.0, 0.0, 0.0, 15.0, 62.0, 241.0, 0.0, 0.0, 0.0, 1.687803363026698E9, 0.0, 2023-06-26 13:16:03.026
15.0, 48712.18487169562, 54879.545257037316, 80145.93483757197, 2385.8252031594757, -1255.7433552436062, -4470.661815483787, 26704.47846704465, 19366.289003645063, 0.0, 0.0, 0.0, 196.0, 0.0, 0.0, 0.0, 15.0, 62.0, 245.0, 0.0, 0.0, 0.0, 1.6878033630297112E9, 0.0, 2023-06-26 13:16:03.029
16.0, 48746.047764545416, 54894.833850244744, 79502.22694900358, 2407.9534301702297, -1282.4536898676981, -4447.125428572349, 26650.23078325162, 19354.062599428013, 0.0, 0.0, 0.0, 196.0, 0.0, 0.0, 0.0, 15.0, 62.0, 249.0, 0.0, 0.0, 0.0, 1.687803363034726E9, 0.0, 2023-06-26 13:16:03.034
17.0, 48829.308012641435, 54970.427449992596, 76030.88927637211, 2523.0872658595167, -1180.5073834070424, -4323.542633478955, 26733.379272625363, 19477.354821843484, 0.0, 0.0, 0.0, 196.0, 2.0, 112.0, 0.0, 15.0, 62.0, 253.0, 0.0, 0.0, 0.0, 1.6878033630377731E9, 0.0, 2023-06-26 13:16:03.037
18.0, 48806.375122830286, 54961.956138844034, 76224.29892114388, 2500.5120039596563, -1142.8670457443054, -4348.107200635338, 26779.53562492557, 19485.803781247592, 0.0, 0.0, 0.0, 196.0, 29.0, 80.0, 0.0, 15.0, 63.0, 1.0, 0.0, 0.0, 0.0, 1.6878033630417507E9, 0.0, 2023-06-26 13:16:03.041
19.0, 48708.58624083832, 54867.83294294273, 79763.29532424157, 2380.885467634853, -1243.9639859156594, -4465.632672981343, 26702.690327488224, 19381.421134641307, 0.0, 0.0, 0.0, 196.0, 8.0, 64.0, 0.0, 15.0, 63.0, 5.0, 0.0, 0.0, 0.0, 1.6878033630447748E9, 0.0, 2023-06-26 13:16:03.044
20.0, 48725.148883479706, 54872.79503021181, 80019.35690872156, 2381.3548542684143, -1295.417701651776, -4461.07291711246, 26637.870268567833, 19345.59128827945, 0.0, 0.0, 0.0, 196.0, 0.0, 0.0, 0.0, 15.0, 63.0, 9.0, 0.0, 0.0, 0.0, 1.687803363047792E9, 0.0, 2023-06-26 13:16:03.047
21.0, 48829.53153008599, 54971.14270581517, 76559.6197914624, 2507.038713340606, -1197.6958748931736, -4332.662145216721, 26712.413336326284, 19454.533690754615, 0.0, 0.0, 0.0, 196.0, 0.0, 0.0, 0.0, 15.0, 63.0, 13.0, 0.0, 0.0, 0.0, 1.6878033630518072E9, 0.0, 2023-06-26 13:16:03.051
22.0, 48823.0718759384, 54978.65289195215, 75851.15889920699, 2512.2466697986924, -1149.684327803174, -4338.138322608272, 26772.830101588977, 19487.658976037383, 0.0, 0.0, 0.0, 196.0, 0.0, 0.0, 0.0, 15.0, 63.0, 17.0, 0.0, 0.0, 0.0, 1.6878033630548303E9, 0.0, 2023-06-26 13:16:03.054
23.0, 48719.136264221226, 54882.49568730542, 79278.30717305031, 2391.6143049734005, -1244.0310411490252, -4459.709460700687, 26704.411411811285, 19386.427925399297, 0.0, 0.0, 0.0, 196.0, 0.0, 0.0, 0.0, 15.0, 63.0, 21.0, 0.0, 0.0, 0.0, 1.6878033630578525E9, 0.0, 2023-06-26 13:16:03.057
24.0, 48720.85734854428, 54871.498629033405, 80371.8215670373, 2370.0001680851183, -1309.2981349585218, -4477.724966731664, 26625.420346906227, 19332.44846253973, 0.0, 0.0, 0.0, 196.0, 0.0, 0.0, 0.0, 15.0, 63.0, 25.0, 0.0, 0.0, 0.0, 1.687803363061886E9, 0.0, 2023-06-26 13:16:03.061
25.0, 48833.1748644322, 54973.31082502733, 77149.75054857142, 2501.942515604796, -1221.8804623938158, -4357.561988539933, 26685.32302204645, 19429.03035033111, 0.0, 0.0, 0.0, 196.0, 0.0, 0.0, 0.0, 15.0, 63.0, 29.0, 0.0, 0.0, 0.0, 1.6878033630648806E9, 0.0, 2023-06-26 13:16:03.064
26.0, 48840.975623247105, 54987.88416241219, 75573.30436388307, 2533.8608066869747, -1152.0312609709813, -4331.47750276059, 26762.525947395083, 19488.351880115497, 0.0, 0.0, 0.0, 196.0, 0.0, 0.0, 0.0, 15.0, 63.0, 33.0, 0.0, 0.0, 0.0, 1.6878033630689063E9, 0.0, 2023-06-26 13:16:03.068
27.0, 48745.556026167396, 54906.47910910596, 78658.91798244929, 2425.1866251452716, -1225.5685002289415, -4440.263443024569, 26713.1062404044, 19400.375413939408, 0.0, 0.0, 0.0, 196.0, 2.0, 16.0, 0.0, 15.0, 63.0, 37.0, 0.0, 0.0, 0.0, 1.6878033630719044E9, 0.0, 2023-06-26 13:16:03.071
28.0, 48706.37341813725, 54859.249873071894, 80564.78417691996, 2373.889371620342, -1312.7850070935497, -4496.276914629569, 26627.141431229287, 19332.53786951755, 0.0, 0.0, 0.0, 196.0, 29.0, 80.0, 0.0, 15.0, 63.0, 41.0, 0.0, 0.0, 0.0, 1.6878033630749207E9, 0.0, 2023-06-26 13:16:03.074
29.0, 48790.728901711576, 54928.87555705018, 77812.03273678217, 2470.493611156179, -1264.326425114444, -4410.9379542992065, 26642.072396525433, 19391.255902201643, 0.0, 0.0, 0.0, 196.0, 8.0, 64.0, 0.0, 15.0, 63.0, 45.0, 0.0, 0.0, 0.0, 1.6878033630789392E9, 0.0, 2023-06-26 13:16:03.078
30.0, 48825.23999515057, 54967.65583368014, 75461.85856602891, 2530.0163066406617, -1172.170182725213, -4345.201473856148, 26732.038167958042, 19476.371345087453, 0.0, 0.0, 0.0, 196.0, 0.0, 0.0, 0.0, 15.0, 63.0, 49.0, 0.0, 0.0, 0.0, 1.687803363081968E9, 0.0, 2023-06-26 13:16:03.081
31.0, 48759.12353505177, 54920.58305985726, 77974.52991897224, 2450.332337657492, -1210.7716453995283, -4431.702724898187, 26716.23548462814, 19418.145050781375, 0.0, 0.0, 0.0, 196.0, 0.0, 0.0, 0.0, 15.0, 63.0, 53.0, 0.0, 0.0, 0.0, 1.6878033630849917E9, 0.0, 2023-06-26 13:16:03.084
32.0, 48705.702865803585, 54866.78241095334, 80575.71417995861, 2396.2858195645595, -1301.5644313769856, -4492.901801216817, 26639.07726276842, 19342.327933588975, 0.0, 0.0, 0.0, 196.0, 0.0, 0.0, 0.0, 15.0, 63.0, 57.0, 0.0, 0.0, 0.0, 1.6878033630879915E9, 0.0, 2023-06-26 13:16:03.087
33.0, 48770.0088346015, 54917.25264993342, 78473.4208552147, 2463.9221982863187, -1286.812280036483, -4426.405361462279, 26625.37564341732, 19372.726306048193, 0.0, 0.0, 0.0, 196.0, 0.0, 0.0, 0.0, 15.0, 63.0, 61.0, 0.0, 0.0, 0.0, 1.6878033630919995E9, 0.0, 2023-06-26 13:16:03.091
34.0, 48834.73948654407, 54985.02313912191, 75530.34431103997, 2556.681937775843, -1176.7969938274616, -4322.76032242302, 26734.47450810367, 19489.089487682522, 0.0, 0.0, 0.0, 196.0, 0.0, 0.0, 0.0, 15.0, 63.0, 65.0, 0.0, 0.0, 0.0, 1.6878033630950167E9, 0.0, 2023-06-26 13:16:03.095
35.0, 48770.83584914635, 54937.01159203191, 77334.53241998344, 2481.3118554725474, -1192.264400990534, -4400.030303005016, 26732.932237736255, 19445.503585994673, 0.0, 0.0, 0.0, 196.0, 0.0, 0.0, 0.0, 15.0, 63.0, 69.0, 0.0, 0.0, 0.0, 1.6878033630980344E9, 0.0, 2023-06-26 13:16:03.098
36.0, 48696.53865057691, 54862.35676555119, 80465.52007979395, 2393.447148018736, -1295.6188673518739, -4493.4605948282, 26653.985876320112, 19350.911003459812, 0.0, 0.0, 0.0, 196.0, 0.0, 0.0, 0.0, 15.0, 63.0, 73.0, 0.0, 0.0, 0.0, 1.68780336310206E9, 0.0, 2023-06-26 13:16:03.102
37.0, 48749.91461633619, 54898.700702035516, 79144.59903771867, 2440.4081631193358, -1297.8316900529494, -4450.701707685198, 26625.37564341732, 19361.908061731825, 0.0, 0.0, 0.0, 196.0, 2.0, 32.0, 0.0, 15.0, 63.0, 77.0, 0.0, 0.0, 0.0, 1.6878033631050696E9, 0.0, 2023-06-26 13:16:03.105
38.0, 48823.72007652761, 54966.985281346475, 75811.73042198783, 2542.242710857715, -1193.3372847243888, -4340.552311009445, 26716.168429394776, 19479.32177535555, 0.0, 0.0, 0.0, 196.0, 29.0, 160.0, 0.0, 15.0, 63.0, 81.0, 0.0, 0.0, 0.0, 1.687803363108098E9, 0.0, 2023-06-26 13:16:03.108
39.0, 48782.99519813004, 54940.02907753338, 76712.84099970353, 2495.818137624042, -1176.9534560386487, -4384.138212697293, 26742.92346750778, 19461.596842002495, 0.0, 0.0, 0.0, 196.0, 7.0, 240.0, 0.0, 15.0, 63.0, 85.0, 0.0, 0.0, 0.0, 1.687803363112104E9, 0.0, 2023-06-26 13:16:03.112
40.0, 48698.25973489997, 54856.14298059261, 80155.81430862121, 2393.8718311633866, -1276.6869397982289, -4479.535458032544, 26668.000420093587, 19363.048000699044, 0.0, 0.0, 0.0, 196.0, 0.0, 0.0, 0.0, 15.0, 63.0, 89.0, 0.0, 0.0, 0.0, 1.6878033631151986E9, 0.0, 2023-06-26 13:16:03.115
41.0, 48745.42191570067, 54894.18564965554, 79662.37719802585, 2433.6802880382884, -1297.8316900529494, -4447.930091372739, 26625.26388469504, 19345.79245397955, 0.0, 0.0, 0.0, 196.0, 0.0, 0.0, 0.0, 15.0, 63.0, 93.0, 0.0, 0.0, 0.0, 1.6878033631181953E9, 0.0, 2023-06-26 13:16:03.118
42.0, 48822.26721313801, 54965.01832783441, 76167.3243245273, 2544.9919754257176, -1198.0758545489139, -4344.8438459448635, 26705.28312984504, 19462.13328386942, 0.0, 0.0, 0.0, 196.0, 0.0, 0.0, 0.0, 15.0, 63.0, 97.0, 0.0, 0.0, 0.0, 1.6878033631211922E9, 0.0, 2023-06-26 13:16:03.121
43.0, 48802.44121580615, 54956.54701668585, 76175.81798742032, 2522.774341437142, -1164.5035343770426, -4364.379270598802, 26752.177089712273, 19469.866987450958, 0.0, 0.0, 0.0, 196.0, 0.0, 0.0, 0.0, 15.0, 63.0, 101.0, 0.0, 0.0, 0.0, 1.6878033631252036E9, 0.0, 2023-06-26 13:16:03.125
44.0, 48710.799063539394, 54873.42087905656, 79687.52291053807, 2415.9330029407743, -1255.6986517546954, -4468.538399760532, 26687.021754625053, 19374.91677700481, 0.0, 0.0, 0.0, 196.0, 0.0, 0.0, 0.0, 15.0, 63.0, 105.0, 0.0, 0.0, 0.0, 1.6878033631282125E9, 0.0, 2023-06-26 13:16:03.128
45.0, 48716.63286884223, 54864.39077429662, 80089.63079328905, 2408.691037737255, -1304.06782675598, -4475.355681819401, 26623.140468971786, 19336.583535263962, 0.0, 0.0, 0.0, 196.0, 0.0, 0.0, 0.0, 15.0, 63.0, 109.0, 0.0, 0.0, 0.0, 1.6878033631312084E9, 0.0, 2023-06-26 13:16:03.131
46.0, 48814.980544445585, 54950.60145266074, 76686.5553482241, 2514.817120411053, -1212.9397646116931, -4360.355956596846, 26687.334679047428, 19431.869021876933, 0.0, 0.0, 0.0, 196.0, 0.0, 0.0, 0.0, 15.0, 63.0, 113.0, 0.0, 0.0, 0.0, 1.6878033631352372E9, 0.0, 2023-06-26 13:16:03.135
47.0, 48803.715265240106, 54950.75791487192, 75778.40397100497, 2507.821024396542, -1169.9350082796823, -4369.296654378969, 26738.497822105626, 19455.383057043917, 0.0, 0.0, 0.0, 196.0, 2.0, 176.0, 0.0, 15.0, 63.0, 117.0, 0.0, 0.0, 0.0, 1.6878033631382465E9, 0.0, 2023-06-26 13:16:03.138
48.0, 48706.753397792985, 54863.00496614039, 79148.1306133426, 2395.4811567641686, -1258.2020471336898, -4485.1904493797365, 26680.09271384391, 19362.668021043304, 0.0, 0.0, 0.0, 196.0, 29.0, 208.0, 0.0, 15.0, 63.0, 121.0, 0.0, 0.0, 0.0, 1.6878033631412356E9, 0.0, 2023-06-26 13:16:03.141
49.0, 48704.808796025376, 54851.38205902363, 80429.19849505406, 2379.2984937785263, -1314.841367583438, -4492.834745983451, 26620.41355614824, 19323.664226968795, 0.0, 0.0, 0.0, 196.0, 7.0, 144.0, 0.0, 15.0, 63.0, 125.0, 0.0, 0.0, 0.0, 1.6878033631452641E9, 0.0, 2023-06-26 13:16:03.145
50.0, 48796.78622445896, 54932.98827802995, 77296.33328870933, 2472.7511373461653, -1254.424602320743, -4393.2130209461475, 26656.019885065543, 19396.1285824929, 0.0, 0.0, 0.0, 196.0, 0.0, 0.0, 0.0, 15.0, 63.0, 129.0, 0.0, 0.0, 0.0, 1.6878033631482856E9, 0.0, 2023-06-26 13:16:03.148
51.0, 48831.16320743122, 54977.22238030701, 75533.31709305252, 2526.350620549991, -1167.5210198785092, -4340.708773220632, 26750.09837747793, 19475.834903220522, 0.0, 0.0, 0.0, 196.0, 0.0, 0.0, 0.0, 15.0, 63.0, 133.0, 0.0, 0.0, 0.0, 1.6878033631512983E9, 0.0, 2023-06-26 13:16:03.151
52.0, 48743.320851721866, 54904.66861780508, 78499.68415494969, 2428.248814135649, -1222.327497282922, -4436.240129022614, 26718.87299047387, 19410.12077452192, 0.0, 0.0, 0.0, 196.0, 0.0, 0.0, 0.0, 15.0, 63.0, 137.0, 0.0, 0.0, 0.0, 1.687803363155342E9, 0.0, 2023-06-26 13:16:03.155
53.0, 48694.68345578712, 54848.14105607761, 80551.68605466916, 2366.781516883554, -1321.0104490531028, -4494.756996006608, 26632.841126065392, 19335.73416897466, 0.0, 0.0, 0.0, 196.0, 0.0, 0.0, 0.0, 15.0, 63.0, 141.0, 0.0, 0.0, 0.0, 1.6878033631583393E9, 0.0, 2023-06-26 13:16:03.158
54.0, 48788.069044121396, 54929.70257159502, 77940.66702612246, 2468.1690297328273, -1269.5567333169859, -4396.498727381078, 26656.869251354845, 19395.614492370427, 0.0, 0.0, 0.0, 196.0, 0.0, 0.0, 0.0, 15.0, 63.0, 145.0, 0.0, 0.0, 0.0, 1.6878033631613533E9, 0.0, 2023-06-26 13:16:03.161
55.0, 48822.2225096491, 54968.61695869172, 75468.00529575412, 2523.780169937631, -1185.0447875314699, -4335.322002806903, 26743.95164775272, 19479.634699777926, 0.0, 0.0, 0.0, 196.0, 0.0, 0.0, 0.0, 15.0, 63.0, 149.0, 0.0, 0.0, 0.0, 1.6878033631653533E9, 0.0, 2023-06-26 13:16:03.165
56.0, 48738.17995049715, 54898.32072237977, 77856.69152220387, 2429.9028432253413, -1225.5014449955756, -4420.30333522598, 26728.014853956087, 19425.31996075153, 0.0, 0.0, 0.0, 196.0, 0.0, 0.0, 0.0, 15.0, 63.0, 153.0, 0.0, 0.0, 0.0, 1.68780336316839E9, 0.0, 2023-06-26 13:16:03.168
57.0, 48683.17230739264, 54838.97684085093, 80565.92411588719, 2356.6561766453, -1315.6013268949184, -4489.392577337334, 26651.08014954092, 19346.753578991127, 0.0, 0.0, 0.0, 196.0, 2.0, 144.0, 0.0, 15.0, 63.0, 157.0, 0.0, 0.0, 0.0, 1.687803363171429E9, 0.0, 2023-06-26 13:16:03.171
58.0, 48754.83200011635, 54896.68904503454, 78591.79569385001, 2425.9689362012073, -1300.6256581098626, -4442.275100025547, 26636.059777266953, 19362.064523943012, 0.0, 0.0, 0.0, 196.0, 29.0, 128.0, 0.0, 15.0, 63.0, 161.0, 0.0, 0.0, 0.0, 1.6878033631754231E9, 0.0, 2023-06-26 13:16:03.175
59.0, 48802.08358789487, 54946.10875202522, 75560.22859337671, 2517.9687163792514, -1191.7279591236068, -4343.547444766456, 26740.978865740166, 19474.270281108653, 0.0, 0.0, 0.0, 196.0, 7.0, 112.0, 0.0, 15.0, 63.0, 165.0, 0.0, 0.0, 0.0, 1.6878033631784413E9, 0.0, 2023-06-26 13:16:03.178
60.0, 48751.94862508162, 54915.129234210166, 77173.30928722731, 2467.073794254517, -1197.4723574486206, -4400.812614060952, 26756.513328136603, 19447.090559851, 0.0, 0.0, 0.0, 196.0, 0.0, 0.0, 0.0, 15.0, 63.0, 169.0, 0.0, 0.0, 0.0, 1.6878033631814547E9, 0.0, 2023-06-26 13:16:03.181
61.0, 48685.854516727275, 54847.82813165524, 80348.59810454823, 2381.8465926464314, -1291.0591114829913, -4483.201144123214, 26682.439647011717, 19361.505730331628, 0.0, 0.0, 0.0, 196.0, 0.0, 0.0, 0.0, 15.0, 63.0, 173.0, 0.0, 0.0, 0.0, 1.687803363186484E9, 0.0, 2023-06-26 13:16:03.186
62.0, 48739.74457260902, 54884.28382686184, 79191.22477665244, 2429.4781600806905, -1296.9152685302818, -4433.222643521148, 26651.147204774286, 19362.668021043304, 0.0, 0.0, 0.0, 196.0, 0.0, 0.0, 0.0, 15.0, 63.0, 177.0, 0.0, 0.0, 0.0, 1.687803363190493E9, 0.0, 2023-06-26 13:16:03.190
63.0, 48807.783282730976, 54948.27687123739, 75831.73523327532, 2522.036733870117, -1194.9019068362602, -4345.179122111693, 26738.542525594537, 19463.809664703567, 0.0, 0.0, 0.0, 196.0, 0.0, 0.0, 0.0, 15.0, 63.0, 181.0, 0.0, 0.0, 0.0, 1.6878033631935081E9, 0.0, 2023-06-26 13:16:03.193
64.0, 48768.46656423409, 54926.43921690455, 76578.99875390515, 2476.9979687926734, -1182.5637438969309, -4387.334512154403, 26766.325743952482, 19450.644487219393, 0.0, 0.0, 0.0, 196.0, 0.0, 0.0, 0.0, 15.0, 63.0, 185.0, 0.0, 0.0, 0.0, 1.6878033631985123E9, 0.0, 2023-06-26 13:16:03.198
65.0, 48668.375452563225, 54829.410294224064, 80022.06146980065, 2373.621150686878, -1281.067881711469, -4483.759937734597, 26688.407562781285, 19353.995544194644, 0.0, 0.0, 0.0, 196.0, 0.0, 0.0, 0.0, 15.0, 63.0, 189.0, 0.0, 0.0, 0.0, 1.6878033632025425E9, 0.0, 2023-06-26 13:16:03.202
66.0, 48689.766072006954, 54838.8427303842, 79730.66177733682, 2394.0953486079393, -1314.1931669942342, -4456.066126354472, 26636.28329471151, 19337.812881209004, 0.0, 0.0, 0.0, 196.0, 0.0, 0.0, 0.0, 15.0, 63.0, 193.0, 0.0, 0.0, 0.0, 1.6878033632065675E9, 0.0, 2023-06-26 13:16:03.206
67.0, 48788.29256156595, 54931.44600766254, 76264.55441290789, 2512.2243180542373, -1209.587002943397, -4341.692249976665, 26717.151906150808, 19444.43070226082, 0.0, 0.0, 0.0, 196.0, 2.0, 112.0, 0.0, 15.0, 63.0, 197.0, 0.0, 0.0, 0.0, 1.687803363210586E9, 0.0, 2023-06-26 13:16:03.210
68.0, 48786.12444235378, 54946.15345551413, 76081.04659092982, 2512.9619256212623, -1160.2567029305344, -4352.689308248676, 26776.741656868657, 19471.69983049629, 0.0, 0.0, 0.0, 196.0, 29.0, 192.0, 0.0, 15.0, 63.0, 201.0, 0.0, 0.0, 0.0, 1.6878033632145922E9, 0.0, 2023-06-26 13:16:03.214
69.0, 48681.60768528077, 54848.632794455625, 79566.19764163466, 2395.749377697632, -1256.1456866438016, -4470.773574206063, 26706.04308915652, 19375.028535727088, 0.0, 0.0, 0.0, 196.0, 7.0, 112.0, 0.0, 15.0, 63.0, 205.0, 0.0, 0.0, 0.0, 1.6878033632196395E9, 0.0, 2023-06-26 13:16:03.219
70.0, 48674.14220263269, 54820.20137550848, 80153.57913417568, 2377.510354222102, -1317.54592866253, -4488.36439709239, 26633.399919676773, 19325.608828736404, 0.0, 0.0, 0.0, 196.0, 0.0, 0.0, 0.0, 15.0, 63.0, 209.0, 0.0, 0.0, 0.0, 1.6878033632226264E9, 0.0, 2023-06-26 13:16:03.222
71.0, 48766.23138978856, 54900.04180670283, 76796.36946873301, 2483.7705473626315, -1231.9610991431593, -4374.549314325966, 26698.689365230726, 19418.010940314645, 0.0, 0.0, 0.0, 196.0, 0.0, 0.0, 0.0, 15.0, 63.0, 213.0, 0.0, 0.0, 0.0, 1.6878033632256641E9, 0.0, 2023-06-26 13:16:03.225
72.0, 48773.518058480986, 54919.08549297875, 75721.22820868829, 2499.30500975907, -1164.302368676945, -4358.009023429039, 26770.974906799187, 19466.42481880484, 0.0, 0.0, 0.0, 196.0, 0.0, 0.0, 0.0, 15.0, 63.0, 217.0, 0.0, 0.0, 0.0, 1.6878033632326863E9, 0.0, 2023-06-26 13:16:03.232
73.0, 48686.97210395004, 54841.05555308528, 79003.60423369458, 2396.732854453666, -1235.4032677892767, -4467.845495682418, 26726.606694055405, 19385.913835276824, 0.0, 0.0, 0.0, 196.0, 0.0, 0.0, 0.0, 15.0, 63.0, 221.0, 0.0, 0.0, 0.0, 1.6878033632357068E9, 0.0, 2023-06-26 13:16:03.235
74.0, 48653.44448726708, 54795.10036648517, 80433.57943696731, 2341.3228799489593, -1318.9093850743038, -4515.052379972027, 26639.680759868716, 19314.455308253207, 0.0, 0.0, 0.0, 196.0, 0.0, 0.0, 0.0, 15.0, 63.0, 225.0, 0.0, 0.0, 0.0, 1.6878033632397563E9, 0.0, 2023-06-26 13:16:03.239
75.0, 48742.87381683276, 54874.38200406814, 77412.60706336582, 2438.53061658509, -1258.8725994673491, -4420.3256869704355, 26669.475635227638, 19379.387125895875, 0.0, 0.0, 0.0, 196.0, 0.0, 0.0, 0.0, 15.0, 63.0, 229.0, 0.0, 0.0, 0.0, 1.6878033632427523E9, 0.0, 2023-06-26 13:16:03.242
76.0, 48771.8640293913, 54917.8114435448, 75523.63878770337, 2495.30404750157, -1179.970941540115, -4372.0235672025165, 26754.076987990975, 19450.666838963847, 0.0, 0.0, 0.0, 196.0, 0.0, 0.0, 0.0, 15.0, 63.0, 233.0, 0.0, 0.0, 0.0, 1.687803363248748E9, 0.0, 2023-06-26 13:16:03.248
77.0, 48720.11974097726, 54882.13805939413, 78367.07125509635, 2435.915462483819, -1212.9844681006036, -4437.156550545282, 26746.879726276366, 19408.869076832423, 0.0, 0.0, 0.0, 196.0, 2.0, 80.0, 0.0, 15.0, 63.0, 237.0, 0.0, 0.0, 0.0, 1.687803363252786E9, 0.0, 2023-06-26 13:16:03.252
78.0, 48683.35112134828, 54838.12747456163, 80567.9134211437, 2382.6065519579115, -1298.2787249420555, -4485.346911590924, 26670.302649772486, 19342.64085801135, 0.0, 0.0, 0.0, 196.0, 29.0, 208.0, 0.0, 15.0, 63.0, 241.0, 0.0, 0.0, 0.0, 1.6878033632558117E9, 0.0, 2023-06-26 13:16:03.255
79.0, 48753.42384021567, 54888.687120519535, 78077.88438533359, 2448.9241777568077, -1272.5295153295417, -4418.023457291539, 26657.22687926613, 19370.871111258402, 0.0, 0.0, 0.0, 196.0, 7.0, 112.0, 0.0, 15.0, 63.0, 245.0, 0.0, 0.0, 0.0, 1.687803363259833E9, 0.0, 2023-06-26 13:16:03.259
80.0, 48791.980599401075, 54925.63455410416, 75488.79241809755, 2505.071759828539, -1193.784319613495, -4362.524075809011, 26736.441461615737, 19449.57160348554, 0.0, 0.0, 0.0, 196.0, 0.0, 0.0, 0.0, 15.0, 63.0, 249.0, 0.0, 0.0, 0.0, 1.687803363262832E9, 0.0, 2023-06-26 13:16:03.262
81.0, 48716.40935139768, 54871.87860868915, 77711.22636928874, 2425.4771978231906, -1234.19627358869, -4443.325632014947, 26728.059557444998, 19401.805925584547, 0.0, 0.0, 0.0, 196.0, 0.0, 0.0, 0.0, 15.0, 63.0, 253.0, 0.0, 0.0, 0.0, 1.6878033632698584E9, 0.0, 2023-06-26 13:16:03.269
82.0, 48666.63201649571, 54826.616326167146, 80520.90770255419, 2364.076955804462, -1310.8627570703934, -4498.55679256401, 26664.98293459212, 19342.082064399965, 0.0, 0.0, 0.0, 196.0, 0.0, 0.0, 0.0, 15.0, 64.0, 1.0, 0.0, 0.0, 0.0, 1.6878033632728758E9, 0.0, 2023-06-26 13:16:03.272
83.0, 48751.12161053677, 54895.63851304514, 78712.85274181995, 2443.9620904877297, -1287.3040184144998, -4417.352904957879, 26659.23853626711, 19376.9731374947, 0.0, 0.0, 0.0, 196.0, 0.0, 0.0, 0.0, 15.0, 64.0, 5.0, 0.0, 0.0, 0.0, 1.6878033632758975E9, 0.0, 2023-06-26 13:16:03.275
84.0, 48810.30902985443, 54947.09222878126, 75614.9009603144, 2525.009515882673, -1198.7017033936625, -4335.14318885126, 26748.600810599426, 19474.940833442313, 0.0, 0.0, 0.0, 196.0, 0.0, 0.0, 0.0, 15.0, 64.0, 9.0, 0.0, 0.0, 0.0, 1.6878033632819247E9, 0.0, 2023-06-26 13:16:03.281
85.0, 48754.31790999388, 54913.63166733166, 77038.2376954839, 2467.431422165802, -1205.7872063859948, -4400.857317549863, 26761.274249705584, 19447.381132528917, 0.0, 0.0, 0.0, 196.0, 0.0, 0.0, 0.0, 15.0, 64.0, 13.0, 0.0, 0.0, 0.0, 1.6878033632879612E9, 0.0, 2023-06-26 13:16:03.287
86.0, 48665.648539739675, 54825.09640754419, 80269.71879836546, 2357.5055429346016, -1307.5546988910078, -4503.407121110812, 26678.28222254303, 19353.526157561086, 0.0, 0.0, 0.0, 196.0, 0.0, 0.0, 0.0, 15.0, 64.0, 17.0, 0.0, 0.0, 0.0, 1.6878033632919912E9, 0.0, 2023-06-26 13:16:03.291
87.0, 48710.821415283855, 54853.21490206896, 79284.85623417572, 2396.2858195645595, -1325.7490188776278, -4468.583103249443, 26635.478631911115, 19344.69721850124, 0.0, 0.0, 0.0, 196.0, 2.0, 80.0, 0.0, 15.0, 64.0, 21.0, 0.0, 0.0, 0.0, 1.68780336329502E9, 0.0, 2023-06-26 13:16:03.295
88.0, 48798.08262563737, 54930.417827417594, 75906.68063243397, 2505.2952772730923, -1214.7949594014835, -4349.917691936218, 26733.379272625363, 19459.85340593498, 0.0, 0.0, 0.0, 196.0, 29.0, 224.0, 0.0, 15.0, 64.0, 25.0, 0.0, 0.0, 0.0, 1.6878033632990108E9, 0.0, 2023-06-26 13:16:03.299
89.0, 48763.79504964293, 54915.21864118799, 76465.80951998348, 2477.6014658929666, -1193.6725608912184, -4383.9370469971955, 26767.219813730695, 19456.411237288863, 0.0, 0.0, 0.0, 196.0, 7.0, 32.0, 0.0, 15.0, 64.0, 29.0, 0.0, 0.0, 0.0, 1.6878033633020303E9, 0.0, 2023-06-26 13:16:03.302
90.0, 48670.16359211965, 54834.05945707077, 79901.25029101972, 2370.4919064631354, -1293.9648382621813, -4494.868754728885, 26693.034373883533, 19364.16558792181, 0.0, 0.0, 0.0, 196.0, 0.0, 0.0, 0.0, 15.0, 64.0, 33.0, 0.0, 0.0, 0.0, 1.687803363305046E9, 0.0, 2023-06-26 13:16:03.305
91.0, 48730.89328180472, 54873.55498952329, 79788.66455419833, 2419.0622471645174, -1302.7043703442062, -4458.681280455742, 26658.947963589188, 19356.58834655146, 0.0, 0.0, 0.0, 196.0, 0.0, 0.0, 0.0, 15.0, 64.0, 37.0, 0.0, 0.0, 0.0, 1.6878033633212016E9, 0.0, 2023-06-26 13:16:03.321
92.0, 48797.38972155926, 54928.048542505334, 76354.09550119586, 2512.1572628208714, -1218.9300321257153, -4354.611558271832, 26721.15286840831, 19445.056551105565, 0.0, 0.0, 0.0, 196.0, 0.0, 0.0, 0.0, 15.0, 64.0, 41.0, 0.0, 0.0, 0.0, 1.6878033633282006E9, 0.0, 2023-06-26 13:16:03.328
93.0, 48775.328549781865, 54921.834757546756, 75979.74848505837, 2490.5431259325896, -1185.2236014871123, -4377.835020760896, 26765.834005574467, 19459.585185001517, 0.0, 0.0, 0.0, 196.0, 0.0, 0.0, 0.0, 15.0, 64.0, 45.0, 0.0, 0.0, 0.0, 1.6878033633311965E9, 0.0, 2023-06-26 13:16:03.331
94.0, 48677.36085383426, 54832.561890192264, 79411.1435903482, 2375.856325132409, -1278.6538933102959, -4488.990245937139, 26697.90705417479, 19364.679678044282, 0.0, 0.0, 0.0, 196.0, 0.0, 0.0, 0.0, 15.0, 64.0, 49.0, 0.0, 0.0, 0.0, 1.6878033633371987E9, 0.0, 2023-06-26 13:16:03.337
95.0, 48674.67864449962, 54820.15667201956, 80170.0747215837, 2353.057545787996, -1346.1785133097785, -4504.703522289219, 26620.391204403782, 19310.879029140357, 0.0, 0.0, 0.0, 196.0, 0.0, 0.0, 0.0, 15.0, 64.0, 53.0, 0.0, 0.0, 0.0, 1.6878033633402145E9, 0.0, 2023-06-26 13:16:03.340
96.0, 48773.33924452535, 54905.98737072795, 76885.5976325986, 2471.208866978749, -1264.6393495368184, -4394.375311657824, 26674.41537075226, 19398.095536004967, 0.0, 0.0, 0.0, 196.0, 0.0, 0.0, 0.0, 15.0, 64.0, 57.0, 0.0, 0.0, 0.0, 1.687803363344237E9, 0.0, 2023-06-26 13:16:03.344
97.0, 48802.91060243972, 54947.38280145917, 75633.74348089022, 2507.9104313743633, -1175.3441304378666, -4375.845715504374, 26763.24120321765, 19461.28391758012, 0.0, 0.0, 0.0, 196.0, 2.0, 96.0, 0.0, 15.0, 64.0, 61.0, 0.0, 0.0, 0.0, 1.687803363347252E9, 0.0, 2023-06-26 13:16:03.347
98.0, 48716.811682797874, 54874.58316976824, 78805.21014990928, 2417.296459352548, -1250.781267974528, -4477.434394053745, 26721.7563655086, 19384.729192820694, 0.0, 0.0, 0.0, 196.0, 30.0, 32.0, 0.0, 15.0, 64.0, 65.0, 0.0, 0.0, 0.0, 1.6878033633502684E9, 0.0, 2023-06-26 13:16:03.350
99.0, 48684.245191126494, 54830.03614306881, 80395.11208475973, 2367.8320488729537, -1336.3437457494433, -4502.6248100548755, 26637.982027290112, 19323.35130254642, 0.0, 0.0, 0.0, 196.0, 6.0, 192.0, 0.0, 15.0, 64.0, 69.0, 0.0, 0.0, 0.0, 1.6878033633532856E9, 0.0, 2023-06-26 13:16:03.353
100.0, 48790.55008775593, 54920.82892904627, 77503.13162840983, 2475.6345123808997, -1258.939654700715, -4400.991428016595, 26681.009135366578, 19400.353062194954, 0.0, 0.0, 0.0, 196.0, 0.0, 0.0, 0.0, 15.0, 64.0, 73.0, 0.0, 0.0, 0.0, 1.687803363357308E9, 0.0, 2023-06-26 13:16:03.357
101.0, 48811.538375799464, 54949.28269973787, 75467.22298469818, 2518.751027435187, -1188.4869561775872, -4350.968223925617, 26763.352961939927, 19475.969013687256, 0.0, 0.0, 0.0, 196.0, 0.0, 0.0, 0.0, 15.0, 64.0, 77.0, 0.0, 0.0, 0.0, 1.687803363360307E9, 0.0, 2023-06-26 13:16:03.360
102.0, 48717.5492903649, 54876.79599246931, 78170.62177307866, 2407.6405057478555, -1254.4469540651983, -4468.203123593703, 26721.62225504187, 19395.010995270135, 0.0, 0.0, 0.0, 196.0, 0.0, 0.0, 0.0, 15.0, 64.0, 81.0, 0.0, 0.0, 0.0, 1.687803363364323E9, 0.0, 2023-06-26 13:16:03.364
103.0, 48664.39684205018, 54822.32479123173, 80495.98550748653, 2354.4880574331355, -1356.1026878479347, -4520.3497434079345, 26635.769204589036, 19318.143346088335, 0.0, 0.0, 0.0, 196.0, 0.0, 0.0, 0.0, 15.0, 64.0, 85.0, 0.0, 0.0, 0.0, 1.6878033633673487E9, 0.0, 2023-06-26 13:16:03.367
104.0, 48768.913599123196, 54906.63557131715, 78160.40702586259, 2457.82017205002, -1292.6013818504075, -4415.140082256804, 26667.88866137131, 19385.690317832272, 0.0, 0.0, 0.0, 196.0, 0.0, 0.0, 0.0, 15.0, 64.0, 89.0, 0.0, 0.0, 0.0, 1.68780336337036E9, 0.0, 2023-06-26 13:16:03.370
105.0, 48820.65788753723, 54960.50327545444, 75481.10341800493, 2544.8355132145302, -1184.5754008979084, -4327.8788719032855, 26773.500653922638, 19491.816400506068, 0.0, 0.0, 0.0, 196.0, 0.0, 0.0, 0.0, 15.0, 64.0, 93.0, 0.0, 0.0, 0.0, 1.6878033633743637E9, 0.0, 2023-06-26 13:16:03.374
106.0, 48748.5064564355, 54906.76968178388, 77540.23552420564, 2453.9086167703413, -1231.8269886764276, -4419.945707314695, 26752.802938557023, 19429.522088709127, 0.0, 0.0, 0.0, 196.0, 0.0, 0.0, 0.0, 15.0, 64.0, 97.0, 0.0, 0.0, 0.0, 1.687803363377399E9, 0.0, 2023-06-26 13:16:03.377
107.0, 48684.71457776005, 54834.52884370433, 80438.42976551411, 2373.174115797772, -1319.803454852516, -4510.202051425225, 26676.829359153435, 19344.831328967968, 0.0, 0.0, 0.0, 196.0, 2.0, 80.0, 0.0, 15.0, 64.0, 101.0, 0.0, 0.0, 0.0, 1.6878033633804183E9, 0.0, 2023-06-26 13:16:03.380
108.0, 48747.6570901462, 54887.74834725241, 78811.6027488235, 2434.4178956053133, -1310.4604256701978, -4453.674489697753, 26651.102501285375, 19355.627221539882, 0.0, 0.0, 0.0, 196.0, 30.0, 0.0, 0.0, 15.0, 64.0, 105.0, 0.0, 0.0, 0.0, 1.68780336338444E9, 0.0, 2023-06-26 13:16:03.384
109.0, 48821.59666080435, 54958.335156242276, 75689.55578679511, 2520.561518736067, -1211.7327704111065, -4353.493971049067, 26745.29275242004, 19460.41219954636, 0.0, 0.0, 0.0, 196.0, 6.0, 128.0, 0.0, 15.0, 64.0, 109.0, 0.0, 0.0, 0.0, 1.6878033633874457E9, 0.0, 2023-06-26 13:16:03.387
110.0, 48766.72312816657, 54918.8619755342, 76947.24374380634, 2476.2603612256485, -1221.3663722713438, -4416.235317735114, 26756.468624647692, 19432.85249863297, 0.0, 0.0, 0.0, 196.0, 0.0, 0.0, 0.0, 15.0, 64.0, 113.0, 0.0, 0.0, 0.0, 1.687803363390469E9, 0.0, 2023-06-26 13:16:03.390
111.0, 48665.17915310612, 54820.46959644194, 80185.56448049123, 2342.9992607831077, -1323.8267688544713, -4524.797740554541, 26671.017905595054, 19334.795395707537, 0.0, 0.0, 0.0, 196.0, 0.0, 0.0, 0.0, 15.0, 64.0, 117.0, 0.0, 0.0, 0.0, 1.687803363394484E9, 0.0, 2023-06-26 13:16:03.394
112.0, 48730.22272947106, 54872.70562323399, 79382.86863361223, 2380.3266740234703, -1321.2786699865665, -4495.360493106901, 26643.61466689285, 19338.438730053753, 0.0, 0.0, 0.0, 196.0, 0.0, 0.0, 0.0, 15.0, 64.0, 121.0, 0.0, 0.0, 0.0, 1.6878033633974953E9, 0.0, 2023-06-26 13:16:03.397
113.0, 48810.68900951016, 54949.43916194906, 75989.5832526187, 2502.0319225826174, -1233.682183466218, -4354.142171638271, 26725.824382999468, 19446.978801128724, 0.0, 0.0, 0.0, 196.0, 0.0, 0.0, 0.0, 15.0, 64.0, 125.0, 0.0, 0.0, 0.0, 1.6878033634005313E9, 0.0, 2023-06-26 13:16:03.400
114.0, 48780.11182309531, 54934.843472819746, 76361.09159721037, 2505.3176290175475, -1223.4674362501428, -4383.355901641357, 26761.698932850235, 19448.342257540495, 0.0, 0.0, 0.0, 196.0, 0.0, 0.0, 0.0, 15.0, 64.0, 129.0, 0.0, 0.0, 0.0, 1.6878033634045224E9, 0.0, 2023-06-26 13:16:03.404
115.0, 48708.78740653842, 54860.725088205945, 79811.39627830939, 2391.9942846291406, -1278.8327072659383, -4481.882391200351, 26712.14511539282, 19372.59219558146, 0.0, 0.0, 0.0, 196.0, 0.0, 0.0, 0.0, 15.0, 64.0, 133.0, 0.0, 0.0, 0.0, 1.6878033634075415E9, 0.0, 2023-06-26 13:16:03.407
116.0, 48749.13230528025, 54887.368367596675, 79898.90335785192, 2434.52965432759, -1292.4672713836756, -4462.346966546413, 26670.012077094565, 19355.58251805097, 0.0, 0.0, 0.0, 196.0, 0.0, 0.0, 0.0, 15.0, 64.0, 137.0, 0.0, 0.0, 0.0, 1.6878033634105504E9, 0.0, 2023-06-26 13:16:03.410
117.0, 48823.04952419395, 54956.63642366367, 76490.64230807332, 2530.5080450186783, -1224.741485684095, -4369.073136934417, 26729.020682456576, 19445.70475169477, 0.0, 0.0, 0.0, 196.0, 2.0, 128.0, 0.0, 15.0, 64.0, 141.0, 0.0, 0.0, 0.0, 1.687803363414594E9, 0.0, 2023-06-26 13:16:03.414
118.0, 48802.240050106055, 54953.19425501755, 75938.24129560486, 2492.0183410666396, -1181.781432840995, -4421.219756748647, 26779.222700503196, 19458.80287394558, 0.0, 0.0, 0.0, 196.0, 29.0, 208.0, 0.0, 15.0, 64.0, 145.0, 0.0, 0.0, 0.0, 1.6878033634175954E9, 0.0, 2023-06-26 13:16:03.417
119.0, 48683.462880070554, 54845.43649499852, 79308.10204840923, 2384.2158775586936, -1287.3710736478656, -4498.2215163971805, 26701.036298398532, 19360.49990183114, 0.0, 0.0, 0.0, 196.0, 6.0, 16.0, 0.0, 15.0, 64.0, 149.0, 0.0, 0.0, 0.0, 1.687803363420594E9, 0.0, 2023-06-26 13:16:03.420
120.0, 48714.934136263626, 54862.200303339996, 80271.73045536643, 2426.460674579224, -1323.3797339653652, -4491.337179104946, 26654.164690275753, 19332.671979984283, 0.0, 0.0, 0.0, 196.0, 0.0, 0.0, 0.0, 15.0, 64.0, 153.0, 0.0, 0.0, 0.0, 1.6878033634246175E9, 0.0, 2023-06-26 13:16:03.424
121.0, 48837.131123200794, 54976.48477273998, 77096.55339676779, 2561.9793012117507, -1222.4392560051986, -4349.135380880282, 26733.155755180807, 19446.8893941509, 0.0, 0.0, 0.0, 196.0, 0.0, 0.0, 0.0, 15.0, 64.0, 157.0, 0.0, 0.0, 0.0, 1.687803363427647E9, 0.0, 2023-06-26 13:16:03.427
122.0, 48832.169035931714, 54976.864752395726, 75669.79684469663, 2560.526437822156, -1188.1516800107574, -4343.279223832992, 26788.766895385612, 19484.440324835818, 0.0, 0.0, 0.0, 196.0, 0.0, 0.0, 0.0, 15.0, 64.0, 161.0, 0.0, 0.0, 0.0, 1.687803363430657E9, 0.0, 2023-06-26 13:16:03.430
123.0, 48730.513302148975, 54894.90090547811, 78740.59125668899, 2450.555855102045, -1256.1903901327123, -4448.1536088172925, 26742.498784363128, 19405.672777375315, 0.0, 0.0, 0.0, 196.0, 0.0, 0.0, 0.0, 15.0, 64.0, 165.0, 0.0, 0.0, 0.0, 1.6878033634346805E9, 0.0, 2023-06-26 13:16:03.434
124.0, 48693.58822030881, 54848.14105607761, 80509.03892624842, 2387.881563649364, -1338.7800858950718, -4507.408083368312, 26666.90518461528, 19337.142328875343, 0.0, 0.0, 0.0, 196.0, 0.0, 0.0, 0.0, 15.0, 64.0, 169.0, 0.0, 0.0, 0.0, 1.687803363437688E9, 0.0, 2023-06-26 13:16:03.437
125.0, 48800.74248322755, 54936.095170509245, 77732.79580268811, 2500.9590388487627, -1271.8366112514273, -4402.4889948951, 26699.33756581993, 19403.862286074436, 0.0, 0.0, 0.0, 196.0, 0.0, 0.0, 0.0, 15.0, 64.0, 173.0, 0.0, 0.0, 0.0, 1.6878033634417188E9, 0.0, 2023-06-26 13:16:03.441
126.0, 48791.24299183405, 54932.518891396394, 75544.02357864662, 2509.743274419698, -1241.7511632145838, -4367.329700866902, 26755.596906613937, 19462.155635613875, 0.0, 0.0, 0.0, 196.0, 0.0, 0.0, 0.0, 15.0, 64.0, 177.0, 0.0, 0.0, 0.0, 1.687803363447746E9, 0.0, 2023-06-26 13:16:03.447
127.0, 48745.44426744512, 54910.32360915228, 78134.61311276116, 2433.456770593735, -1241.1476661142906, -4451.171094318759, 26753.67465659078, 19416.491021691683, 0.0, 0.0, 0.0, 196.0, 2.0, 112.0, 0.0, 15.0, 64.0, 181.0, 0.0, 0.0, 0.0, 1.6878033634507585E9, 0.0, 2023-06-26 13:16:03.450
128.0, 48683.79815623738, 54839.960317606965, 80599.8764157148, 2365.7086331496994, -1320.8986903308262, -4531.570319124498, 26674.66123994127, 19325.742939203137, 0.0, 0.0, 0.0, 196.0, 30.0, 96.0, 0.0, 15.0, 64.0, 185.0, 0.0, 0.0, 0.0, 1.6878033634537652E9, 0.0, 2023-06-26 13:16:03.453
129.0, 48752.686232648644, 54889.06710017528, 78385.33263031633, 2360.9700633251746, -1340.7246876626834, -4514.627696827376, 26640.75364360257, 19327.24050608164, 0.0, 0.0, 0.0, 196.0, 6.0, 96.0, 0.0, 15.0, 64.0, 189.0, 0.0, 0.0, 0.0, 1.6878033634869251E9, 0.0, 2023-06-26 13:16:03.486
130.0, 48855.37014667632, 54996.73545321649, 75621.18180050634, 2490.7666433771424, -1210.6598866772517, -4362.5687792979215, 26773.992392300654, 19477.91361545487, 0.0, 0.0, 0.0, 196.0, 0.0, 0.0, 0.0, 15.0, 64.0, 193.0, 0.0, 0.0, 0.0, 1.6878033634909456E9, 0.0, 2023-06-26 13:16:03.490
131.0, 48744.88547383374, 54898.18661191304, 77494.57091028344, 2472.326454201514, -1259.4313930787318, -4427.478245196134, 26755.842775802947, 19430.885545120902, 0.0, 0.0, 0.0, 196.0, 0.0, 0.0, 0.0, 15.0, 64.0, 197.0, 0.0, 0.0, 0.0, 1.687803363493966E9, 0.0, 2023-06-26 13:16:03.493
132.0, 48674.522182288434, 54820.20137550848, 80450.11972786424, 2344.7650485950767, -1386.2775428625994, -4564.069755562515, 26655.438739709705, 19319.35034028892, 0.0, 0.0, 0.0, 196.0, 0.0, 0.0, 0.0, 15.0, 64.0, 201.0, 0.0, 0.0, 0.0, 1.6878033634969797E9, 0.0, 2023-06-26 13:16:03.496
133.0, 48791.31004706741, 54927.422693660585, 79057.62840004306, 2513.1407395769047, -1267.232151893634, -4423.387875960812, 26703.38323156634, 19385.287986432075, 0.0, 0.0, 0.0, 196.0, 0.0, 0.0, 0.0, 15.0, 64.0, 205.0, 0.0, 0.0, 0.0, 1.6878033635009987E9, 0.0, 2023-06-26 13:16:03.500
134.0, 48847.36822216132, 54979.50225824145, 75871.92366980597, 2547.6071295269885, -1191.2585724900453, -4327.1189125918045, 26772.986563800165, 19467.117722882955, 0.0, 0.0, 0.0, 196.0, 0.0, 0.0, 0.0, 15.0, 64.0, 209.0, 0.0, 0.0, 0.0, 1.687803363504017E9, 0.0, 2023-06-26 13:16:03.504
135.0, 48796.33918956986, 54955.183560274076, 76941.87932513707, 2510.2573645421703, -1188.039921288481, -4393.168317457237, 26787.939880840768, 19453.79608318759, 0.0, 0.0, 0.0, 196.0, 0.0, 0.0, 0.0, 15.0, 64.0, 213.0, 0.0, 0.0, 0.0, 1.6878033635080402E9, 0.0, 2023-06-26 13:16:03.508
136.0, 48696.51629883246, 54851.359707279174, 80247.47881263243, 2411.9320406832744, -1317.970611807181, -4470.058318383493, 26708.23356011314, 19386.494980632662, 0.0, 0.0, 0.0, 196.0, 0.0, 0.0, 0.0, 15.0, 64.0, 217.0, 0.0, 0.0, 0.0, 1.6878033635110435E9, 0.0, 2023-06-26 13:16:03.511
137.0, 48755.41314547219, 54897.44900434602, 79624.33452896292, 2422.7726367440982, -1299.999809265114, -4459.441239767223, 26682.08201910043, 19374.156817693332, 0.0, 0.0, 0.0, 196.0, 2.0, 144.0, 0.0, 15.0, 64.0, 221.0, 0.0, 0.0, 0.0, 1.6878033635140553E9, 0.0, 2023-06-26 13:16:03.514
138.0, 48797.27796283698, 54934.53054839737, 76197.85680745325, 2416.469444807702, -1263.6558727807849, -4445.918434371762, 26714.223827627164, 19419.530858937607, 0.0, 0.0, 0.0, 196.0, 30.0, 160.0, 0.0, 15.0, 64.0, 225.0, 0.0, 0.0, 0.0, 1.6878033635170784E9, 0.0, 2023-06-26 13:16:03.517
139.0, 48780.33534053986, 54934.23997571945, 76382.281050954, 2381.779537413065, -1227.4013432742768, -4481.591818522432, 26751.260668189607, 19420.22376301572, 0.0, 0.0, 0.0, 196.0, 6.0, 112.0, 0.0, 15.0, 64.0, 229.0, 0.0, 0.0, 0.0, 1.6878033635210996E9, 0.0, 2023-06-26 13:16:03.521
140.0, 48702.46186285757, 54864.88251267464, 79823.06388891506, 2386.9651421266967, -1296.870565041371, -4494.734644262153, 26711.116935147875, 19370.111151946923, 0.0, 0.0, 0.0, 196.0, 0.0, 0.0, 0.0, 15.0, 64.0, 233.0, 0.0, 0.0, 0.0, 1.6878033635241036E9, 0.0, 2023-06-26 13:16:03.524
141.0, 48733.86606381727, 54882.2051146275, 80067.07788313364, 2422.7726367440982, -1368.5302577650855, -4441.157512802782, 26651.951867574677, 19343.713741745203, 0.0, 0.0, 0.0, 196.0, 0.0, 0.0, 0.0, 15.0, 64.0, 237.0, 0.0, 0.0, 0.0, 1.6878033635271952E9, 0.0, 2023-06-26 13:16:03.527
142.0, 48863.05914676895, 54995.41670029363, 76730.52122956768, 2579.41366188689, -1186.3858921987883, -4355.013889672028, 26754.166394968797, 19457.059437878066, 0.0, 0.0, 0.0, 196.0, 0.0, 0.0, 0.0, 15.0, 64.0, 241.0, 0.0, 0.0, 0.0, 1.687803363531182E9, 0.0, 2023-06-26 13:16:03.531
143.0, 48801.25657335002, 54930.06019950631, 75971.07600820971, 2440.631680563889, -1204.1555290407573, -4453.719193186664, 26768.426807931282, 19441.010885359156, 0.0, 0.0, 0.0, 196.0, 0.0, 0.0, 0.0, 15.0, 64.0, 245.0, 0.0, 0.0, 0.0, 1.687803363534202E9, 0.0, 2023-06-26 13:16:03.534
144.0, 48732.52495914995, 54879.880533204145, 79278.55304223932, 2401.270258578093, -1274.7870415195277, -4514.2477171716355, 26727.165487666785, 19377.934262506278, 0.0, 0.0, 0.0, 196.0, 0.0, 0.0, 0.0, 15.0, 64.0, 249.0, 0.0, 0.0, 0.0, 1.6878033635372052E9, 0.0, 2023-06-26 13:16:03.537
145.0, 48720.20914795508, 54885.8037454848, 80384.11502648772, 2414.636601762367, -1337.4613329722088, -4478.88725744334, 26667.66514392676, 19340.092759143445, 0.0, 0.0, 0.0, 196.0, 0.0, 0.0, 0.0, 15.0, 64.0, 253.0, 0.0, 0.0, 0.0, 1.687803363541208E9, 0.0, 2023-06-26 13:16:03.541
146.0, 48824.50238758355, 54968.326386013796, 77261.79984352588, 2466.626759365411, -1262.7618030025726, -4372.984692214095, 26716.794278239522, 19417.22862925871, 0.0, 0.0, 0.0, 196.0, 0.0, 0.0, 0.0, 15.0, 65.0, 1.0, 0.0, 0.0, 0.0, 1.6878033635441933E9, 0.0, 2023-06-26 13:16:03.544
147.0, 48819.76381775902, 54967.32055751331, 75706.83368525907, 2435.557834572534, -1165.7552320665397, -4343.100409877349, 26803.519046726116, 19480.662880022872, 0.0, 0.0, 0.0, 196.0, 2.0, 144.0, 0.0, 15.0, 65.0, 5.0, 0.0, 0.0, 0.0, 1.6878033635472355E9, 0.0, 2023-06-26 13:16:03.547
148.0, 48739.476351675556, 54906.70262655051, 78682.25320366064, 2392.530726496068, -1250.8483232078938, -4471.332367817446, 26748.131423965864, 19389.75833532314, 0.0, 0.0, 0.0, 196.0, 30.0, 80.0, 0.0, 15.0, 65.0, 9.0, 0.0, 0.0, 0.0, 1.6878033635513113E9, 0.0, 2023-06-26 13:16:03.551
149.0, 48670.20829560856, 54823.0400470543, 80528.7084613691, 2291.83611772491, -1351.4311732567755, -4544.959014053227, 26647.235649494607, 19305.894590126823, 0.0, 0.0, 0.0, 196.0, 6.0, 144.0, 0.0, 15.0, 65.0, 13.0, 0.0, 0.0, 0.0, 1.6878033635542648E9, 0.0, 2023-06-26 13:16:03.554
150.0, 48786.90675340972, 54918.83962378975, 77867.26389733123, 2379.6561216898112, -1293.8307277954493, -4445.3372890159235, 26678.528091732038, 19373.26274791512, 0.0, 0.0, 0.0, 196.0, 0.0, 0.0, 0.0, 15.0, 65.0, 17.0, 0.0, 0.0, 0.0, 1.687803363557284E9, 0.0, 2023-06-26 13:16:03.557
151.0, 48835.4770941111, 54989.87346766871, 75617.06907952655, 2535.760704965676, -1164.5035343770426, -4375.935122482196, 26800.59096820247, 19488.24012139322, 0.0, 0.0, 0.0, 196.0, 0.0, 0.0, 0.0, 15.0, 65.0, 21.0, 0.0, 0.0, 0.0, 1.6878033635602727E9, 0.0, 2023-06-26 13:16:03.560
152.0, 48808.833814720376, 54969.645138936656, 78044.11089946162, 2490.0513875545726, -1183.6589793752407, -4429.4451987082, 26798.713421668224, 19449.75041744118, 0.0, 0.0, 0.0, 196.0, 0.0, 0.0, 0.0, 15.0, 65.0, 25.0, 0.0, 0.0, 0.0, 1.6878033635643027E9, 0.0, 2023-06-26 13:16:03.564
153.0, 48745.89130233423, 54896.040844445335, 80576.16121484771, 2406.4111598028135, -1281.0008264781031, -4446.790152405519, 26718.91769396278, 19382.158742208332, 0.0, 0.0, 0.0, 196.0, 0.0, 0.0, 0.0, 15.0, 65.0, 29.0, 0.0, 0.0, 0.0, 1.6878033635673306E9, 0.0, 2023-06-26 13:16:03.567
154.0, 48802.17299487269, 54940.58787114476, 78522.10295463837, 2422.9067472108304, -1284.2418294241227, -4411.20617523267, 26704.85844670039, 19401.157724995344, 0.0, 0.0, 0.0, 196.0, 0.0, 0.0, 0.0, 15.0, 65.0, 33.0, 0.0, 0.0, 0.0, 1.687803363570334E9, 0.0, 2023-06-26 13:16:03.570
155.0, 48844.01546049303, 54987.83945892328, 75692.90854846341, 2548.2776818606476, -1188.8669358333273, -4321.441569500157, 26793.974851843697, 19494.76683077417, 0.0, 0.0, 0.0, 196.0, 0.0, 0.0, 0.0, 15.0, 65.0, 37.0, 0.0, 0.0, 0.0, 1.6878033635743625E9, 0.0, 2023-06-26 13:16:03.574
156.0, 48827.16224517373, 54968.10286856924, 77420.02784252499, 2503.7083034167654, -1168.7950693124617, -4359.394831585269, 26815.432526520795, 19479.254720122186, 0.0, 0.0, 0.0, 196.0, 0.0, 0.0, 0.0, 15.0, 65.0, 41.0, 0.0, 0.0, 0.0, 1.6878033635773757E9, 0.0, 2023-06-26 13:16:03.577
157.0, 48750.585168669844, 54909.876574263166, 80453.51719302144, 2438.8882444963747, -1272.9989019631032, -4434.340230743913, 26740.174202939776, 19402.051794773557, 0.0, 0.0, 0.0, 196.0, 2.0, 128.0, 0.0, 15.0, 65.0, 45.0, 0.0, 0.0, 0.0, 1.6878033635804095E9, 0.0, 2023-06-26 13:16:03.580
158.0, 48785.118613853294, 54926.48392039346, 79172.94104968799, 2458.490724383679, -1291.7520155611057, -4395.805823302963, 26699.650490242304, 19398.855495316446, 0.0, 0.0, 0.0, 196.0, 30.0, 0.0, 0.0, 15.0, 65.0, 49.0, 0.0, 0.0, 0.0, 1.687803363583419E9, 0.0, 2023-06-26 13:16:03.583
159.0, 48879.42062371023, 55019.489529071994, 75979.54731935827, 2632.834331135074, -1184.173069497713, -4305.884755359263, 26798.86988387941, 19508.222580936264, 0.0, 0.0, 0.0, 196.0, 6.0, 112.0, 0.0, 15.0, 65.0, 53.0, 0.0, 0.0, 0.0, 1.6878033635874183E9, 0.0, 2023-06-26 13:16:03.587
160.0, 48835.41003887774, 54993.136822359185, 76853.85815547206, 2535.067800887561, -1181.7590810965396, -4459.485943256133, 26807.743526428167, 19464.18964435931, 0.0, 0.0, 0.0, 196.0, 0.0, 0.0, 0.0, 15.0, 65.0, 57.0, 0.0, 0.0, 0.0, 1.6878033635904512E9, 0.0, 2023-06-26 13:16:03.590
161.0, 48749.91461633619, 54907.01555097289, 80161.53635520177, 2426.684192023777, -1256.8832942108268, -4424.4384079502115, 26752.78058681257, 19403.638768629884, 0.0, 0.0, 0.0, 196.0, 0.0, 0.0, 0.0, 15.0, 65.0, 61.0, 0.0, 0.0, 0.0, 1.687803363593467E9, 0.0, 2023-06-26 13:16:03.593
162.0, 48787.13027085427, 54919.62193484568, 79692.9096809518, 2425.1866251452716, -1279.4809078551423, -4439.414076735267, 26706.1548478788, 19382.11403871942, 0.0, 0.0, 0.0, 196.0, 0.0, 0.0, 0.0, 15.0, 65.0, 65.0, 0.0, 0.0, 0.0, 1.687803363597464E9, 0.0, 2023-06-26 13:16:03.597
163.0, 48876.24667599758, 55028.92196523213, 76330.62616951778, 2566.6284640584545, -1191.0797585344028, -4354.812723971931, 26776.764008613114, 19478.181836388332, 0.0, 0.0, 0.0, 196.0, 0.0, 0.0, 0.0, 15.0, 65.0, 69.0, 0.0, 0.0, 0.0, 1.687803363600499E9, 0.0, 2023-06-26 13:16:03.600
164.0, 48849.312823928936, 55004.826784709316, 76326.28993109344, 2566.583760569544, -1154.6017115833417, -4297.838127355352, 26833.202163362763, 19507.686139069338, 0.0, 0.0, 0.0, 196.0, 0.0, 0.0, 0.0, 15.0, 65.0, 73.0, 0.0, 0.0, 0.0, 1.6878033636035123E9, 0.0, 2023-06-26 13:16:03.603
165.0, 48760.28582576344, 54921.20890870201, 79712.62391956139, 2452.075773725006, -1239.5383405135085, -4438.788227890519, 26769.544395154047, 19410.27723673311, 0.0, 0.0, 0.0, 196.0, 0.0, 0.0, 0.0, 15.0, 65.0, 77.0, 0.0, 0.0, 0.0, 1.6878033636065273E9, 0.0, 2023-06-26 13:16:03.606
166.0, 48758.85531411831, 54905.78620502785, 80138.40229969053, 2428.5170350691124, -1305.9006698013152, -4479.3789958213565, 26689.18987383722, 19350.68748601526, 0.0, 0.0, 0.0, 196.0, 0.0, 0.0, 0.0, 15.0, 65.0, 81.0, 0.0, 0.0, 0.0, 1.6878033636216228E9, 0.0, 2023-06-26 13:16:03.621
167.0, 48862.030966524006, 55001.809299207845, 76834.03215814021, 2564.1474204239157, -1208.1788430427127, -4348.956566924639, 26759.307296193518, 19455.13718785491, 0.0, 0.0, 0.0, 196.0, 2.0, 96.0, 0.0, 15.0, 65.0, 85.0, 0.0, 0.0, 0.0, 1.6878033636246169E9, 0.0, 2023-06-26 13:16:03.624
168.0, 48861.673338612716, 55012.53813654639, 75922.30450180823, 2565.846153002519, -1146.331566134878, -4297.212278510604, 26832.017520906633, 19508.11082221399, 0.0, 0.0, 0.0, 196.0, 29.0, 208.0, 0.0, 15.0, 65.0, 89.0, 0.0, 0.0, 0.0, 1.6878033636286347E9, 0.0, 2023-06-26 13:16:03.628
169.0, 48765.11380256579, 54927.19917621603, 79158.56887800324, 2474.0922420134834, -1230.105904353369, -4415.654172379276, 26776.24991849064, 19419.97789382671, 0.0, 0.0, 0.0, 196.0, 6.0, 96.0, 0.0, 15.0, 65.0, 93.0, 0.0, 0.0, 0.0, 1.6878033636316504E9, 0.0, 2023-06-26 13:16:03.631
170.0, 48757.00011932851, 54911.17297544158, 80412.43468671259, 2446.7113550557324, -1297.7646348195833, -4455.060297853983, 26704.813743211478, 19363.20446291023, 0.0, 0.0, 0.0, 196.0, 0.0, 0.0, 0.0, 15.0, 65.0, 97.0, 0.0, 0.0, 0.0, 1.6878033636356552E9, 0.0, 2023-06-26 13:16:03.635
171.0, 48857.65002461076, 54994.0308921374, 77377.514824571, 2513.6995331882877, -1222.6627734497517, -4349.671822747209, 26745.225697186674, 19439.982705114213, 0.0, 0.0, 0.0, 196.0, 0.0, 0.0, 0.0, 15.0, 65.0, 101.0, 0.0, 0.0, 0.0, 1.6878033636386628E9, 0.0, 2023-06-26 13:16:03.638
172.0, 48872.62569339582, 55022.574069806826, 75649.4567572423, 2524.2048530822817, -1156.523961606498, -4340.2617383315255, 26815.6783957098, 19495.660900552382, 0.0, 0.0, 0.0, 196.0, 0.0, 0.0, 0.0, 15.0, 65.0, 105.0, 0.0, 0.0, 0.0, 1.6878033636427116E9, 0.0, 2023-06-26 13:16:03.642
173.0, 48785.85622142032, 54945.594661902745, 78534.82109723343, 2486.877439841919, -1215.2866977795004, -4418.604602647377, 26786.598776173447, 19435.80292890107, 0.0, 0.0, 0.0, 196.0, 0.0, 0.0, 0.0, 15.0, 65.0, 109.0, 0.0, 0.0, 0.0, 1.6878033636457002E9, 0.0, 2023-06-26 13:16:03.645
174.0, 48745.08663953384, 54895.16912641157, 80561.29730478494, 2428.941718213763, -1300.8715272988711, -4458.793039178019, 26710.20051362521, 19370.915814747314, 0.0, 0.0, 0.0, 196.0, 0.0, 0.0, 0.0, 15.0, 65.0, 113.0, 0.0, 0.0, 0.0, 1.6878033636487103E9, 0.0, 2023-06-26 13:16:03.648
175.0, 48844.127219215305, 54984.397290277164, 78003.45307629742, 2537.370030566458, -1241.393535303299, -4358.590168784877, 26735.167412181785, 19433.858327133457, 0.0, 0.0, 0.0, 196.0, 0.0, 0.0, 0.0, 15.0, 65.0, 117.0, 0.0, 0.0, 0.0, 1.6878033636517348E9, 0.0, 2023-06-26 13:16:03.651
176.0, 48888.49543195909, 55032.85587225627, 75572.09736968248, 2608.806205845619, -1145.5045515900317, -4290.126775518272, 26830.899933683868, 19527.780357334657, 0.0, 0.0, 0.0, 196.0, 0.0, 0.0, 0.0, 15.0, 65.0, 121.0, 0.0, 0.0, 0.0, 1.6878033636557512E9, 0.0, 2023-06-26 13:16:03.655
177.0, 48811.49367231056, 54970.33804301477, 77859.01610362722, 2522.707286203776, -1181.557915396442, -4379.176125428215, 26813.376166030906, 19471.856292707478, 0.0, 0.0, 0.0, 196.0, 2.0, 64.0, 0.0, 15.0, 65.0, 125.0, 0.0, 0.0, 0.0, 1.6878033636587799E9, 0.0, 2023-06-26 13:16:03.658
178.0, 48745.89130233423, 54899.77358576937, 80530.72011837008, 2441.726916042199, -1281.5149166005751, -4453.093344341915, 26729.646531301325, 19390.004204512144, 0.0, 0.0, 0.0, 196.0, 29.0, 224.0, 0.0, 15.0, 65.0, 129.0, 0.0, 0.0, 0.0, 1.687803363662792E9, 0.0, 2023-06-26 13:16:03.662
179.0, 48827.85514925184, 54966.31472901282, 78637.19208683874, 2521.008553625173, -1255.6315965213296, -4383.15473594126, 26721.868124230878, 19420.26846650463, 0.0, 0.0, 0.0, 196.0, 6.0, 96.0, 0.0, 15.0, 65.0, 133.0, 0.0, 0.0, 0.0, 1.6878033636658113E9, 0.0, 2023-06-26 13:16:03.665
180.0, 48892.988132594604, 55029.86073849926, 75663.85128067152, 2609.2532407347253, -1153.9982144830483, -4301.70497914612, 26813.331462541995, 19518.973770019267, 0.0, 0.0, 0.0, 196.0, 0.0, 0.0, 0.0, 15.0, 65.0, 137.0, 0.0, 0.0, 0.0, 1.6878033636688292E9, 0.0, 2023-06-26 13:16:03.668
181.0, 48837.80167553445, 54994.56733400433, 77205.56285447632, 2554.938501708329, -1166.5375431224757, -4362.881703720296, 26819.321730056017, 19488.508342326684, 0.0, 0.0, 0.0, 196.0, 0.0, 0.0, 0.0, 15.0, 65.0, 141.0, 0.0, 0.0, 0.0, 1.6878033636718457E9, 0.0, 2023-06-26 13:16:03.671
182.0, 48759.12353505177, 54916.515042366394, 80343.39014809014, 2462.402279663358, -1267.8356489939272, -4459.865922911874, 26738.58722908345, 19399.9283790503, 0.0, 0.0, 0.0, 196.0, 0.0, 0.0, 0.0, 15.0, 65.0, 145.0, 0.0, 0.0, 0.0, 1.6878033636758533E9, 0.0, 2023-06-26 13:16:03.675
183.0, 48829.28566089698, 54968.48284822499, 79224.77474507985, 2523.9366321488183, -1261.3312913574327, -4399.695026838187, 26714.916731705278, 19410.433698944296, 0.0, 0.0, 0.0, 196.0, 0.0, 0.0, 0.0, 15.0, 65.0, 149.0, 0.0, 0.0, 0.0, 1.6878033636788542E9, 0.0, 2023-06-26 13:16:03.678
184.0, 48918.11149336237, 55054.872340544745, 75923.08681286417, 2652.2356453222806, -1146.2198074126015, -4284.583542893355, 26812.25857880814, 19526.282790456153, 0.0, 0.0, 0.0, 196.0, 0.0, 0.0, 0.0, 15.0, 65.0, 153.0, 0.0, 0.0, 0.0, 1.6878033636818883E9, 0.0, 2023-06-26 13:16:03.681
185.0, 48865.92017005923, 55018.55075580487, 76630.22895219672, 2595.7304353392647, -1146.331566134878, -4355.9973664280615, 26828.26242783814, 19500.734746543738, 0.0, 0.0, 0.0, 196.0, 0.0, 0.0, 0.0, 15.0, 65.0, 157.0, 0.0, 0.0, 0.0, 1.687803363685911E9, 0.0, 2023-06-26 13:16:03.685
186.0, 48765.31496826589, 54922.795882558334, 80021.10034478907, 2485.1116520299497, -1254.2681401095558, -4463.822181680463, 26750.54541236704, 19406.075108775512, 0.0, 0.0, 0.0, 196.0, 0.0, 0.0, 0.0, 15.0, 65.0, 161.0, 0.0, 0.0, 0.0, 1.6878033636989727E9, 0.0, 2023-06-26 13:16:03.698
187.0, 48804.78814897396, 54949.26034799342, 79767.34098998798, 2511.5090622316675, -1270.8978379843043, -4440.017573835561, 26698.063516385977, 19385.1762277098, 0.0, 0.0, 0.0, 196.0, 2.0, 16.0, 0.0, 15.0, 65.0, 165.0, 0.0, 0.0, 0.0, 1.6878033637019796E9, 0.0, 2023-06-26 13:16:03.701
188.0, 48898.21844079714, 55033.77229377894, 76370.56873685941, 2630.0850665670714, -1165.330548921889, -4288.986836551051, 26782.039020304564, 19497.560798831084, 0.0, 0.0, 0.0, 196.0, 30.0, 32.0, 0.0, 15.0, 65.0, 169.0, 0.0, 0.0, 0.0, 1.687803363705989E9, 0.0, 2023-06-26 13:16:03.705
189.0, 48873.60917015185, 55022.99875295148, 76158.56244070083, 2609.9014413239292, -1126.9526036921268, -4320.592203210856, 26832.889238940388, 19514.928104272854, 0.0, 0.0, 0.0, 196.0, 6.0, 48.0, 0.0, 15.0, 65.0, 173.0, 0.0, 0.0, 0.0, 1.6878033637090232E9, 0.0, 2023-06-26 13:16:03.709
190.0, 48766.097279321824, 54924.852243048226, 79582.96144997615, 2487.3468264754806, -1226.90960489626, -4435.97190808915, 26763.129444495375, 19418.145050781375, 0.0, 0.0, 0.0, 196.0, 0.0, 0.0, 0.0, 15.0, 65.0, 177.0, 0.0, 0.0, 0.0, 1.6878033637120366E9, 0.0, 2023-06-26 13:16:03.712
191.0, 48769.02535784547, 54915.889193521645, 80208.98910868038, 2475.522753658623, -1285.649989324807, -4454.523855987055, 26691.827379682945, 19371.943994992256, 0.0, 0.0, 0.0, 196.0, 0.0, 0.0, 0.0, 15.0, 65.0, 181.0, 0.0, 0.0, 0.0, 1.687803363716051E9, 0.0, 2023-06-26 13:16:03.716
192.0, 48871.0834230284, 55008.49247079998, 76928.9600168419, 2598.9267347963732, -1190.364502711833, -4330.76224693802, 26758.97202002669, 19476.66191776537, 0.0, 0.0, 0.0, 196.0, 0.0, 0.0, 0.0, 15.0, 65.0, 185.0, 0.0, 0.0, 0.0, 1.687803363719082E9, 0.0, 2023-06-26 13:16:03.719
193.0, 48874.50323993007, 55023.31167737385, 75856.76918706528, 2619.3338774840686, -1125.3432780913447, -4309.058703071917, 26833.06805289603, 19526.953342789813, 0.0, 0.0, 0.0, 196.0, 0.0, 0.0, 0.0, 15.0, 65.0, 189.0, 0.0, 0.0, 0.0, 1.6878033637230952E9, 0.0, 2023-06-26 13:16:03.723
194.0, 48772.80280265842, 54933.97175478599, 79070.32419089368, 2504.9376493618074, -1212.5597849559529, -4429.199329519192, 26774.35002021194, 19431.913725365845, 0.0, 0.0, 0.0, 196.0, 0.0, 0.0, 0.0, 15.0, 65.0, 193.0, 0.0, 0.0, 0.0, 1.6878033637260978E9, 0.0, 2023-06-26 13:16:03.726
195.0, 48744.10316277781, 54893.62685604416, 80529.8036968474, 2460.547084873567, -1296.4905853856308, -4472.069975384471, 26689.368687792863, 19354.956669206225, 0.0, 0.0, 0.0, 196.0, 0.0, 0.0, 0.0, 15.0, 65.0, 197.0, 0.0, 0.0, 0.0, 1.6878033637291908E9, 0.0, 2023-06-26 13:16:03.729
196.0, 48853.626710608805, 54990.275799068906, 77563.34722797242, 2583.660493333399, -1219.198253059179, -4358.679575762699, 26734.183935425754, 19429.119757308934, 0.0, 0.0, 0.0, 196.0, 0.0, 0.0, 0.0, 15.0, 65.0, 201.0, 0.0, 0.0, 0.0, 1.6878033637331996E9, 0.0, 2023-06-26 13:16:03.733
197.0, 48881.70050164467, 55027.804378009365, 75665.23708882775, 2639.271633538203, -1133.3675543508, -4304.633057669766, 26826.273122581617, 19522.035959009645, 0.0, 0.0, 0.0, 196.0, 2.0, 32.0, 0.0, 15.0, 65.0, 205.0, 0.0, 0.0, 0.0, 1.6878033637362063E9, 0.0, 2023-06-26 13:16:03.736
198.0, 48789.34309355535, 54950.19912126054, 78448.61041886931, 2537.1241613774496, -1196.6006394148635, -4397.482204137112, 26790.085648308475, 19473.04093516361, 0.0, 0.0, 0.0, 196.0, 29.0, 240.0, 0.0, 15.0, 65.0, 209.0, 0.0, 0.0, 0.0, 1.687803363739195E9, 0.0, 2023-06-26 13:16:03.739
199.0, 48742.58324415484, 54896.55493456781, 80623.39045088178, 2478.853163582464, -1287.9522190037035, -4453.830951908941, 26705.86427520088, 19396.039175515078, 0.0, 0.0, 0.0, 196.0, 6.0, 16.0, 0.0, 15.0, 65.0, 213.0, 0.0, 0.0, 0.0, 1.687803363743196E9, 0.0, 2023-06-26 13:16:03.743
200.0, 48836.9746609896, 54975.031909350386, 78213.58182592176, 2579.03368223115, -1243.584006259919, -4368.670805534221, 26721.24227538613, 19442.79902491558, 0.0, 0.0, 0.0, 196.0, 0.0, 0.0, 0.0, 15.0, 65.0, 217.0, 0.0, 0.0, 0.0, 1.6878033637462213E9, 0.0, 2023-06-26 13:16:03.746
201.0, 48884.82974586842, 55023.9375262186, 75665.99704813922, 2655.3425378015686, -1148.007946969026, -4298.776900622475, 26816.7289276992, 19531.647209125425, 0.0, 0.0, 0.0, 196.0, 0.0, 0.0, 0.0, 15.0, 65.0, 221.0, 0.0, 0.0, 0.0, 1.6878033637492213E9, 0.0, 2023-06-26 13:16:03.749
202.0, 48809.34790484285, 54966.53824645737, 77803.53907388914, 2574.563333340089, -1177.9145810502268, -4377.075061449416, 26809.196389817764, 19483.546255057605, 0.0, 0.0, 0.0, 196.0, 0.0, 0.0, 0.0, 15.0, 65.0, 225.0, 0.0, 0.0, 0.0, 1.6878033637532423E9, 0.0, 2023-06-26 13:16:03.753
203.0, 48732.3014417054, 54888.57536179726, 80611.8793024873, 2486.0951287859834, -1285.2700096690667, -4455.350870531902, 26722.248103886617, 19400.46482091723, 0.0, 0.0, 0.0, 196.0, 0.0, 0.0, 0.0, 15.0, 65.0, 229.0, 0.0, 0.0, 0.0, 1.687803363756255E9, 0.0, 2023-06-26 13:16:03.756
204.0, 48809.21379437611, 54950.154417771635, 78890.124427095, 2553.999728441206, -1268.685015283229, -4398.1974599596815, 26705.551350778504, 19413.65235014586, 0.0, 0.0, 0.0, 196.0, 0.0, 0.0, 0.0, 15.0, 65.0, 233.0, 0.0, 0.0, 0.0, 1.6878033637592673E9, 0.0, 2023-06-26 13:16:03.759
205.0, 48876.090213786396, 55015.37680809222, 75840.07243395716, 2644.0325551071833, -1163.3188919209115, -4315.294839774948, 26803.608453703935, 19513.877572283458, 0.0, 0.0, 0.0, 196.0, 0.0, 0.0, 0.0, 15.0, 65.0, 237.0, 0.0, 0.0, 0.0, 1.6878033637622998E9, 0.0, 2023-06-26 13:16:03.762
206.0, 48826.33523062888, 54981.58097047579, 77215.84465692576, 2593.9646475272953, -1166.3810809112886, -4358.634872273788, 26820.729889956703, 19496.152638930398, 0.0, 0.0, 0.0, 196.0, 0.0, 0.0, 0.0, 15.0, 65.0, 241.0, 0.0, 0.0, 0.0, 1.687803363766302E9, 0.0, 2023-06-26 13:16:03.766
207.0, 48742.80676159939, 54899.035978202344, 80406.7796953654, 2491.392492221891, -1272.6859775407288, -4465.565617747977, 26737.648455816325, 19399.950730794757, 0.0, 0.0, 0.0, 196.0, 2.0, 32.0, 0.0, 15.0, 65.0, 245.0, 0.0, 0.0, 0.0, 1.6878033637693236E9, 0.0, 2023-06-26 13:16:03.769
208.0, 48797.076797136884, 54937.25746122092, 79461.54677409492, 2533.436123542324, -1283.5265736015529, -4433.937899343718, 26696.878873929843, 19389.914797534322, 0.0, 0.0, 0.0, 196.0, 30.0, 48.0, 0.0, 15.0, 65.0, 249.0, 0.0, 0.0, 0.0, 1.6878033637733467E9, 0.0, 2023-06-26 13:16:03.773
209.0, 48887.735472647604, 55019.288363371896, 76124.69954785104, 2648.324090042602, -1162.3577669093331, -4317.038275842461, 26793.147837298853, 19506.389737890928, 0.0, 0.0, 0.0, 196.0, 6.0, 96.0, 0.0, 15.0, 65.0, 253.0, 0.0, 0.0, 0.0, 1.6878033637773414E9, 0.0, 2023-06-26 13:16:03.777
210.0, 48842.54024535898, 54990.49931651346, 76639.54962963458, 2602.972400542784, -1151.6736330596964, -4373.990520714584, 26818.047680622065, 19493.358670873484, 0.0, 0.0, 0.0, 196.0, 0.0, 0.0, 0.0, 15.0, 66.0, 1.0, 0.0, 0.0, 0.0, 1.687803363783393E9, 0.0, 2023-06-26 13:16:03.783
211.0, 48743.097334277314, 54899.41595785809, 80057.6454469735, 2484.7987276075755, -1265.779288504039, -4489.4149290817895, 26740.57653433997, 19390.384184167884, 0.0, 0.0, 0.0, 196.0, 0.0, 0.0, 0.0, 15.0, 66.0, 5.0, 0.0, 0.0, 0.0, 1.687803363787397E9, 0.0, 2023-06-26 13:16:03.787
212.0, 48780.13417483976, 54921.72299882448, 79965.77977726219, 2514.303030288581, -1286.5440591030192, -4468.270178827069, 26687.893472658812, 19347.804110980524, 0.0, 0.0, 0.0, 196.0, 0.0, 0.0, 0.0, 15.0, 66.0, 9.0, 0.0, 0.0, 0.0, 1.6878033637914188E9, 0.0, 2023-06-26 13:16:03.791
213.0, 48872.513934673545, 55006.771386476925, 76596.56722504702, 2641.842084150563, -1181.8037845854503, -4335.970203396107, 26769.656153876324, 19473.264452608164, 0.0, 0.0, 0.0, 196.0, 0.0, 0.0, 0.0, 15.0, 66.0, 13.0, 0.0, 0.0, 0.0, 1.6878033638024855E9, 0.0, 2023-06-26 13:16:03.802
214.0, 48862.94738804667, 55011.19703187908, 76202.52832204441, 2638.8469503935517, -1136.4073915967217, -4334.629098728788, 26827.34600631547, 19519.37610141946, 0.0, 0.0, 0.0, 196.0, 0.0, 0.0, 0.0, 15.0, 66.0, 17.0, 0.0, 0.0, 0.0, 1.687803363806504E9, 0.0, 2023-06-26 13:16:03.806
215.0, 48761.40341298621, 54918.481995878465, 79573.3278481159, 2522.4390652703128, -1231.581119487419, -4457.429582766245, 26759.240240960153, 19415.84282110248, 0.0, 0.0, 0.0, 196.0, 0.0, 0.0, 0.0, 15.0, 66.0, 21.0, 0.0, 0.0, 0.0, 1.687803363809522E9, 0.0, 2023-06-26 13:16:03.809
216.0, 48757.93889259564, 54902.8581265042, 80370.45811062552, 2503.909469116863, -1299.5080708870973, -4487.693844758731, 26687.13351334733, 19362.31039313202, 0.0, 0.0, 0.0, 196.0, 0.0, 0.0, 0.0, 15.0, 66.0, 25.0, 0.0, 0.0, 0.0, 1.6878033638135505E9, 0.0, 2023-06-26 13:16:03.813
217.0, 48852.88910304179, 54985.55958098884, 77161.08288301025, 2621.2561275072253, -1223.780360672517, -4353.136343137782, 26743.214040185696, 19454.46663552125, 0.0, 0.0, 0.0, 196.0, 1.0, 224.0, 0.0, 15.0, 66.0, 29.0, 0.0, 0.0, 0.0, 1.6878033638165655E9, 0.0, 2023-06-26 13:16:03.816
218.0, 48862.74622234658, 55010.28061035641, 75887.14520778003, 2645.574825474599, -1146.1304004347803, -4332.684496961177, 26824.17205860282, 19512.268246682674, 0.0, 0.0, 0.0, 196.0, 30.0, 96.0, 0.0, 15.0, 66.0, 33.0, 0.0, 0.0, 0.0, 1.6878033638195624E9, 0.0, 2023-06-26 13:16:03.819
219.0, 48764.644415932235, 54925.20987095951, 79033.37675730906, 2538.912300933874, -1213.7444274120842, -4441.895120369807, 26782.77662787159, 19433.32188526653, 0.0, 0.0, 0.0, 196.0, 6.0, 48.0, 0.0, 15.0, 66.0, 37.0, 0.0, 0.0, 0.0, 1.6878033638366368E9, 0.0, 2023-06-26 13:16:03.836
220.0, 48734.98365104004, 54885.1555448956, 80629.3807183958, 2493.5606114340558, -1299.4410156537315, -4484.2516761126135, 26703.360879821885, 19365.238471655666, 0.0, 0.0, 0.0, 196.0, 0.0, 0.0, 0.0, 15.0, 66.0, 41.0, 0.0, 0.0, 0.0, 1.6878033638406563E9, 0.0, 2023-06-26 13:16:03.840
221.0, 48833.39838187676, 54970.896836626154, 77780.94146024484, 2600.13372899696, -1232.586947987908, -4381.277189407014, 26733.088699947442, 19429.27621952012, 0.0, 0.0, 0.0, 196.0, 0.0, 0.0, 0.0, 15.0, 66.0, 45.0, 0.0, 0.0, 0.0, 1.6878033638446765E9, 0.0, 2023-06-26 13:16:03.844
222.0, 48875.0843852859, 55019.13190116071, 75739.80250833066, 2659.3211483146133, -1135.1556939072245, -4312.076188573384, 26829.7823464611, 19521.72303458727, 0.0, 0.0, 0.0, 196.0, 0.0, 0.0, 0.0, 15.0, 66.0, 49.0, 0.0, 0.0, 0.0, 1.6878033638487031E9, 0.0, 2023-06-26 13:16:03.848
223.0, 48788.13609935476, 54946.26521423641, 78406.70089801561, 2564.2144756572816, -1192.1079387793468, -4410.535622899011, 26810.269273551618, 19463.921423425847, 0.0, 0.0, 0.0, 196.0, 0.0, 0.0, 0.0, 15.0, 66.0, 53.0, 0.0, 0.0, 0.0, 1.687803363851714E9, 0.0, 2023-06-26 13:16:03.851
224.0, 48736.950604552105, 54891.570495554275, 80743.97811221816, 2495.751082390676, -1293.7860243065388, -4475.467440541678, 26720.012929441087, 19375.676736316294, 0.0, 0.0, 0.0, 196.0, 0.0, 0.0, 0.0, 15.0, 66.0, 57.0, 0.0, 0.0, 0.0, 1.6878033638547263E9, 0.0, 2023-06-26 13:16:03.854
225.0, 48833.19721617666, 54969.66749068112, 78446.75522407952, 2586.4768131347673, -1255.1175063988576, -4383.020625474528, 26726.85256324441, 19423.084786306, 0.0, 0.0, 0.0, 196.0, 0.0, 0.0, 0.0, 15.0, 66.0, 61.0, 0.0, 0.0, 0.0, 1.6878033638587332E9, 0.0, 2023-06-26 13:16:03.858
226.0, 48886.50612670257, 55024.116340174245, 75781.57791871762, 2665.132601872993, -1155.7416505505623, -4308.678723416177, 26832.911590684846, 19535.111729516, 0.0, 0.0, 0.0, 196.0, 0.0, 0.0, 0.0, 15.0, 66.0, 65.0, 0.0, 0.0, 0.0, 1.6878033638617504E9, 0.0, 2023-06-26 13:16:03.861
227.0, 48812.20892813313, 54968.70636566954, 77790.865634783, 2586.901496279418, -1185.782395098495, -4404.858279807363, 26831.54813427307, 19501.874685510957, 0.0, 0.0, 0.0, 196.0, 1.0, 240.0, 0.0, 15.0, 66.0, 69.0, 0.0, 0.0, 0.0, 1.6878033638657737E9, 0.0, 2023-06-26 13:16:03.865
228.0, 48740.526883664956, 54895.45969908949, 80669.23387875961, 2506.457567984768, -1292.0649399834801, -4444.68908842672, 26743.929296008268, 19412.445355945274, 0.0, 0.0, 0.0, 196.0, 30.0, 96.0, 0.0, 15.0, 66.0, 73.0, 0.0, 0.0, 0.0, 1.6878033638687978E9, 0.0, 2023-06-26 13:16:03.868
229.0, 48815.62874503479, 54956.81523761931, 79095.98399352837, 2574.6974438068205, -1280.3526258888992, -4379.712567295142, 26722.426917842262, 19417.89918159237, 0.0, 0.0, 0.0, 196.0, 6.0, 48.0, 0.0, 15.0, 66.0, 77.0, 0.0, 0.0, 0.0, 1.687803363871812E9, 0.0, 2023-06-26 13:16:03.871
230.0, 48885.25442901307, 55024.541023318896, 75988.17509271803, 2674.900314199962, -1173.5112873925314, -4289.27740922897, 26820.908703912344, 19528.182688734854, 0.0, 0.0, 0.0, 196.0, 0.0, 0.0, 0.0, 15.0, 66.0, 80.0, 0.0, 0.0, 0.0, 1.6878033638758178E9, 0.0, 2023-06-26 13:16:03.875
231.0, 48835.119466199816, 54989.225267079506, 77203.48414224197, 2618.462159450312, -1166.291673933467, -4355.438572816679, 26839.862983210445, 19506.635607079937, 0.0, 0.0, 0.0, 196.0, 0.0, 0.0, 0.0, 15.0, 66.0, 84.0, 0.0, 0.0, 0.0, 1.6878033638788347E9, 0.0, 2023-06-26 13:16:03.878
232.0, 48746.65126164571, 54901.51702183688, 80461.9438006811, 2516.3146872895586, -1266.941579215715, -4454.389745520323, 26760.737807838657, 19411.394823955874, 0.0, 0.0, 0.0, 196.0, 0.0, 0.0, 0.0, 15.0, 66.0, 88.0, 0.0, 0.0, 0.0, 1.6878033638818407E9, 0.0, 2023-06-26 13:16:03.881
233.0, 48797.03209364797, 54938.598565888235, 79709.87465499339, 2558.4477255878123, -1281.2690474115668, -4424.572518416943, 26717.777754995557, 19400.353062194954, 0.0, 0.0, 0.0, 196.0, 0.0, 0.0, 0.0, 15.0, 66.0, 92.0, 0.0, 0.0, 0.0, 1.6878033638858712E9, 0.0, 2023-06-26 13:16:03.885
234.0, 48889.61301918185, 55025.569203563835, 76341.51146906751, 2675.7273287448083, -1177.3557874388441, -4324.727275935087, 26804.34606127096, 19507.172048946864, 0.0, 0.0, 0.0, 196.0, 0.0, 0.0, 0.0, 15.0, 66.0, 96.0, 0.0, 0.0, 0.0, 1.6878033638888953E9, 0.0, 2023-06-26 13:16:03.888
235.0, 48863.975568291615, 55012.784005735404, 76667.37755148143, 2651.5650929886215, -1151.9195022487047, -4342.742781966064, 26844.959180946254, 19514.212848450286, 0.0, 0.0, 0.0, 196.0, 0.0, 0.0, 0.0, 15.0, 66.0, 100.0, 0.0, 0.0, 0.0, 1.6878033638918943E9, 0.0, 2023-06-26 13:16:03.891
236.0, 48758.09535480683, 54909.474242862976, 80100.22552016086, 2528.228167084237, -1278.3186171434663, -4462.861056668885, 26760.894270049845, 19406.41038494234, 0.0, 0.0, 0.0, 196.0, 0.0, 0.0, 0.0, 15.0, 66.0, 104.0, 0.0, 0.0, 0.0, 1.6878033638949177E9, 0.0, 2023-06-26 13:16:03.894
237.0, 48781.341169040345, 54916.24682143293, 80200.3836870651, 2531.871501430452, -1300.1115679873906, -4466.3479288039125, 26695.60482449589, 19365.88667224487, 0.0, 0.0, 0.0, 196.0, 1.0, 224.0, 0.0, 15.0, 66.0, 108.0, 0.0, 0.0, 0.0, 1.6878033638989534E9, 0.0, 2023-06-26 13:16:03.898
238.0, 48878.77242312103, 55003.418624808626, 76825.94082664739, 2651.8780174109957, -1182.3849299412884, -4344.173293611204, 26769.231470731673, 19471.34220258501, 0.0, 0.0, 0.0, 196.0, 29.0, 208.0, 0.0, 15.0, 66.0, 112.0, 0.0, 0.0, 0.0, 1.68780336390196E9, 0.0, 2023-06-26 13:16:03.901
239.0, 48863.72969910261, 55000.73641547399, 76255.21138372557, 2657.5330087581883, -1134.2839758734674, -4344.821494200408, 26834.45386105226, 19507.90965651389, 0.0, 0.0, 0.0, 196.0, 6.0, 80.0, 0.0, 15.0, 66.0, 116.0, 0.0, 0.0, 0.0, 1.687803363904968E9, 0.0, 2023-06-26 13:16:03.904
240.0, 48755.94958733912, 54904.37804512716, 79624.51334291857, 2537.9511759222955, -1225.0767618509249, -4454.4344490092335, 26774.35002021194, 19422.146013038877, 0.0, 0.0, 0.0, 196.0, 0.0, 0.0, 0.0, 15.0, 66.0, 120.0, 0.0, 0.0, 0.0, 1.687803363909048E9, 0.0, 2023-06-26 13:16:03.909
241.0, 48753.245026260025, 54889.49178331993, 80574.66364796921, 2520.136835591416, -1292.288457428033, -4483.670530756775, 26705.439592056227, 19369.015916468612, 0.0, 0.0, 0.0, 196.0, 0.0, 0.0, 0.0, 15.0, 66.0, 124.0, 0.0, 0.0, 0.0, 1.687803363912006E9, 0.0, 2023-06-26 13:16:03.912
242.0, 48854.409021664746, 54978.54113322987, 77388.48953109856, 2641.260938794725, -1207.4412354756876, -4368.469639834123, 26764.403493929327, 19461.127455368933, 0.0, 0.0, 0.0, 196.0, 0.0, 0.0, 0.0, 15.0, 66.0, 128.0, 0.0, 0.0, 0.0, 1.687803363915018E9, 0.0, 2023-06-26 13:16:03.915
243.0, 48864.04262352498, 54996.69074972758, 75964.4822435954, 2671.614607765032, -1130.0147926825039, -4320.323982277391, 26849.16130890385, 19529.948476546822, 0.0, 0.0, 0.0, 196.0, 0.0, 0.0, 0.0, 15.0, 66.0, 132.0, 0.0, 0.0, 0.0, 1.6878033639190457E9, 0.0, 2023-06-26 13:16:03.919
244.0, 48753.31208149339, 54901.31585613679, 79041.37868182406, 2549.3729173389574, -1208.5364709539977, -4438.944690101706, 26796.522950711606, 19443.402522015873, 0.0, 0.0, 0.0, 196.0, 0.0, 0.0, 0.0, 15.0, 66.0, 136.0, 0.0, 0.0, 0.0, 1.6878033639220634E9, 0.0, 2023-06-26 13:16:03.922
245.0, 48729.5521771374, 54867.788239453825, 80802.42792396879, 2508.8939081303965, -1289.7403585601282, -4479.244885354625, 26717.174257895265, 19378.560111351027, 0.0, 0.0, 0.0, 196.0, 0.0, 0.0, 0.0, 15.0, 66.0, 140.0, 0.0, 0.0, 0.0, 1.6878033639250755E9, 0.0, 2023-06-26 13:16:03.925
246.0, 48832.303146398444, 54957.39638297515, 78047.53071636328, 2615.42232220439, -1225.9484798846818, -4384.562895841944, 26745.71743556469, 19445.79415867259, 0.0, 0.0, 0.0, 196.0, 0.0, 0.0, 0.0, 15.0, 66.0, 144.0, 0.0, 0.0, 0.0, 1.6878033639280713E9, 0.0, 2023-06-26 13:16:03.928
247.0, 48858.72290834462, 54991.326331058306, 75873.42123668447, 2668.977101919306, -1150.7795632814841, -4317.418255498202, 26831.771651717623, 19522.840621810035, 0.0, 0.0, 0.0, 196.0, 1.0, 224.0, 0.0, 15.0, 66.0, 148.0, 0.0, 0.0, 0.0, 1.6878033639320955E9, 0.0, 2023-06-26 13:16:03.932
248.0, 48777.18374457166, 54923.712304081004, 78408.48903757204, 2574.0939467065273, -1191.817366101428, -4417.06233227996, 26807.430602005792, 19458.467597778752, 0.0, 0.0, 0.0, 196.0, 29.0, 224.0, 0.0, 15.0, 66.0, 152.0, 0.0, 0.0, 0.0, 1.6878033639351845E9, 0.0, 2023-06-26 13:16:03.935
249.0, 48729.44041841512, 54867.74353596492, 80836.6260929854, 2515.9570593782737, -1282.1854689342344, -4478.373167320868, 26728.77481326757, 19385.332689920986, 0.0, 0.0, 0.0, 196.0, 6.0, 112.0, 0.0, 15.0, 66.0, 156.0, 0.0, 0.0, 0.0, 1.6878033639382E9, 0.0, 2023-06-26 13:16:03.938
250.0, 48812.61125953332, 54937.52568215438, 78690.56805259801, 2601.3183714530915, -1257.5314948000307, -4405.01474201855, 26727.05372894451, 19425.94580959628, 0.0, 0.0, 0.0, 196.0, 0.0, 0.0, 0.0, 15.0, 66.0, 160.0, 0.0, 0.0, 0.0, 1.687803363941197E9, 0.0, 2023-06-26 13:16:03.941
251.0, 48876.17962076421, 55002.74807247497, 75904.95954811091, 2690.0100934517495, -1154.3111389054227, -4312.702037418132, 26826.54134351508, 19530.931953302857, 0.0, 0.0, 0.0, 196.0, 0.0, 0.0, 0.0, 15.0, 66.0, 164.0, 0.0, 0.0, 0.0, 1.687803363945191E9, 0.0, 2023-06-26 13:16:03.945
252.0, 48811.91835545521, 54954.71417364052, 77746.72093948376, 2618.819787361597, -1177.0652147609253, -4387.736843554598, 26822.294512068573, 19486.72020277026, 0.0, 0.0, 0.0, 196.0, 0.0, 0.0, 0.0, 15.0, 66.0, 168.0, 0.0, 0.0, 0.0, 1.6878033639491904E9, 0.0, 2023-06-26 13:16:03.949
253.0, 48731.63088937174, 54873.107954634186, 80728.555408544, 2528.272870573148, -1289.4050823932985, -4479.513106288088, 26736.396758126826, 19392.7758208246, 0.0, 0.0, 0.0, 196.0, 0.0, 0.0, 0.0, 15.0, 66.0, 172.0, 0.0, 0.0, 0.0, 1.6878033639541984E9, 0.0, 2023-06-26 13:16:03.954
254.0, 48804.58698327387, 54927.981487271965, 79320.79783925985, 2591.41654865939, -1280.8443642669158, -4429.914585341762, 26711.206342125697, 19398.654329616347, 0.0, 0.0, 0.0, 196.0, 0.0, 0.0, 0.0, 15.0, 66.0, 176.0, 0.0, 0.0, 0.0, 1.6878033639582236E9, 0.0, 2023-06-26 13:16:03.958
255.0, 48883.89097260129, 55003.26216259744, 76129.43811767556, 2693.8322417536074, -1169.5773803683974, -4324.481406746078, 26807.296491539062, 19509.071947225566, 0.0, 0.0, 0.0, 196.0, 0.0, 0.0, 0.0, 15.0, 66.0, 180.0, 0.0, 0.0, 0.0, 1.6878033639622536E9, 0.0, 2023-06-26 13:16:03.962
0.0, 48833.75600978804, 54970.896836626154, 77168.48131042496, 2647.742944686764, -1164.458830888132, -4368.268474134025, 26832.17398311782, 19497.739612786725, 0.0, 0.0, 0.0, 196.0, 0.0, 0.0, 0.0, 15.0, 66.0, 184.0, 0.0, 0.0, 0.0, 1.6878033639652598E9, 0.0, 2023-06-26 13:16:03.965
1.0, 48747.098296534816, 54886.69781526302, 80479.93695496762, 2546.221321370759, -1261.6442157798072, -4469.723042216664, 26754.904002535823, 19407.393861698372, 0.0, 0.0, 0.0, 196.0, 0.0, 0.0, 0.0, 15.0, 66.0, 188.0, 0.0, 0.0, 0.0, 1.687803363969276E9, 0.0, 2023-06-26 13:16:03.969
2.0, 48790.304218566926, 54914.972771998975, 79893.00249731571, 2578.3407781530354, -1288.9133440152818, -4448.555940217489, 26706.95951067919, 19381.845817785957, 0.0, 0.0, 0.0, 196.0, 0.0, 0.0, 0.0, 15.0, 66.0, 192.0, 0.0, 0.0, 0.0, 1.687803363972284E9, 0.0, 2023-06-26 13:16:03.972
3.0, 48882.34870223388, 54998.74711021747, 76516.50327640811, 2698.615515067043, -1176.5064211495426, -4330.583432982377, 26803.608453703935, 19493.47042959576, 0.0, 0.0, 0.0, 196.0, 0.0, 0.0, 0.0, 15.0, 66.0, 196.0, 0.0, 0.0, 0.0, 1.6878033639763153E9, 0.0, 2023-06-26 13:16:03.976
4.0, 48852.88910304179, 54983.212647821034, 76641.42717616883, 2674.3191688441243, -1143.6717085446965, -4353.426915815701, 26847.93196295881, 19509.407223392394, 0.0, 0.0, 0.0, 196.0, 0.0, 0.0, 0.0, 15.0, 66.0, 200.0, 0.0, 0.0, 0.0, 1.6878033639873755E9, 0.0, 2023-06-26 13:16:03.987
5.0, 48753.28972974893, 54890.162335653586, 80071.65999074698, 2562.2698738896697, -1239.6053957468744, -4460.201199078703, 26780.49674993715, 19420.871963604925, 0.0, 0.0, 0.0, 196.0, 0.0, 0.0, 0.0, 15.0, 66.0, 204.0, 0.0, 0.0, 0.0, 1.6878033639903853E9, 0.0, 2023-06-26 13:16:03.990
6.0, 48768.64537818973, 54893.11276592169, 80365.16074718961, 2564.728565779754, -1284.3759398908544, -4464.112754358382, 26719.074156173963, 19379.096553217954, 0.0, 0.0, 0.0, 196.0, 0.0, 0.0, 0.0, 15.0, 66.0, 208.0, 0.0, 0.0, 0.0, 1.6878033639944012E9, 0.0, 2023-06-26 13:16:03.994
7.0, 48862.45564966866, 54974.11548782772, 77033.40971868155, 2679.5941805355765, -1193.5160986800313, -4350.096505891861, 26786.419962217806, 19477.935967199322, 0.0, 0.0, 0.0, 196.0, 1.0, 192.0, 0.0, 15.0, 66.0, 212.0, 0.0, 0.0, 0.0, 1.687803363997408E9, 0.0, 2023-06-26 13:16:03.997
8.0, 48860.3322339454, 54983.74908968796, 76259.79349133892, 2690.837107996596, -1128.6736880151855, -4337.825398185897, 26855.822128751533, 19530.686084113848, 0.0, 0.0, 0.0, 196.0, 30.0, 32.0, 0.0, 15.0, 66.0, 216.0, 0.0, 0.0, 0.0, 1.6878033640004296E9, 0.0, 2023-06-26 13:16:04.000
9.0, 48760.732860652555, 54892.84454498823, 79562.10727239934, 2573.9821879842507, -1208.8046918874613, -4438.989393590617, 26804.16724731532, 19450.108045352466, 0.0, 0.0, 0.0, 196.0, 6.0, 144.0, 0.0, 15.0, 66.0, 220.0, 0.0, 0.0, 0.0, 1.6878033640044525E9, 0.0, 2023-06-26 13:16:04.004
10.0, 48745.757191867495, 54866.469486530965, 80699.92282389675, 2541.16982712386, -1280.8667160113712, -4464.69389971422, 26726.405528355306, 19387.65727134434, 0.0, 0.0, 0.0, 196.0, 0.0, 0.0, 0.0, 15.0, 66.0, 224.0, 0.0, 0.0, 0.0, 1.6878033640074573E9, 0.0, 2023-06-26 13:16:04.007
11.0, 48841.44500988067, 54950.8696735942, 77613.88452218586, 2654.8060959346412, -1201.6744854062183, -4351.772886726008, 26772.763046355612, 19472.19156887431, 0.0, 0.0, 0.0, 196.0, 0.0, 0.0, 0.0, 15.0, 66.0, 228.0, 0.0, 0.0, 0.0, 1.6878033640255601E9, 0.0, 2023-06-26 13:16:04.025
12.0, 48859.57227463392, 54974.8754471392, 76008.64929063908, 2683.192811392881, -1122.45990305661, -4319.698133432643, 26856.090349684997, 19536.363427205495, 0.0, 0.0, 0.0, 196.0, 0.0, 0.0, 0.0, 15.0, 66.0, 232.0, 0.0, 0.0, 0.0, 1.6878033640285735E9, 0.0, 2023-06-26 13:16:04.028
13.0, 48763.392718242736, 54892.48691707694, 78954.27393368172, 2571.7470135387202, -1186.4752991766095, -4422.449102693689, 26816.795982932566, 19458.869929178945, 0.0, 0.0, 0.0, 196.0, 0.0, 0.0, 0.0, 15.0, 66.0, 236.0, 0.0, 0.0, 0.0, 1.687803364032589E9, 0.0, 2023-06-26 13:16:04.032
14.0, 48722.04199100041, 54844.76594266486, 80855.06628216103, 2516.3817425229245, -1272.1718874182568, -4473.07580388496, 26736.799089527023, 19388.75250682265, 0.0, 0.0, 0.0, 196.0, 0.0, 0.0, 0.0, 15.0, 66.0, 240.0, 0.0, 0.0, 0.0, 1.6878033640356052E9, 0.0, 2023-06-26 13:16:04.035
15.0, 48815.58404154587, 54923.89111803665, 78229.45156448503, 2614.3941419594457, -1225.881424651316, -4384.138212697293, 26755.798072314035, 19444.7883301721, 0.0, 0.0, 0.0, 196.0, 0.0, 0.0, 0.0, 15.0, 66.0, 244.0, 0.0, 0.0, 0.0, 1.6878033640386117E9, 0.0, 2023-06-26 13:16:04.038
16.0, 48857.65002461076, 54971.99207210447, 75912.89441739254, 2679.6612357689423, -1131.914690961205, -4316.770054908998, 26851.21766939374, 19531.468395169784, 0.0, 0.0, 0.0, 196.0, 0.0, 0.0, 0.0, 15.0, 66.0, 248.0, 0.0, 0.0, 0.0, 1.6878033640426197E9, 0.0, 2023-06-26 13:16:04.042
17.0, 48782.65992196321, 54913.721074309484, 78318.43385916161, 2595.551621383622, -1163.4753541320986, -4399.605619860366, 26838.097195398474, 19482.741592257215, 0.0, 0.0, 0.0, 196.0, 1.0, 176.0, 0.0, 15.0, 66.0, 252.0, 0.0, 0.0, 0.0, 1.687803364045632E9, 0.0, 2023-06-26 13:16:04.045
18.0, 48722.57843286735, 54849.3480502782, 80879.18381442831, 2520.06978035805, -1267.2992071269998, -4473.321673073969, 26749.070197232988, 19397.872018560414, 0.0, 0.0, 0.0, 196.0, 30.0, 64.0, 0.0, 15.0, 67.0, 0.0, 0.0, 0.0, 0.0, 1.687803364048666E9, 0.0, 2023-06-26 13:16:04.048
19.0, 48806.91156469722, 54917.09618772223, 78876.98160135528, 2597.719740595787, -1250.714212741162, -4405.819404818941, 26736.508516849106, 19420.1343560379, 0.0, 0.0, 0.0, 196.0, 6.0, 224.0, 0.0, 15.0, 67.0, 4.0, 0.0, 0.0, 0.0, 1.6878033640526843E9, 0.0, 2023-06-26 13:16:04.052
20.0, 48864.93669330319, 54975.18837156158, 75995.39470617709, 2683.7516050042636, -1156.2780924174897, -4321.508624733523, 26836.01848316413, 19523.53352588815, 0.0, 0.0, 0.0, 196.0, 0.0, 0.0, 0.0, 15.0, 67.0, 8.0, 0.0, 0.0, 0.0, 1.6878033640556772E9, 0.0, 2023-06-26 13:16:04.055
21.0, 48799.62489600479, 54926.34980992673, 77671.10498799145, 2606.8839558224627, -1181.3567496963442, -4406.557012385966, 26834.16328837434, 19479.791161989113, 0.0, 0.0, 0.0, 196.0, 0.0, 0.0, 0.0, 15.0, 67.0, 12.0, 0.0, 0.0, 0.0, 1.6878033640587008E9, 0.0, 2023-06-26 13:16:04.058
22.0, 48728.59105212582, 54853.751343935895, 80723.74978348611, 2520.8967949028965, -1279.5703148329635, -4486.240981369136, 26755.798072314035, 19392.507599891138, 0.0, 0.0, 0.0, 196.0, 0.0, 0.0, 0.0, 15.0, 67.0, 16.0, 0.0, 0.0, 0.0, 1.6878033640627291E9, 0.0, 2023-06-26 13:16:04.062
23.0, 48799.53548902697, 54911.15062369712, 79476.79066381343, 2587.884973035452, -1277.8715822543602, -4424.349000972391, 26729.802993512512, 19400.531876150595, 0.0, 0.0, 0.0, 196.0, 0.0, 0.0, 0.0, 15.0, 67.0, 20.0, 0.0, 0.0, 0.0, 1.6878033640657296E9, 0.0, 2023-06-26 13:16:04.065
24.0, 48881.67814990022, 54989.6275984797, 76229.57393283534, 2697.0508929551715, -1169.711490835129, -4318.848767143341, 26822.898009168865, 19509.496630370217, 0.0, 0.0, 0.0, 196.0, 0.0, 0.0, 0.0, 15.0, 67.0, 24.0, 0.0, 0.0, 0.0, 1.6878033640799353E9, 0.0, 2023-06-26 13:16:04.079
25.0, 48837.80167553445, 54962.62669117769, 77066.4455969865, 2651.453334266345, -1161.620159342308, -4366.793258999975, 26849.273067626127, 19498.119592442465, 0.0, 0.0, 0.0, 196.0, 0.0, 0.0, 0.0, 15.0, 67.0, 28.0, 0.0, 0.0, 0.0, 1.68780336408282E9, 0.0, 2023-06-26 13:16:04.082
26.0, 48743.90199707771, 54872.92914067855, 80430.49489623249, 2545.7966382261084, -1264.5275908145418, -4470.952388161706, 26772.003087044133, 19405.516315164128, 0.0, 0.0, 0.0, 196.0, 0.0, 0.0, 0.0, 15.0, 67.0, 32.0, 0.0, 0.0, 0.0, 1.6878033640878427E9, 0.0, 2023-06-26 13:16:04.087
27.0, 48784.53746849745, 54898.2089636575, 80028.1411442925, 2575.256237418203, -1294.2777626845555, -4446.4995797276, 26725.891438232833, 19382.046983486056, 0.0, 0.0, 0.0, 196.0, 2.0, 0.0, 0.0, 15.0, 67.0, 36.0, 0.0, 0.0, 0.0, 1.6878033640918694E9, 0.0, 2023-06-26 13:16:04.091
28.0, 48873.966798063135, 54979.25638905244, 76651.26194372916, 2686.7020352723644, -1198.656999904752, -4331.835130671875, 26805.128372326897, 19487.61427254847, 0.0, 0.0, 0.0, 196.0, 30.0, 64.0, 0.0, 15.0, 67.0, 40.0, 0.0, 0.0, 0.0, 1.687803364094889E9, 0.0, 2023-06-26 13:16:04.094
29.0, 48855.34779493187, 54974.40606050564, 76592.6780215118, 2680.5106020582443, -1158.6920808186628, -4337.870101674807, 26858.906669486365, 19534.955267304813, 0.0, 0.0, 0.0, 196.0, 6.0, 224.0, 0.0, 15.0, 67.0, 44.0, 0.0, 0.0, 0.0, 1.6878033640988984E9, 0.0, 2023-06-26 13:16:04.098
30.0, 48759.391755985234, 54884.5520477953, 80000.26851895673, 2570.875295504963, -1242.8911021818046, -4438.140027301315, 26797.662889678824, 19445.41417901685, 0.0, 0.0, 0.0, 196.0, 0.0, 0.0, 0.0, 15.0, 67.0, 48.0, 0.0, 0.0, 0.0, 1.6878033641019285E9, 0.0, 2023-06-26 13:16:04.101
31.0, 48772.042843346935, 54883.54621929482, 80461.16148962516, 2567.522533836667, -1287.5945910924186, -4441.269271525058, 26734.228638914665, 19399.83897207248, 0.0, 0.0, 0.0, 196.0, 0.0, 0.0, 0.0, 15.0, 67.0, 52.0, 0.0, 0.0, 0.0, 1.6878033641059406E9, 0.0, 2023-06-26 13:16:04.105
32.0, 48868.91530381624, 54968.08051682479, 77142.75445255691, 2690.9265149744174, -1196.2877149924893, -4319.0722845878945, 26803.58610195948, 19500.10889769899, 0.0, 0.0, 0.0, 196.0, 0.0, 0.0, 0.0, 15.0, 67.0, 56.0, 0.0, 0.0, 0.0, 1.6878033641089556E9, 0.0, 2023-06-26 13:16:04.108
33.0, 48870.52462941702, 54979.47990649699, 76202.55067378886, 2699.3307708896127, -1139.7378015205625, -4311.070360072895, 26872.205957437272, 19548.00868606671, 0.0, 0.0, 0.0, 196.0, 0.0, 0.0, 0.0, 15.0, 67.0, 60.0, 0.0, 0.0, 0.0, 1.68780336411195E9, 0.0, 2023-06-26 13:16:04.111
34.0, 48763.21390428709, 54883.12153615017, 79469.23577418755, 2578.787813042142, -1227.9154333967488, -4422.583213160421, 26810.202218318253, 19457.215900089253, 0.0, 0.0, 0.0, 196.0, 0.0, 0.0, 0.0, 15.0, 67.0, 64.0, 0.0, 0.0, 0.0, 1.6878033641159863E9, 0.0, 2023-06-26 13:16:04.115
35.0, 48745.15369476721, 54858.13228584913, 80772.8118625655, 2548.9929376832174, -1299.1727947202678, -4452.176922819248, 26729.467717345684, 19390.674756845805, 0.0, 0.0, 0.0, 196.0, 0.0, 0.0, 0.0, 15.0, 67.0, 68.0, 0.0, 0.0, 0.0, 1.687803364119007E9, 0.0, 2023-06-26 13:16:04.119
36.0, 48841.75793430304, 54939.20206298853, 77755.21460237677, 2654.1578953454373, -1224.6297269618187, -4349.560064024933, 26767.845662575444, 19460.7921792021, 0.0, 0.0, 0.0, 196.0, 0.0, 0.0, 0.0, 15.0, 67.0, 72.0, 0.0, 0.0, 0.0, 1.6878033641220071E9, 0.0, 2023-06-26 13:16:04.122
37.0, 48868.40121369377, 54972.05912733783, 75974.33936290018, 2698.3919976224897, -1141.816513754906, -4296.407615710213, 26859.309000886562, 19550.780302379168, 0.0, 0.0, 0.0, 196.0, 2.0, 0.0, 0.0, 15.0, 67.0, 76.0, 0.0, 0.0, 0.0, 1.6878033641260345E9, 0.0, 2023-06-26 13:16:04.126
38.0, 48772.7133956806, 54889.20121064201, 78841.66584511589, 2587.1473654684264, -1210.6598866772517, -4400.186765216204, 26821.22162833472, 19483.90388296889, 0.0, 0.0, 0.0, 196.0, 30.0, 0.0, 0.0, 15.0, 67.0, 80.0, 0.0, 0.0, 0.0, 1.687803364129048E9, 0.0, 2023-06-26 13:16:04.129
39.0, 48729.686287604134, 54837.7921983948, 80910.99034678821, 2525.2777368161364, -1298.9269255312593, -4454.188579820226, 26740.01774072859, 19402.49882966266, 0.0, 0.0, 0.0, 196.0, 6.0, 192.0, 0.0, 15.0, 67.0, 84.0, 0.0, 0.0, 0.0, 1.687803364132059E9, 0.0, 2023-06-26 13:16:04.132
40.0, 48825.99995446205, 54921.767702313395, 78382.47160702606, 2617.23281350527, -1249.7083842406732, -4368.737860767586, 26751.595944356435, 19449.437493018806, 0.0, 0.0, 0.0, 196.0, 0.0, 0.0, 0.0, 15.0, 67.0, 88.0, 0.0, 0.0, 0.0, 1.6878033641361E9, 0.0, 2023-06-26 13:16:04.136
41.0, 48866.45661192616, 54967.81229589132, 75918.57176048419, 2679.10244215756, -1157.3509761513444, -4307.672894915688, 26839.438300065794, 19534.10590101551, 0.0, 0.0, 0.0, 196.0, 0.0, 0.0, 0.0, 15.0, 67.0, 92.0, 0.0, 0.0, 0.0, 1.687803364139099E9, 0.0, 2023-06-26 13:16:04.139
42.0, 48786.99616038754, 54901.986408470446, 78194.13580824564, 2581.7605950546977, -1194.164299269235, -4403.87480305133, 26823.009767891144, 19472.660955507872, 0.0, 0.0, 0.0, 196.0, 0.0, 0.0, 0.0, 15.0, 67.0, 96.0, 0.0, 0.0, 0.0, 1.6878033641421864E9, 0.0, 2023-06-26 13:16:04.142
43.0, 48720.27620318845, 54832.42777972553, 80877.6415440609, 2500.534355704112, -1298.8822220423488, -4482.977626678661, 26741.314141906994, 19388.21606495572, 0.0, 0.0, 0.0, 196.0, 0.0, 0.0, 0.0, 15.0, 67.0, 100.0, 0.0, 0.0, 0.0, 1.687803364145172E9, 0.0, 2023-06-26 13:16:04.145
44.0, 48803.96113442912, 54901.71818753698, 79005.48178022883, 2581.2018014433147, -1280.4420328667204, -4412.614335133354, 26733.781604025557, 19422.481289205705, 0.0, 0.0, 0.0, 196.0, 0.0, 0.0, 0.0, 15.0, 67.0, 104.0, 0.0, 0.0, 0.0, 1.6878033641491864E9, 0.0, 2023-06-26 13:16:04.149
45.0, 48872.84921084037, 54969.68984242557, 76025.5472094473, 2675.034424666694, -1163.9894442545706, -4322.179177067182, 26830.8328784505, 19521.81244156509, 0.0, 0.0, 0.0, 196.0, 0.0, 0.0, 0.0, 15.0, 67.0, 108.0, 0.0, 0.0, 0.0, 1.6878033641522005E9, 0.0, 2023-06-26 13:16:04.152
46.0, 48808.118558897804, 54921.968868013486, 77565.1577192733, 2606.0122377887055, -1178.003988028048, -4396.208154703159, 26833.35862557395, 19476.170179387354, 0.0, 0.0, 0.0, 196.0, 0.0, 0.0, 0.0, 15.0, 67.0, 112.0, 0.0, 0.0, 0.0, 1.687803364155196E9, 0.0, 2023-06-26 13:16:04.155
47.0, 48721.19262471111, 54836.60755593867, 80727.99661493262, 2505.2952772730923, -1286.5217073585638, -4488.990245937139, 26745.53862160905, 19384.63978584287, 0.0, 0.0, 0.0, 196.0, 2.0, 16.0, 0.0, 15.0, 67.0, 116.0, 0.0, 0.0, 0.0, 1.6878033641591969E9, 0.0, 2023-06-26 13:16:04.159
48.0, 48791.04182613395, 54892.62102754367, 79636.06919480195, 2568.4166036148795, -1286.812280036483, -4439.391724990813, 26718.940045707233, 19393.625187113907, 0.0, 0.0, 0.0, 196.0, 29.0, 240.0, 0.0, 15.0, 67.0, 120.0, 0.0, 0.0, 0.0, 1.6878033641622095E9, 0.0, 2023-06-26 13:16:04.162
49.0, 48878.526553932024, 54977.84822915176, 76326.9157799382, 2686.3667591055346, -1178.5627816394308, -4326.716581191609, 26819.254674822652, 19510.77067980417, 0.0, 0.0, 0.0, 196.0, 6.0, 224.0, 0.0, 15.0, 67.0, 124.0, 0.0, 0.0, 0.0, 1.687803364165208E9, 0.0, 2023-06-26 13:16:04.165
50.0, 48845.602434349355, 54961.84438012176, 76967.87440393858, 2655.81192443513, -1158.4685633741099, -4356.779677483997, 26858.258468897162, 19512.58117110505, 0.0, 0.0, 0.0, 196.0, 0.0, 0.0, 0.0, 15.0, 67.0, 128.0, 0.0, 0.0, 0.0, 1.6878033641692235E9, 0.0, 2023-06-26 13:16:04.169
51.0, 48746.181875012146, 54864.34607080771, 80364.80311927834, 2543.9637951807736, -1259.9454832012038, -4459.441239767223, 26783.916566838812, 19417.206277514255, 0.0, 0.0, 0.0, 196.0, 0.0, 0.0, 0.0, 15.0, 67.0, 132.0, 0.0, 0.0, 0.0, 1.6878033641853275E9, 0.0, 2023-06-26 13:16:04.185
52.0, 48781.60938997381, 54884.23912337293, 80146.33716897215, 2566.5390570806335, -1292.1543469613014, -4445.761972160575, 26734.139231936842, 19395.681547603792, 0.0, 0.0, 0.0, 196.0, 0.0, 0.0, 0.0, 15.0, 67.0, 136.0, 0.0, 0.0, 0.0, 1.687803364188337E9, 0.0, 2023-06-26 13:16:04.188
53.0, 48877.29720798698, 54974.540170972374, 76742.07708145108, 2688.847802740074, -1187.5258311660089, -4317.820586898397, 26817.958273644243, 19508.267284425176, 0.0, 0.0, 0.0, 196.0, 0.0, 0.0, 0.0, 15.0, 67.0, 140.0, 0.0, 0.0, 0.0, 1.6878033641913593E9, 0.0, 2023-06-26 13:16:04.191
54.0, 48852.732640830596, 54964.63834817867, 76511.2059129722, 2669.7594129752415, -1149.9301969921823, -4337.847749930353, 26864.7404747892, 19525.18755497784, 0.0, 0.0, 0.0, 196.0, 0.0, 0.0, 0.0, 15.0, 67.0, 144.0, 0.0, 0.0, 0.0, 1.6878033641953697E9, 0.0, 2023-06-26 13:16:04.195
55.0, 48749.199360513616, 54871.0515941443, 79928.58647448856, 2551.295167362114, -1245.5062562830753, -4451.171094318759, 26797.528779212094, 19433.50069922217, 0.0, 0.0, 0.0, 196.0, 0.0, 0.0, 0.0, 15.0, 67.0, 148.0, 0.0, 0.0, 0.0, 1.687803364198387E9, 0.0, 2023-06-26 13:16:04.198
56.0, 48762.4092414867, 54870.09046913272, 80563.82305190839, 2546.3330800930357, -1302.838480810938, -4458.234245566636, 26735.43563311525, 19391.702937090748, 0.0, 0.0, 0.0, 196.0, 0.0, 0.0, 0.0, 15.0, 67.0, 152.0, 0.0, 0.0, 0.0, 1.6878033642024498E9, 0.0, 2023-06-26 13:16:04.202
57.0, 48862.54505664648, 54958.178694031085, 77296.0427160314, 2663.120944872015, -1223.2215670611342, -4341.155808109737, 26798.914587368323, 19490.85527549449, 0.0, 0.0, 0.0, 196.0, 1.0, 224.0, 0.0, 15.0, 67.0, 156.0, 0.0, 0.0, 0.0, 1.6878033642054145E9, 0.0, 2023-06-26 13:16:04.205
58.0, 48857.09123099938, 54965.57712144579, 76185.04925788037, 2678.2307241238027, -1140.5424643209535, -4316.412426997713, 26872.02714348163, 19540.699665629825, 0.0, 0.0, 0.0, 196.0, 30.0, 0.0, 0.0, 15.0, 67.0, 160.0, 0.0, 0.0, 0.0, 1.6878033642094395E9, 0.0, 2023-06-26 13:16:04.209
59.0, 48757.82713387336, 54879.16527738157, 79379.1358922882, 2564.4379931018348, -1206.748331397573, -4427.232376007125, 26819.657006222846, 19452.142054097898, 0.0, 0.0, 0.0, 196.0, 6.0, 208.0, 0.0, 15.0, 67.0, 164.0, 0.0, 0.0, 0.0, 1.6878033642124493E9, 0.0, 2023-06-26 13:16:04.212
60.0, 48742.65029938821, 54853.43841951352, 80837.833087186, 2534.196082853804, -1284.3759398908544, -4454.032117609038, 26745.80684254251, 19399.74956509466, 0.0, 0.0, 0.0, 196.0, 0.0, 0.0, 0.0, 15.0, 67.0, 168.0, 0.0, 0.0, 0.0, 1.6878033642154574E9, 0.0, 2023-06-26 13:16:04.215
61.0, 48844.48484712659, 54940.65492637813, 77911.54270309719, 2644.233720807281, -1219.2876600370003, -4350.230616358593, 26782.888386593866, 19465.530749026628, 0.0, 0.0, 0.0, 196.0, 0.0, 0.0, 0.0, 15.0, 67.0, 172.0, 0.0, 0.0, 0.0, 1.6878033642184873E9, 0.0, 2023-06-26 13:16:04.218
62.0, 48868.20004799367, 54970.15922905913, 75991.4831508974, 2686.9926079502834, -1139.5142840760093, -4306.2200315260925, 26867.22151842374, 19537.168090005885, 0.0, 0.0, 0.0, 196.0, 0.0, 0.0, 0.0, 15.0, 67.0, 176.0, 0.0, 0.0, 0.0, 1.6878033642225037E9, 0.0, 2023-06-26 13:16:04.222
63.0, 48776.110860837805, 54891.03405368734, 78750.26956203814, 2583.615789844488, -1193.2031742576569, -4405.215907718648, 26831.771651717623, 19477.42187707685, 0.0, 0.0, 0.0, 196.0, 0.0, 0.0, 0.0, 15.0, 67.0, 180.0, 0.0, 0.0, 0.0, 1.6878033642255187E9, 0.0, 2023-06-26 13:16:04.225
64.0, 48737.84467433032, 54843.871872886644, 80927.30712024058, 2525.2777368161364, -1293.3613411618878, -4466.370280548368, 26754.18874671325, 19413.294722234576, 0.0, 0.0, 0.0, 196.0, 0.0, 0.0, 0.0, 15.0, 67.0, 184.0, 0.0, 0.0, 0.0, 1.6878033642285252E9, 0.0, 2023-06-26 13:16:04.228
65.0, 48829.26330915253, 54920.27013543488, 78532.69768151018, 2615.131749526471, -1252.4800005531313, -4376.605674815854, 26759.173185726784, 19452.924365153835, 0.0, 0.0, 0.0, 196.0, 0.0, 0.0, 0.0, 15.0, 67.0, 188.0, 0.0, 0.0, 0.0, 1.6878033642325404E9, 0.0, 2023-06-26 13:16:04.232
66.0, 48873.72092887413, 54970.60626394824, 75968.79613027527, 2682.4775555703113, -1167.7892408119728, -4302.889621602252, 26851.105910671464, 19541.48197668576, 0.0, 0.0, 0.0, 196.0, 0.0, 0.0, 0.0, 15.0, 67.0, 192.0, 0.0, 0.0, 0.0, 1.687803364235558E9, 0.0, 2023-06-26 13:16:04.235
67.0, 48801.07775939438, 54915.01747548789, 78109.62386246012, 2596.199821972826, -1192.174994012713, -4389.323817410925, 26837.158422131353, 19488.910673726878, 0.0, 0.0, 0.0, 196.0, 1.0, 240.0, 0.0, 15.0, 67.0, 196.0, 0.0, 0.0, 0.0, 1.6878033642385688E9, 0.0, 2023-06-26 13:16:04.238
68.0, 48733.329621950346, 54844.0953903312, 80895.41118090287, 2512.9619256212623, -1279.615018321874, -4460.64823396781, 26747.61733384339, 19398.49786740516, 0.0, 0.0, 0.0, 196.0, 30.0, 0.0, 0.0, 15.0, 67.0, 200.0, 0.0, 0.0, 0.0, 1.687803364242591E9, 0.0, 2023-06-26 13:16:04.242
69.0, 48811.78424498848, 54904.221582915976, 79187.00029695038, 2584.2192869447813, -1270.6966722842064, -4401.170241972237, 26728.417185356284, 19413.40648095685, 0.0, 0.0, 0.0, 196.0, 6.0, 208.0, 0.0, 15.0, 67.0, 204.0, 0.0, 0.0, 0.0, 1.687803364245613E9, 0.0, 2023-06-26 13:16:04.245
70.0, 48883.622751667834, 54976.21655180652, 76135.49544042295, 2686.322055616624, -1166.269322189012, -4308.142281549249, 26825.35670105895, 19518.079700241055, 0.0, 0.0, 0.0, 196.0, 0.0, 0.0, 0.0, 15.0, 67.0, 208.0, 0.0, 0.0, 0.0, 1.687803364248614E9, 0.0, 2023-06-26 13:16:04.248
71.0, 48826.13406492878, 54937.74919959893, 77485.1384741233, 2621.5467001851443, -1177.5346013944866, -4375.15281142626, 26836.085538397496, 19490.698813283303, 0.0, 0.0, 0.0, 196.0, 0.0, 0.0, 0.0, 15.0, 67.0, 212.0, 0.0, 0.0, 0.0, 1.687803364251636E9, 0.0, 2023-06-26 13:16:04.251
72.0, 48735.006002784496, 54850.37623052314, 80670.06089330446, 2522.170844336849, -1285.3817683913433, -4476.31680683098, 26752.467662390194, 19396.016823770624, 0.0, 0.0, 0.0, 196.0, 0.0, 0.0, 0.0, 15.0, 67.0, 216.0, 0.0, 0.0, 0.0, 1.6878033642556586E9, 0.0, 2023-06-26 13:16:04.255
73.0, 48800.20604136062, 54901.38291137015, 79734.05924249403, 2576.84321127453, -1294.1883557067342, -4432.5967946763985, 26717.733051506646, 19389.423059156306, 0.0, 0.0, 0.0, 196.0, 0.0, 0.0, 0.0, 15.0, 67.0, 220.0, 0.0, 0.0, 0.0, 1.6878033642586648E9, 0.0, 2023-06-26 13:16:04.258
74.0, 48887.78017613652, 54984.93373214409, 76414.02052808054, 2693.67577954242, -1194.3878167137882, -4320.636906699766, 26813.44322126427, 19504.42278437886, 0.0, 0.0, 0.0, 196.0, 0.0, 0.0, 0.0, 15.0, 67.0, 224.0, 0.0, 0.0, 0.0, 1.6878033642616737E9, 0.0, 2023-06-26 13:16:04.261
75.0, 48843.791943048476, 54957.8210661198, 76901.44501941741, 2653.3085290561353, -1179.814479328928, -4363.753421754053, 26845.473271068728, 19510.14483095942, 0.0, 0.0, 0.0, 196.0, 0.0, 0.0, 0.0, 15.0, 67.0, 228.0, 0.0, 0.0, 0.0, 1.6878033642657008E9, 0.0, 2023-06-26 13:16:04.265
76.0, 48750.384002969746, 54871.18570461103, 80271.64104838861, 2545.595472526011, -1272.3954048628098, -4463.688071213731, 26774.43942718976, 19419.32969323751, 0.0, 0.0, 0.0, 196.0, 0.0, 0.0, 0.0, 15.0, 67.0, 232.0, 0.0, 0.0, 0.0, 1.687803364268716E9, 0.0, 2023-06-26 13:16:04.268
77.0, 48782.682273707665, 54887.52482980786, 80206.79863772377, 2560.7946587556194, -1329.9734985796808, -4455.909664143284, 26720.34820560792, 19387.65727134434, 0.0, 0.0, 0.0, 196.0, 2.0, 80.0, 0.0, 15.0, 67.0, 236.0, 0.0, 0.0, 0.0, 1.687803364272741E9, 0.0, 2023-06-26 13:16:04.272
78.0, 48874.27972248551, 54968.43814473607, 76857.47913807382, 2673.223933365814, -1231.5140642540532, -4354.499799549556, 26794.31012801053, 19486.787258003624, 0.0, 0.0, 0.0, 196.0, 29.0, 208.0, 0.0, 15.0, 67.0, 240.0, 0.0, 0.0, 0.0, 1.6878033642958598E9, 0.0, 2023-06-26 13:16:04.295
79.0, 48860.19812347867, 54966.94057785757, 76449.22452559764, 2662.38333730499, -1155.495781361554, -4368.357881111847, 26841.628771022413, 19507.70849081379, 0.0, 0.0, 0.0, 196.0, 6.0, 240.0, 0.0, 15.0, 67.0, 244.0, 0.0, 0.0, 0.0, 1.6878033642988627E9, 0.0, 2023-06-26 13:16:04.298
80.0, 48758.94472109613, 54876.1030883912, 79798.25345256967, 2553.977376696751, -1244.0310411490252, -4451.97575711915, 26783.40247671634, 19419.620265915426, 0.0, 0.0, 0.0, 196.0, 0.0, 0.0, 0.0, 15.0, 67.0, 248.0, 0.0, 0.0, 0.0, 1.6878033643018713E9, 0.0, 2023-06-26 13:16:04.301
81.0, 48755.79312512793, 54860.85919867268, 80604.81615123941, 2538.688783489321, -1317.389466451343, -4470.706518972697, 26717.755403251103, 19382.963405008722, 0.0, 0.0, 0.0, 196.0, 0.0, 0.0, 0.0, 15.0, 67.0, 252.0, 0.0, 0.0, 0.0, 1.6878033643058803E9, 0.0, 2023-06-26 13:16:04.305
82.0, 48854.52078038702, 54946.89106308116, 77404.3145661729, 2653.66615696742, -1255.7657069880613, -4371.3753666133125, 26777.613374902416, 19473.57737703054, 0.0, 0.0, 0.0, 196.0, 0.0, 0.0, 0.0, 15.0, 68.0, 0.0, 0.0, 0.0, 0.0, 1.687803364308966E9, 0.0, 2023-06-26 13:16:04.308
83.0, 48861.15924849025, 54965.241845278964, 76128.49934440844, 2678.5883520350876, -1162.9165605207158, -4348.800104713453, 26860.27012589814, 19530.037883524645, 0.0, 0.0, 0.0, 196.0, 0.0, 0.0, 0.0, 15.0, 68.0, 4.0, 0.0, 0.0, 0.0, 1.6878033643119192E9, 0.0, 2023-06-26 13:16:04.311
84.0, 48764.86793337679, 54884.216771628475, 79206.66983207106, 2575.904438007407, -1225.523796740031, -4424.393704461301, 26815.477230009703, 19464.36845831495, 0.0, 0.0, 0.0, 196.0, 0.0, 0.0, 0.0, 15.0, 68.0, 8.0, 0.0, 0.0, 0.0, 1.6878033643149412E9, 0.0, 2023-06-26 13:16:04.314
85.0, 48735.16246499568, 54845.056515342774, 80819.50465673265, 2536.006574154684, -1307.2194227241782, -4451.171094318759, 26734.541563337036, 19401.738870351182, 0.0, 0.0, 0.0, 196.0, 0.0, 0.0, 0.0, 15.0, 68.0, 12.0, 0.0, 0.0, 0.0, 1.6878033643360355E9, 0.0, 2023-06-26 13:16:04.336
86.0, 48838.405172634746, 54935.02228677539, 78005.77765772077, 2647.072392353105, -1236.6996689676844, -4348.308366335436, 26777.59102315796, 19476.773676487646, 0.0, 0.0, 0.0, 196.0, 0.0, 0.0, 0.0, 15.0, 68.0, 16.0, 0.0, 0.0, 0.0, 1.6878033643390412E9, 0.0, 2023-06-26 13:16:04.339
87.0, 48873.05037654047, 54974.85309539475, 75957.93318246999, 2698.1237766890263, -1156.881589517783, -4294.820641853886, 26872.69769581529, 19558.089322816053, 0.0, 0.0, 0.0, 196.0, 2.0, 176.0, 0.0, 15.0, 68.0, 20.0, 0.0, 0.0, 0.0, 1.687803364342078E9, 0.0, 2023-06-26 13:16:04.342
88.0, 48792.3158755679, 54906.12148119468, 78578.67521985475, 2595.4398626613456, -1206.3459999973775, -4397.705721581665, 26846.657913524858, 19493.492781340217, 0.0, 0.0, 0.0, 196.0, 29.0, 240.0, 0.0, 15.0, 68.0, 24.0, 0.0, 0.0, 0.0, 1.6878033643460855E9, 0.0, 2023-06-26 13:16:04.346
89.0, 48733.01669752797, 54839.08859957321, 80894.56181461357, 2527.267042072659, -1306.101835501413, -4460.69293745672, 26763.44236891775, 19416.066338547033, 0.0, 0.0, 0.0, 196.0, 7.0, 0.0, 0.0, 15.0, 68.0, 28.0, 0.0, 0.0, 0.0, 1.6878033643491027E9, 0.0, 2023-06-26 13:16:04.349
90.0, 48820.769646259505, 54912.58113534226, 78651.38544456786, 2617.255165249725, -1264.3040733699886, -4374.77283177052, 26764.179976484775, 19452.924365153835, 0.0, 0.0, 0.0, 196.0, 0.0, 0.0, 0.0, 15.0, 68.0, 32.0, 0.0, 0.0, 0.0, 1.6878033643531923E9, 0.0, 2023-06-26 13:16:04.353
91.0, 48879.68884464369, 54972.19323780457, 75982.43069439301, 2697.4308726109116, -1161.3295866643891, -4297.256981999514, 26860.203070664775, 19551.450854712828, 0.0, 0.0, 0.0, 196.0, 0.0, 0.0, 0.0, 15.0, 68.0, 36.0, 0.0, 0.0, 0.0, 1.6878033643571792E9, 0.0, 2023-06-26 13:16:04.357
92.0, 48808.23031762008, 54917.65498133362, 77953.63103790654, 2616.6963716383425, -1197.9193923377268, -4382.953570241162, 26848.22253563673, 19496.264397652674, 0.0, 0.0, 0.0, 196.0, 0.0, 0.0, 0.0, 15.0, 68.0, 40.0, 0.0, 0.0, 0.0, 1.687803364360177E9, 0.0, 2023-06-26 13:16:04.360
93.0, 48735.274223717955, 54841.56964320775, 80818.56588346552, 2529.457513029279, -1304.3807511783543, -4469.410117794289, 26758.48028164867, 19398.140239493878, 0.0, 0.0, 0.0, 196.0, 0.0, 0.0, 0.0, 15.0, 68.0, 44.0, 0.0, 0.0, 0.0, 1.6878033643632276E9, 0.0, 2023-06-26 13:16:04.363
94.0, 48813.371218844804, 54903.506327093404, 79272.65218170312, 2593.383502171457, -1293.1825272062454, -4417.799939846986, 26732.9098859918, 19409.27140823262, 0.0, 0.0, 0.0, 196.0, 0.0, 0.0, 0.0, 15.0, 68.0, 48.0, 0.0, 0.0, 0.0, 1.6878033643712E9, 0.0, 2023-06-26 13:16:04.371
95.0, 48884.69563540169, 54973.86961863871, 76170.25240305095, 2695.5086225877553, -1197.2935434929782, -4318.737008421064, 26827.59187550448, 19520.225467708762, 0.0, 0.0, 0.0, 196.0, 0.0, 0.0, 0.0, 15.0, 68.0, 52.0, 0.0, 0.0, 0.0, 1.687803364374215E9, 0.0, 2023-06-26 13:16:04.374
96.0, 48838.271062168016, 54943.58300490177, 77350.04453063542, 2643.250244051247, -1210.5481279549751, -4377.0080062160505, 26852.46936708324, 19496.66672905287, 0.0, 0.0, 0.0, 196.0, 0.0, 0.0, 0.0, 15.0, 68.0, 56.0, 0.0, 0.0, 0.0, 1.6878033643772225E9, 0.0, 2023-06-26 13:16:04.377
97.0, 48746.56185466789, 54853.728992191434, 80585.86187194132, 2539.336984078525, -1290.3438556604215, -4470.997091650616, 26767.644496875346, 19412.423004200817, 0.0, 0.0, 0.0, 196.0, 3.0, 16.0, 0.0, 15.0, 68.0, 60.0, 0.0, 0.0, 0.0, 1.6878033643812475E9, 0.0, 2023-06-26 13:16:04.381
98.0, 48798.127329126284, 54890.162335653586, 79828.58476979552, 2580.419490387379, -1301.2515069546112, -4438.654117423787, 26722.918656220278, 19399.54839939456, 0.0, 0.0, 0.0, 196.0, 29.0, 240.0, 0.0, 15.0, 68.0, 64.0, 0.0, 0.0, 0.0, 1.6878033643842585E9, 0.0, 2023-06-26 13:16:04.384
99.0, 48886.99786508058, 54974.09313608326, 76489.36825863937, 2692.2005644083697, -1198.880517349305, -4331.231633571581, 26812.750317186157, 19509.56368560358, 0.0, 0.0, 0.0, 196.0, 7.0, 16.0, 0.0, 15.0, 68.0, 68.0, 0.0, 0.0, 0.0, 1.687803364387286E9, 0.0, 2023-06-26 13:16:04.387
100.0, 48857.49356239958, 54958.98335683148, 76799.76693389022, 2660.818715193119, -1177.8698775613163, -4358.567817040422, 26852.156442660864, 19516.425671151363, 0.0, 0.0, 0.0, 196.0, 0.0, 0.0, 0.0, 15.0, 68.0, 72.0, 0.0, 0.0, 0.0, 1.6878033643913145E9, 0.0, 2023-06-26 13:16:04.391
101.0, 48757.96124434009, 54866.80476269779, 80208.34090809118, 2548.389440582924, -1279.749128788606, -4464.582140991944, 26779.69208713676, 19419.37439672642, 0.0, 0.0, 0.0, 196.0, 0.0, 0.0, 0.0, 15.0, 68.0, 76.0, 0.0, 0.0, 0.0, 1.6878033643943295E9, 0.0, 2023-06-26 13:16:04.394
102.0, 48779.84360216184, 54877.13126863614, 80325.2628833369, 2559.6100162994885, -1323.0221060540803, -4462.279911313047, 26723.790374254033, 19392.64171035787, 0.0, 0.0, 0.0, 196.0, 0.0, 0.0, 0.0, 15.0, 68.0, 80.0, 0.0, 0.0, 0.0, 1.6878033643973472E9, 0.0, 2023-06-26 13:16:04.397
103.0, 48879.44297545469, 54967.275854024396, 76968.99199116135, 2681.583485792099, -1227.4683985076426, -4339.792351697964, 26799.987471102177, 19497.62785406445, 0.0, 0.0, 0.0, 196.0, 0.0, 0.0, 0.0, 15.0, 68.0, 84.0, 0.0, 0.0, 0.0, 1.6878033644003725E9, 0.0, 2023-06-26 13:16:04.400
104.0, 48870.345815461376, 54972.5732174603, 76370.9710682596, 2679.907104957951, -1179.300389206456, -4338.630060986288, 26865.969820734244, 19531.378988191962, 0.0, 0.0, 0.0, 196.0, 0.0, 0.0, 0.0, 15.0, 68.0, 88.0, 0.0, 0.0, 0.0, 1.687803364404363E9, 0.0, 2023-06-26 13:16:04.404
105.0, 48778.681311450164, 54891.39168159863, 79700.37516359988, 2576.8879147634407, -1262.068898924458, -4442.520969214555, 26816.7289276992, 19457.104141366977, 0.0, 0.0, 0.0, 196.0, 0.0, 0.0, 0.0, 15.0, 68.0, 92.0, 0.0, 0.0, 0.0, 1.6878033644073756E9, 0.0, 2023-06-26 13:16:04.407
106.0, 48777.586075971856, 54881.40045182711, 80673.36895148385, 2563.521571579167, -1321.2339664976557, -4457.5413414885215, 26749.360769910905, 19408.46674543223, 0.0, 0.0, 0.0, 196.0, 0.0, 0.0, 0.0, 15.0, 68.0, 96.0, 0.0, 0.0, 0.0, 1.6878033644118345E9, 0.0, 2023-06-26 13:16:04.411
107.0, 48871.329292217415, 54963.11842955571, 77539.18499221624, 2670.877000198007, -1222.5957182163856, -4353.71748849362, 26793.594872187958, 19487.39075510392, 0.0, 0.0, 0.0, 196.0, 2.0, 240.0, 0.0, 15.0, 68.0, 100.0, 0.0, 0.0, 0.0, 1.6878033644144168E9, 0.0, 2023-06-26 13:16:04.414
108.0, 48886.12614704682, 54986.431299022595, 76090.90371023462, 2697.7885005221965, -1149.527865591987, -4319.429912499179, 26870.99896323669, 19551.272040757187, 0.0, 0.0, 0.0, 196.0, 30.0, 0.0, 0.0, 15.0, 68.0, 104.0, 0.0, 0.0, 0.0, 1.6878033644174426E9, 0.0, 2023-06-26 13:16:04.417
109.0, 48783.6657504637, 54899.86299274719, 79125.86827586511, 2585.515688123189, -1221.679296693718, -4424.2595939945695, 26826.1837156038, 19472.12451364094, 0.0, 0.0, 0.0, 196.0, 7.0, 16.0, 0.0, 15.0, 68.0, 108.0, 0.0, 0.0, 0.0, 1.6878033644214647E9, 0.0, 2023-06-26 13:16:04.421
110.0, 48759.57056994088, 54868.45879178748, 80887.07398022103, 2542.600338769, -1307.3535331909102, -4465.476210770155, 26749.316066421994, 19406.924475064814, 0.0, 0.0, 0.0, 196.0, 0.0, 0.0, 0.0, 15.0, 68.0, 112.0, 0.0, 0.0, 0.0, 1.6878033644244692E9, 0.0, 2023-06-26 13:16:04.424
111.0, 48855.54896063197, 54951.741391627955, 78145.14078439961, 2643.898444640451, -1244.3663173158548, -4363.708718265142, 26777.948651069244, 19472.81741771906, 0.0, 0.0, 0.0, 196.0, 0.0, 0.0, 0.0, 15.0, 68.0, 116.0, 0.0, 0.0, 0.0, 1.687803364427488E9, 0.0, 2023-06-26 13:16:04.427
112.0, 48887.02021682504, 54989.24761882397, 75909.5193039798, 2705.8798320150177, -1154.9369877501713, -4298.151051777727, 26877.9950592512, 19563.520796718694, 0.0, 0.0, 0.0, 196.0, 0.0, 0.0, 0.0, 15.0, 68.0, 120.0, 0.0, 0.0, 0.0, 1.6878033644315116E9, 0.0, 2023-06-26 13:16:04.431
113.0, 48802.664733250705, 54919.9125075236, 78444.81062231191, 2606.5039761667226, -1215.0855320794026, -4395.8505267918745, 26851.485890327203, 19498.23135116474, 0.0, 0.0, 0.0, 196.0, 0.0, 0.0, 0.0, 15.0, 68.0, 124.0, 0.0, 0.0, 0.0, 1.6878033644345112E9, 0.0, 2023-06-26 13:16:04.434
114.0, 48748.88643609124, 54861.28388181733, 80928.96114933028, 2532.586757253022, -1302.1455767328237, -4469.544228261021, 26761.363656683407, 19413.026501301112, 0.0, 0.0, 0.0, 196.0, 0.0, 0.0, 0.0, 15.0, 68.0, 128.0, 0.0, 0.0, 0.0, 1.687803364437543E9, 0.0, 2023-06-26 13:16:04.437
115.0, 48837.354640645346, 54933.6141268747, 78793.34137360351, 2619.065656550605, -1259.0514134229916, -4394.4423668911895, 26755.68631359176, 19446.554117984073, 0.0, 0.0, 0.0, 196.0, 0.0, 0.0, 0.0, 15.0, 68.0, 132.0, 0.0, 0.0, 0.0, 1.6878033644405518E9, 0.0, 2023-06-26 13:16:04.440
116.0, 48890.618847682344, 54990.611075235734, 75979.30145016927, 2705.4327971259117, -1165.2858454329785, -4301.459109957113, 26852.916401972343, 19548.992162822746, 0.0, 0.0, 0.0, 196.0, 0.0, 0.0, 0.0, 15.0, 68.0, 136.0, 0.0, 0.0, 0.0, 1.6878033644445739E9, 0.0, 2023-06-26 13:16:04.444
117.0, 48824.211814905626, 54942.0183827899, 77817.68772812936, 2626.195863031848, -1188.2410869885787, -4381.701872551665, 26848.915439714845, 19503.841639023023, 0.0, 0.0, 0.0, 196.0, 2.0, 224.0, 0.0, 15.0, 68.0, 140.0, 0.0, 0.0, 0.0, 1.6878033644475977E9, 0.0, 2023-06-26 13:16:04.447
118.0, 48751.635700659244, 54868.838771443225, 80811.68154617329, 2538.4429143003126, -1285.4264718802538, -4464.805658436497, 26771.757217855124, 19416.42396645832, 0.0, 0.0, 0.0, 196.0, 30.0, 0.0, 0.0, 15.0, 68.0, 144.0, 0.0, 0.0, 0.0, 1.687803364450611E9, 0.0, 2023-06-26 13:16:04.450
119.0, 48818.17684390269, 54921.85710929121, 79408.08140135782, 2591.170679470382, -1286.5440591030192, -4418.962230558662, 26742.834060529956, 19416.51337343614, 0.0, 0.0, 0.0, 196.0, 6.0, 224.0, 0.0, 15.0, 68.0, 148.0, 0.0, 0.0, 0.0, 1.687803364454609E9, 0.0, 2023-06-26 13:16:04.454
120.0, 48891.177641293725, 54993.04741538136, 76173.87338565271, 2693.362855120046, -1187.5705346549196, -4315.697171175143, 26836.376111075417, 19528.92029630188, 0.0, 0.0, 0.0, 196.0, 0.0, 0.0, 0.0, 15.0, 68.0, 152.0, 0.0, 0.0, 0.0, 1.6878033644576333E9, 0.0, 2023-06-26 13:16:04.457
121.0, 48856.778306577005, 54974.07078433881, 77153.55034512882, 2651.2074650773366, -1176.7969938274616, -4357.629043773299, 26866.50626260117, 19525.992217778232, 0.0, 0.0, 0.0, 196.0, 0.0, 0.0, 0.0, 15.0, 68.0, 156.0, 0.0, 0.0, 0.0, 1.6878033644606576E9, 0.0, 2023-06-26 13:16:04.460
122.0, 48765.11380256579, 54884.1050129062, 80502.71338256757, 2539.918129434363, -1286.097024213913, -4465.1185828588705, 26780.854377848435, 19426.415196229842, 0.0, 0.0, 0.0, 196.0, 0.0, 0.0, 0.0, 15.0, 68.0, 160.0, 0.0, 0.0, 0.0, 1.6878033644636602E9, 0.0, 2023-06-26 13:16:04.463
123.0, 48802.32945708388, 54908.758987040404, 79956.5708585466, 2568.751879781709, -1311.6003646374184, -4444.286757026524, 26730.250028401617, 19403.0799750185, 0.0, 0.0, 0.0, 196.0, 0.0, 0.0, 0.0, 15.0, 68.0, 164.0, 0.0, 0.0, 0.0, 1.6878033644746978E9, 0.0, 2023-06-26 13:16:04.474
124.0, 48884.673283657234, 54984.397290277164, 76541.38076798688, 2684.1762881489144, -1206.2565930195562, -4333.466808017112, 26813.44322126427, 19503.260493667185, 0.0, 0.0, 0.0, 196.0, 0.0, 0.0, 0.0, 15.0, 68.0, 168.0, 0.0, 0.0, 0.0, 1.687803364478736E9, 0.0, 2023-06-26 13:16:04.478
125.0, 48869.71996661663, 54985.380767033195, 76624.26103642715, 2671.882828698496, -1169.197400712657, -4343.7262587220985, 26870.350762647482, 19528.026226523667, 0.0, 0.0, 0.0, 196.0, 0.0, 0.0, 0.0, 15.0, 68.0, 172.0, 0.0, 0.0, 0.0, 1.687803364482771E9, 0.0, 2023-06-26 13:16:04.482
126.0, 48769.62885494577, 54892.66573103258, 80091.86596773457, 2556.4137168423795, -1265.4663640816646, -4452.422792008257, 26800.143933313364, 19444.475405749727, 0.0, 0.0, 0.0, 196.0, 0.0, 0.0, 0.0, 15.0, 68.0, 176.0, 0.0, 0.0, 0.0, 1.6878033644857707E9, 0.0, 2023-06-26 13:16:04.485
127.0, 48793.52286976849, 54903.28280964885, 80409.30544248885, 2563.5662750680776, -1310.1475012478236, -4450.16526581827, 26736.374406382372, 19407.706786120747, 0.0, 0.0, 0.0, 196.0, 2.0, 224.0, 0.0, 15.0, 68.0, 180.0, 0.0, 0.0, 0.0, 1.6878033644887877E9, 0.0, 2023-06-26 13:16:04.488
128.0, 48896.18443205171, 54994.63438923769, 77044.69734963147, 2683.7516050042636, -1223.4003810167767, -4331.85748241633, 26806.313014783027, 19501.025319221655, 0.0, 0.0, 0.0, 196.0, 29.0, 176.0, 0.0, 15.0, 68.0, 184.0, 0.0, 0.0, 0.0, 1.6878033644927971E9, 0.0, 2023-06-26 13:16:04.492
129.0, 48885.07561505742, 54994.544982259875, 76238.6934445731, 2690.166555662937, -1179.747424095562, -4323.632040456777, 26879.35851566297, 19545.95232557682, 0.0, 0.0, 0.0, 196.0, 6.0, 128.0, 0.0, 15.0, 68.0, 188.0, 0.0, 0.0, 0.0, 1.687803364495803E9, 0.0, 2023-06-26 13:16:04.495
130.0, 48775.70852943761, 54896.64434154562, 79569.10336841385, 2573.0881182060384, -1246.6461952502962, -4444.018536093061, 26821.512201012636, 19453.48315876522, 0.0, 0.0, 0.0, 196.0, 0.0, 0.0, 0.0, 15.0, 68.0, 192.0, 0.0, 0.0, 0.0, 1.6878033644988184E9, 0.0, 2023-06-26 13:16:04.498
131.0, 48763.303311264914, 54872.66091974508, 80749.94602798772, 2551.2057603842927, -1295.9317917742483, -4460.447068267711, 26741.939990751744, 19395.70389934825, 0.0, 0.0, 0.0, 196.0, 0.0, 0.0, 0.0, 15.0, 68.0, 196.0, 0.0, 0.0, 0.0, 1.6878033645028348E9, 0.0, 2023-06-26 13:16:04.502
132.0, 48862.45564966866, 54956.3234992413, 77693.16615976885, 2665.5349332731885, -1224.294450794989, -4350.364726825324, 26789.16922678581, 19485.33439461403, 0.0, 0.0, 0.0, 196.0, 0.0, 0.0, 0.0, 15.0, 68.0, 200.0, 0.0, 0.0, 0.0, 1.6878033645058634E9, 0.0, 2023-06-26 13:16:04.505
133.0, 48885.96968483564, 54988.7782321904, 76044.63559921212, 2707.2209366823363, -1147.5162085910092, -4307.047046070939, 26875.536367361114, 19559.47513097228, 0.0, 0.0, 0.0, 196.0, 0.0, 0.0, 0.0, 15.0, 68.0, 204.0, 0.0, 0.0, 0.0, 1.6878033645098825E9, 0.0, 2023-06-26 13:16:04.509
134.0, 48801.25657335002, 54917.47616737797, 78988.78502712071, 2605.833423833063, -1206.6365726752965, -4405.841756563396, 26845.540326302093, 19487.100182426, 0.0, 0.0, 0.0, 196.0, 0.0, 0.0, 0.0, 15.0, 68.0, 208.0, 0.0, 0.0, 0.0, 1.6878033645128996E9, 0.0, 2023-06-26 13:16:04.512
135.0, 48765.38202349926, 54870.69396623301, 80966.15445210392, 2553.753859252198, -1295.551812118508, -4454.88148389834, 26765.05169451853, 19413.339425723487, 0.0, 0.0, 0.0, 196.0, 0.0, 0.0, 0.0, 15.0, 68.0, 212.0, 0.0, 0.0, 0.0, 1.6878033645159154E9, 0.0, 2023-06-26 13:16:04.515
136.0, 48861.896856057276, 54951.49552243895, 78345.23360076352, 2659.231741336792, -1242.7122882261622, -4358.836037973886, 26785.347078483952, 19472.258624107675, 0.0, 0.0, 0.0, 196.0, 0.0, 0.0, 0.0, 15.0, 68.0, 216.0, 0.0, 0.0, 0.0, 1.6878033645199225E9, 0.0, 2023-06-26 13:16:04.519
137.0, 48901.61590595435, 54995.77432820491, 75983.66004033804, 2725.7728845802408, -1132.7640572505065, -4293.680702886665, 26881.303117430583, 19559.944517605843, 0.0, 0.0, 0.0, 196.0, 2.0, 144.0, 0.0, 15.0, 68.0, 220.0, 0.0, 0.0, 0.0, 1.6878033645229747E9, 0.0, 2023-06-26 13:16:04.522
138.0, 48821.28373638198, 54931.691876851546, 78406.8573602268, 2630.487397967267, -1183.7707380975173, -4388.563858099444, 26857.923192730334, 19497.739612786725, 0.0, 0.0, 0.0, 196.0, 30.0, 0.0, 0.0, 15.0, 68.0, 224.0, 0.0, 0.0, 0.0, 1.6878033645259538E9, 0.0, 2023-06-26 13:16:04.525
139.0, 48754.4073169717, 54860.81449518377, 81025.20776095483, 2556.391365097924, -1279.6820735552399, -4452.936882130728, 26773.813578345013, 19424.582353184505, 0.0, 0.0, 0.0, 196.0, 6.0, 160.0, 0.0, 15.0, 68.0, 228.0, 0.0, 0.0, 0.0, 1.6878033645289805E9, 0.0, 2023-06-26 13:16:04.528
140.0, 48830.47030335311, 54921.00774300191, 79055.23676338635, 2632.5661102016106, -1256.2797971105335, -4383.422956874723, 26764.023514273587, 19453.125530853933, 0.0, 0.0, 0.0, 196.0, 0.0, 0.0, 0.0, 15.0, 68.0, 232.0, 0.0, 0.0, 0.0, 1.6878033645329947E9, 0.0, 2023-06-26 13:16:04.532
141.0, 48904.70044668919, 54996.37782530521, 76148.07947255128, 2731.517282905255, -1146.912711490716, -4290.819679596386, 26864.204032922273, 19559.653944927926, 0.0, 0.0, 0.0, 196.0, 0.0, 0.0, 0.0, 15.0, 68.0, 236.0, 0.0, 0.0, 0.0, 1.6878033645360112E9, 0.0, 2023-06-26 13:16:04.536
142.0, 48836.61703307832, 54941.43723743406, 77831.03171956918, 2656.57188374661, -1166.6493018447522, -4364.468677576623, 26862.30413464357, 19514.168144961375, 0.0, 0.0, 0.0, 196.0, 0.0, 0.0, 0.0, 15.0, 68.0, 240.0, 0.0, 0.0, 0.0, 1.6878033645390327E9, 0.0, 2023-06-26 13:16:04.539
143.0, 48750.27224424747, 54853.93015789153, 80947.98248386175, 2559.3417953660246, -1280.1514601888014, -4456.155533332292, 26774.30531672303, 19418.27916124811, 0.0, 0.0, 0.0, 196.0, 0.0, 0.0, 0.0, 15.0, 68.0, 244.0, 0.0, 0.0, 0.0, 1.6878033645430503E9, 0.0, 2023-06-26 13:16:04.543
144.0, 48811.85130022184, 54900.1088619362, 79742.66466410931, 2615.534080926667, -1279.4362043662316, -4407.2946199529915, 26740.755348295614, 19422.2354200167, 0.0, 0.0, 0.0, 196.0, 0.0, 0.0, 0.0, 15.0, 68.0, 248.0, 0.0, 0.0, 0.0, 1.6878033645460696E9, 0.0, 2023-06-26 13:16:04.546
145.0, 48890.32827500442, 54973.73550817198, 76462.14383389281, 2725.996402024794, -1170.5608571244309, -4303.13549079126, 26835.59380001948, 19532.943610303835, 0.0, 0.0, 0.0, 196.0, 0.0, 0.0, 0.0, 15.0, 68.0, 252.0, 0.0, 0.0, 0.0, 1.687803364549072E9, 0.0, 2023-06-26 13:16:04.549
146.0, 48848.262291939536, 54945.86288283621, 77289.11367525026, 2685.0480061826715, -1154.4676011166098, -4350.364726825324, 26868.048532968587, 19532.921258559378, 0.0, 0.0, 0.0, 196.0, 0.0, 0.0, 0.0, 15.0, 69.0, 0.0, 0.0, 0.0, 0.0, 1.6878033645521014E9, 0.0, 2023-06-26 13:16:04.552
147.0, 48757.089526306336, 54859.696907961006, 80681.05795157647, 2577.849039775019, -1250.8259714634385, -4450.254672796092, 26790.085648308475, 19440.56385047005, 0.0, 0.0, 0.0, 196.0, 2.0, 176.0, 0.0, 15.0, 69.0, 4.0, 0.0, 0.0, 0.0, 1.687803364556112E9, 0.0, 2023-06-26 13:16:04.556
148.0, 48796.093320380845, 54885.62493152916, 80301.5029789809, 2604.0229325321834, -1284.197125935212, -4433.379105732334, 26737.9613802387, 19415.932228080303, 0.0, 0.0, 0.0, 196.0, 29.0, 240.0, 0.0, 15.0, 69.0, 8.0, 0.0, 0.0, 0.0, 1.6878033645591748E9, 0.0, 2023-06-26 13:16:04.559
149.0, 48881.946370833684, 54963.45370572254, 76883.51892036425, 2718.106236232071, -1192.6667323907295, -4329.510549248523, 26816.706575954748, 19515.621008350972, 0.0, 0.0, 0.0, 196.0, 6.0, 208.0, 0.0, 15.0, 69.0, 12.0, 0.0, 0.0, 0.0, 1.6878033645631835E9, 0.0, 2023-06-26 13:16:04.563
150.0, 48862.52270490202, 54959.83272312078, 76804.57255894812, 2704.6504860699756, -1149.03612721397, -4340.507607520533, 26867.55679459057, 19536.63164813896, 0.0, 0.0, 0.0, 196.0, 0.0, 0.0, 0.0, 15.0, 69.0, 16.0, 0.0, 0.0, 0.0, 1.6878033645662012E9, 0.0, 2023-06-26 13:16:04.566
151.0, 48765.94081711064, 54872.549161022805, 80267.26010647537, 2591.774176570675, -1241.974680659137, -4448.041850095016, 26801.038003091577, 19441.94965862628, 0.0, 0.0, 0.0, 196.0, 0.0, 0.0, 0.0, 15.0, 69.0, 20.0, 0.0, 0.0, 0.0, 1.6878033645691965E9, 0.0, 2023-06-26 13:16:04.569
152.0, 48770.65703519071, 54864.368422552165, 80770.04024625305, 2587.1250137239713, -1298.0105040085919, -4458.1895420777255, 26730.76411852409, 19395.592140625973, 0.0, 0.0, 0.0, 196.0, 0.0, 0.0, 0.0, 15.0, 69.0, 24.0, 0.0, 0.0, 0.0, 1.6878033645732057E9, 0.0, 2023-06-26 13:16:04.573
153.0, 48869.988187550094, 54954.80358061833, 77423.80528733793, 2710.908974517462, -1203.5743836849194, -4336.864273174318, 26799.786305402078, 19505.24979892371, 0.0, 0.0, 0.0, 196.0, 0.0, 0.0, 0.0, 15.0, 69.0, 28.0, 0.0, 0.0, 0.0, 1.6878033645762026E9, 0.0, 2023-06-26 13:16:04.576
154.0, 48873.408004451754, 54970.628615692694, 76432.61717946734, 2729.125646248537, -1136.1168189188027, -4316.837110142364, 26873.010620237666, 19564.928956619377, 0.0, 0.0, 0.0, 196.0, 0.0, 0.0, 0.0, 15.0, 69.0, 32.0, 0.0, 0.0, 0.0, 1.6878033645792074E9, 0.0, 2023-06-26 13:16:04.579
155.0, 48773.585113714355, 54883.14388789462, 79707.32655612548, 2612.717761125298, -1221.9475176271817, -4432.3062219984795, 26814.471401509214, 19470.403429317885, 0.0, 0.0, 0.0, 196.0, 0.0, 0.0, 0.0, 15.0, 69.0, 36.0, 0.0, 0.0, 0.0, 1.6878033645852435E9, 0.0, 2023-06-26 13:16:04.585
156.0, 48759.50351470751, 54857.797009682305, 81047.7830228547, 2583.012292744195, -1293.2719341840666, -4466.124411359359, 26733.87101100338, 19412.199486756264, 0.0, 0.0, 0.0, 196.0, 0.0, 0.0, 0.0, 15.0, 69.0, 40.0, 0.0, 0.0, 0.0, 1.6878033645882633E9, 0.0, 2023-06-26 13:16:04.588
157.0, 48856.39832692127, 54941.59369964525, 78032.8232685117, 2693.8992969869732, -1225.4790932511203, -4354.857427460841, 26769.656153876324, 19484.820304491557, 0.0, 0.0, 0.0, 196.0, 2.0, 240.0, 0.0, 15.0, 69.0, 44.0, 0.0, 0.0, 0.0, 1.6878033645922716E9, 0.0, 2023-06-26 13:16:04.592
158.0, 48879.57708592142, 54973.422583749605, 76242.0462062414, 2738.021640541749, -1153.0594412159255, -4315.563060708411, 26851.776463005124, 19549.796825623136, 0.0, 0.0, 0.0, 196.0, 30.0, 0.0, 0.0, 15.0, 69.0, 48.0, 0.0, 0.0, 0.0, 1.6878033645963204E9, 0.0, 2023-06-26 13:16:04.596
159.0, 48788.00198888803, 54895.45969908949, 79101.50487440883, 2635.136560813971, -1203.7755493850173, -4415.58711714591, 26821.467497523725, 19480.12643815594, 0.0, 0.0, 0.0, 196.0, 6.0, 208.0, 0.0, 15.0, 69.0, 52.0, 0.0, 0.0, 0.0, 1.6878033646214025E9, 0.0, 2023-06-26 13:16:04.621
160.0, 48746.964186068086, 54845.347088020695, 81188.19668152294, 2580.8665252764854, -1289.516841115575, -4463.017518880072, 26743.10228146342, 19407.751489609658, 0.0, 0.0, 0.0, 196.0, 0.0, 0.0, 0.0, 15.0, 69.0, 56.0, 0.0, 0.0, 0.0, 1.6878033646254616E9, 0.0, 2023-06-26 13:16:04.625
161.0, 48845.06599248243, 54929.389647172655, 78673.53602332306, 2681.3376166030907, -1237.7949044459945, -4369.654282290254, 26758.05559850402, 19462.870891436447, 0.0, 0.0, 0.0, 196.0, 0.0, 0.0, 0.0, 15.0, 69.0, 60.0, 0.0, 0.0, 0.0, 1.687803364629459E9, 0.0, 2023-06-26 13:16:04.629
