%OpenBCI Raw EEG Data
%Number of channels = 8
%Sample Rate = 250 Hz
%Board = OpenBCI_GUI$BoardCytonSerial
Sample Index, EXG Channel 0, EXG Channel 1, EXG Channel 2, EXG Channel 3, EXG Channel 4, EXG Channel 5, EXG Channel 6, EXG Channel 7, Accel Channel 0, Accel Channel 1, Accel Channel 2, Other, Other, Other, Other, Other, Other, Other, Analog Channel 0, Analog Channel 1, Analog Channel 2, Timestamp, Other, Timestamp (Formatted)
66.0, 48812.03011417748, 54940.65492637813, 78770.9896291482, 2741.508512676777, -1093.1344143312472, -4302.353179735324, 26857.096178185486, 19342.283230100064, 0.0, 0.0, 0.0, 196.0, 0.0, 0.0, 0.0, 15.0, 123.0, 176.0, 0.0, 0.0, 0.0, 1.687803397342676E9, 0.0, 2023-06-26 13:16:37.342
67.0, 48762.85627637581, 54883.27799836135, 81016.49058061726, 2675.3473490890683, -1193.3372847243888, -4367.4414595891785, 26768.091531764454, 19262.979240772635, 0.0, 0.0, 0.0, 196.0, 3.0, 224.0, 0.0, 15.0, 123.0, 180.0, 0.0, 0.0, 0.0, 1.687803397342705E9, 0.0, 2023-06-26 13:16:37.342
68.0, 48851.95032977466, 54958.0222318199, 78710.19288422976, 2760.194571041414, -1157.7980110404505, -4280.761394591498, 26766.638668374857, 19302.34066275843, 0.0, 0.0, 0.0, 196.0, 30.0, 0.0, 0.0, 15.0, 123.0, 184.0, 0.0, 0.0, 0.0, 1.6878033973427231E9, 0.0, 2023-06-26 13:16:37.342
69.0, 48899.31367627546, 55009.40889232265, 76114.50715237942, 2837.576310345687, -1054.912931312672, -4204.586649487812, 26863.13114918842, 19397.156762737843, 0.0, 0.0, 0.0, 196.0, 6.0, 176.0, 0.0, 15.0, 123.0, 188.0, 0.0, 0.0, 0.0, 1.6878033973427389E9, 0.0, 2023-06-26 13:16:37.342
70.0, 48831.610242320334, 54957.30697599733, 78149.43231933503, 2758.4958384628103, -1081.2879897699345, -4282.951865548118, 26864.539309089105, 19357.63887854086, 0.0, 0.0, 0.0, 196.0, 0.0, 0.0, 0.0, 15.0, 123.0, 192.0, 0.0, 0.0, 0.0, 1.6878033973427546E9, 0.0, 2023-06-26 13:16:37.342
1.0, 49621.40913264861, 55928.82554874725, 79073.76635953979, 3152.4453344875974, -515.6770963283892, -4011.8252053052433, 26356.148881453144, 19275.317403711964, 0.0, 0.0, 0.0, 196.0, 0.0, 0.0, 0.0, 15.0, 197.0, 105.0, 0.0, 0.0, 0.0, 1.687803397420958E9, 0.0, 2023-06-26 13:16:37.420
2.0, 49584.394643830616, 55916.26386836337, 79543.75649020154, 3113.039209012891, -491.201936149828, -4033.998135804908, 26377.204224730045, 19265.281470451533, 0.0, 0.0, 0.0, 196.0, 0.0, 0.0, 0.0, 15.0, 197.0, 109.0, 0.0, 0.0, 0.0, 1.68780339742499E9, 0.0, 2023-06-26 13:16:37.424
3.0, 49464.2763691278, 55804.773367020294, 83782.92128836171, 2973.474916633954, -618.226899889338, -4169.203838015061, 26268.23947051042, 19135.976628777582, 0.0, 0.0, 0.0, 196.0, 0.0, 0.0, 0.0, 15.0, 197.0, 112.0, 0.0, 0.0, 0.0, 1.6878033974279785E9, 0.0, 2023-06-26 13:16:37.427
4.0, 49482.29187515878, 55803.20874490843, 83780.35083774934, 2986.014245273381, -683.2704762542816, -4157.670337876122, 26222.552504843774, 19112.64140756624, 0.0, 0.0, 0.0, 196.0, 0.0, 0.0, 0.0, 15.0, 197.0, 116.0, 0.0, 0.0, 0.0, 1.687803397431032E9, 0.0, 2023-06-26 13:16:37.431
5.0, 49592.59773404572, 55898.58363849922, 79619.10422076038, 3125.7126481190503, -548.4447536998694, -4041.3518597307043, 26320.989587424945, 19237.297086393486, 0.0, 0.0, 0.0, 196.0, 0.0, 0.0, 0.0, 15.0, 197.0, 120.0, 0.0, 0.0, 0.0, 1.687803397435052E9, 0.0, 2023-06-26 13:16:37.435
6.0, 49593.6035625462, 55912.46407180597, 78956.17383196042, 3123.566880651341, -472.4488225518254, -4048.7055836565, 26383.88739632218, 19279.787752603024, 0.0, 0.0, 0.0, 196.0, 0.0, 0.0, 0.0, 15.0, 197.0, 124.0, 0.0, 0.0, 0.0, 1.6878033974390724E9, 0.0, 2023-06-26 13:16:37.439
7.0, 49478.55913383474, 55813.803471780244, 83162.12393786001, 2991.02103603137, -584.2075448283607, -4163.392384456681, 26288.646613198118, 19155.489701687064, 0.0, 0.0, 0.0, 196.0, 1.0, 112.0, 0.0, 15.0, 197.0, 128.0, 0.0, 0.0, 0.0, 1.687803397443068E9, 0.0, 2023-06-26 13:16:37.443
8.0, 49474.714633788426, 55796.52557331629, 84239.52272409473, 2982.4826696494424, -662.5057056553013, -4182.793698643887, 26225.681749067517, 19117.40232913522, 0.0, 0.0, 0.0, 196.0, 30.0, 240.0, 0.0, 15.0, 197.0, 132.0, 0.0, 0.0, 0.0, 1.6878033974480925E9, 0.0, 2023-06-26 13:16:37.448
9.0, 49586.24983862041, 55890.425251773035, 80345.08888066874, 3126.785531852905, -584.9451523953858, -4007.6007256031903, 26307.39972679612, 19232.692627035693, 0.0, 0.0, 0.0, 196.0, 4.0, 64.0, 0.0, 15.0, 197.0, 136.0, 0.0, 0.0, 0.0, 1.687803397451105E9, 0.0, 2023-06-26 13:16:37.451
10.0, 49607.08166445275, 55921.471824821456, 78576.77532157605, 3157.1615525676675, -481.7024447563225, -3990.9933794728972, 26380.333468953788, 19282.29114798202, 0.0, 0.0, 0.0, 196.0, 0.0, 0.0, 0.0, 15.0, 197.0, 140.0, 0.0, 0.0, 0.0, 1.6878033974571817E9, 0.0, 2023-06-26 13:16:37.457
11.0, 49492.75249156386, 55824.018218996316, 82431.91479824958, 3016.1891002880457, -568.4495649873692, -4137.084381232784, 26319.3132065908, 19171.89588211726, 0.0, 0.0, 0.0, 196.0, 0.0, 0.0, 0.0, 15.0, 197.0, 144.0, 0.0, 0.0, 0.0, 1.6878033974601953E9, 0.0, 2023-06-26 13:16:37.460
12.0, 49459.56015104773, 55779.694709741445, 84503.96621274546, 2975.7100910794848, -658.3482811866143, -4161.53718966689, 26242.57966787573, 19115.34596864533, 0.0, 0.0, 0.0, 196.0, 0.0, 0.0, 0.0, 15.0, 197.0, 148.0, 0.0, 0.0, 0.0, 1.6878033974631784E9, 0.0, 2023-06-26 13:16:37.463
13.0, 49559.27128306285, 55859.64689965807, 81108.51271253977, 3090.4192436241206, -601.0607601476622, -4043.0729440537625, 26295.977985379457, 19216.644074516782, 0.0, 0.0, 0.0, 196.0, 0.0, 0.0, 0.0, 15.0, 197.0, 152.0, 0.0, 0.0, 0.0, 1.6878033974671867E9, 0.0, 2023-06-26 13:16:37.467
14.0, 49616.04471397933, 55925.36102835668, 78401.82821772435, 3163.9564828820808, -460.53534275714674, -3990.9263242395314, 26395.286785994387, 19303.2570842811, 0.0, 0.0, 0.0, 196.0, 0.0, 0.0, 0.0, 15.0, 197.0, 156.0, 0.0, 0.0, 0.0, 1.6878033974711907E9, 0.0, 2023-06-26 13:16:37.471
15.0, 49512.533785406806, 55846.61583264063, 81647.70384403513, 3044.039373879358, -531.6585936139338, -4099.8910784591535, 26333.037177686358, 19194.89582716177, 0.0, 0.0, 0.0, 196.0, 0.0, 0.0, 0.0, 15.0, 197.0, 160.0, 0.0, 0.0, 0.0, 1.6878033974752052E9, 0.0, 2023-06-26 13:16:37.475
16.0, 49441.87992118358, 55764.093192111635, 84580.94562064954, 2960.3544426386884, -652.7826968172427, -4190.505050480968, 26244.05488300978, 19111.2108959211, 0.0, 0.0, 0.0, 196.0, 0.0, 0.0, 0.0, 15.0, 197.0, 164.0, 0.0, 0.0, 0.0, 1.6878033974792233E9, 0.0, 2023-06-26 13:16:37.479
17.0, 49526.05659080227, 55821.53717536178, 81906.73821052769, 3050.36491756021, -624.0607051921731, -4104.495537816946, 26270.653458911594, 19166.93379484818, 0.0, 0.0, 0.0, 196.0, 0.0, 128.0, 0.0, 15.0, 197.0, 168.0, 0.0, 0.0, 0.0, 1.687803397483264E9, 0.0, 2023-06-26 13:16:37.483
18.0, 49599.839699249234, 55895.655559975574, 78445.97291302358, 3152.8029623988823, -502.8695467554983, -3996.290742908805, 26379.998192786956, 19281.57589215945, 0.0, 0.0, 0.0, 196.0, 31.0, 16.0, 0.0, 15.0, 197.0, 172.0, 0.0, 0.0, 0.0, 1.687803397487296E9, 0.0, 2023-06-26 13:16:37.487
19.0, 49525.9895355689, 55844.850044828665, 80825.40551726884, 3060.914940943115, -513.9783637497859, -4072.197267079028, 26358.652276832137, 19234.167842169743, 0.0, 0.0, 0.0, 196.0, 3.0, 208.0, 0.0, 15.0, 197.0, 176.0, 0.0, 0.0, 0.0, 1.6878033974913085E9, 0.0, 2023-06-26 13:16:37.491
20.0, 49429.67586871098, 55745.161264557995, 84465.81178496026, 2944.015317441859, -648.580568859645, -4189.678035936122, 26247.96643828946, 19112.88727675525, 0.0, 0.0, 0.0, 196.0, 0.0, 0.0, 0.0, 15.0, 197.0, 180.0, 0.0, 0.0, 0.0, 1.6878033974943247E9, 0.0, 2023-06-26 13:16:37.494
21.0, 49512.533785406806, 55806.65091355454, 82670.63142903226, 3024.660411436607, -641.517417611768, -4133.53045386439, 26249.173432490046, 19144.626753881785, 0.0, 0.0, 0.0, 196.0, 0.0, 0.0, 0.0, 15.0, 197.0, 184.0, 0.0, 0.0, 0.0, 1.6878033974993389E9, 0.0, 2023-06-26 13:16:37.499
22.0, 49613.00487673341, 55904.260981590865, 78693.33966891047, 3159.4861339910194, -506.22230842379435, -4001.521051111347, 26383.865044577724, 19293.601130676405, 0.0, 0.0, 0.0, 196.0, 0.0, 0.0, 0.0, 15.0, 197.0, 188.0, 0.0, 0.0, 0.0, 1.6878033975033672E9, 0.0, 2023-06-26 13:16:37.503
23.0, 49554.01862311586, 55868.72170790693, 80026.82239136963, 3096.6330285826957, -497.68394204186706, -4035.294536983316, 26385.586128900784, 19255.267888935556, 0.0, 0.0, 0.0, 196.0, 0.0, 0.0, 0.0, 15.0, 197.0, 192.0, 0.0, 0.0, 0.0, 1.687803397507372E9, 0.0, 2023-06-26 13:16:37.507
24.0, 49444.31626132921, 55758.907587398004, 84137.37525193396, 2960.019166471859, -618.5174725672571, -4189.029835346918, 26267.278345498842, 19118.40815763571, 0.0, 0.0, 0.0, 196.0, 0.0, 0.0, 0.0, 15.0, 197.0, 196.0, 0.0, 0.0, 0.0, 1.6878033975114076E9, 0.0, 2023-06-26 13:16:37.511
25.0, 49491.29962817427, 55786.64610226704, 83358.68517859998, 3004.633248404652, -639.1481326995055, -4157.402116942659, 26239.53983062981, 19124.621942594284, 0.0, 0.0, 0.0, 196.0, 0.0, 0.0, 0.0, 15.0, 197.0, 200.0, 0.0, 0.0, 0.0, 1.687803397515416E9, 0.0, 2023-06-26 13:16:37.515
26.0, 49593.71532126848, 55882.244513302394, 79166.28022984031, 3144.7339826505167, -531.3903726804701, -4005.4773098799365, 26348.750454038436, 19249.81406328846, 0.0, 0.0, 0.0, 196.0, 0.0, 0.0, 0.0, 15.0, 197.0, 204.0, 0.0, 0.0, 0.0, 1.6878033975204394E9, 0.0, 2023-06-26 13:16:37.520
27.0, 49572.5482192693, 55877.0365568443, 79344.1777639601, 3115.341438691788, -488.36326460400403, -4031.785313103833, 26385.161445756134, 19253.122121467844, 0.0, 0.0, 0.0, 196.0, 255.0, 224.0, 0.0, 15.0, 197.0, 208.0, 0.0, 0.0, 0.0, 1.6878033975234537E9, 0.0, 2023-06-26 13:16:37.523
28.0, 49460.49892431485, 55771.715136970895, 83628.78365859791, 2973.2290474449455, -611.6778387639331, -4184.313617266848, 26285.852645141204, 19130.098119985836, 0.0, 0.0, 0.0, 196.0, 30.0, 144.0, 0.0, 15.0, 197.0, 212.0, 0.0, 0.0, 0.0, 1.6878033975264719E9, 0.0, 2023-06-26 13:16:37.526
29.0, 49466.98093020689, 55759.824008920674, 83918.19404580523, 2974.8607247901828, -674.6874063834437, -4189.812146402854, 26229.168621202545, 19104.01363420649, 0.0, 0.0, 0.0, 196.0, 3.0, 240.0, 0.0, 15.0, 197.0, 216.0, 0.0, 0.0, 0.0, 1.687803397532502E9, 0.0, 2023-06-26 13:16:37.532
30.0, 49580.17016412856, 55856.182379267506, 79794.96774613473, 3116.749598592472, -568.8071928986541, -4044.123476043162, 26325.526991549374, 19230.166879912245, 0.0, 0.0, 0.0, 196.0, 0.0, 0.0, 0.0, 15.0, 197.0, 220.0, 0.0, 0.0, 0.0, 1.6878033975365188E9, 0.0, 2023-06-26 13:16:37.536
31.0, 49582.60650427419, 55877.416536500044, 78840.23533347074, 3126.3384969637987, -496.1640234189062, -4012.898089039098, 26390.883492336692, 19267.449589663698, 0.0, 0.0, 0.0, 196.0, 0.0, 0.0, 0.0, 15.0, 197.0, 224.0, 0.0, 0.0, 0.0, 1.6878033975405412E9, 0.0, 2023-06-26 13:16:37.540
32.0, 49473.5746948212, 55786.78021273378, 83006.73461040671, 2994.0385215328365, -594.5787542556232, -4129.618898584712, 26312.987662909945, 19163.111646546324, 0.0, 0.0, 0.0, 196.0, 0.0, 0.0, 0.0, 15.0, 197.0, 228.0, 0.0, 0.0, 0.0, 1.6878033975455503E9, 0.0, 2023-06-26 13:16:37.545
33.0, 49456.542665546265, 55754.727811184865, 84318.69260295542, 2974.950131768004, -677.9284093294632, -4173.674186906122, 26236.321179428243, 19110.607398820808, 0.0, 0.0, 0.0, 196.0, 0.0, 0.0, 0.0, 15.0, 197.0, 232.0, 0.0, 0.0, 0.0, 1.6878033975485637E9, 0.0, 2023-06-26 13:16:37.548
34.0, 49565.865047677165, 55841.31846920472, 80509.06127799288, 3103.405607152654, -578.1725738254278, -4055.478162226458, 26305.388069795143, 19216.934647194703, 0.0, 0.0, 0.0, 196.0, 0.0, 0.0, 0.0, 15.0, 197.0, 236.0, 0.0, 0.0, 0.0, 1.687803397551582E9, 0.0, 2023-06-26 13:16:37.551
35.0, 49590.0049316889, 55877.52829522232, 78520.24775984857, 3145.71745940655, -497.750997275233, -4012.294591938805, 26390.436457447584, 19285.375688716853, 0.0, 0.0, 0.0, 196.0, 0.0, 0.0, 0.0, 15.0, 197.0, 240.0, 0.0, 0.0, 0.0, 1.6878033975545995E9, 0.0, 2023-06-26 13:16:37.554
36.0, 49483.05183447026, 55793.262218625816, 82297.51375883982, 3021.687629424051, -573.456355745358, -4122.376933381192, 26325.616398527196, 19176.54504496396, 0.0, 0.0, 0.0, 196.0, 0.0, 0.0, 0.0, 15.0, 197.0, 244.0, 0.0, 0.0, 0.0, 1.6878033975586176E9, 0.0, 2023-06-26 13:16:37.558
37.0, 49434.41443853551, 55736.17586328696, 84583.7619404509, 2965.2047711854902, -673.5251156717677, -4168.242713003482, 26230.800298547783, 19099.476230082062, 0.0, 0.0, 0.0, 196.0, 255.0, 208.0, 0.0, 15.0, 197.0, 248.0, 0.0, 0.0, 0.0, 1.6878033975636296E9, 0.0, 2023-06-26 13:16:37.563
38.0, 49534.95258509548, 55813.84817526915, 81334.22062804946, 3083.9819412209918, -611.4766730638353, -4063.345976274726, 26286.187921308032, 19194.1805713392, 0.0, 0.0, 0.0, 196.0, 30.0, 144.0, 0.0, 15.0, 197.0, 252.0, 0.0, 0.0, 0.0, 1.6878033975676713E9, 0.0, 2023-06-26 13:16:37.567
39.0, 49600.465548093984, 55884.412632514555, 78408.77961024996, 3170.773764940949, -498.1756804198838, -3988.5793910717243, 26400.114762796733, 19297.57974118945, 0.0, 0.0, 0.0, 196.0, 3.0, 208.0, 0.0, 15.0, 198.0, 0.0, 0.0, 0.0, 0.0, 1.6878033975716872E9, 0.0, 2023-06-26 13:16:37.571
40.0, 49507.147014993076, 55812.32825664619, 81472.06383610533, 3047.1686181031014, -552.0657363016292, -4149.735468594488, 26354.673666319093, 19213.738347737595, 0.0, 0.0, 0.0, 196.0, 0.0, 0.0, 0.0, 15.0, 198.0, 4.0, 0.0, 0.0, 0.0, 1.6878033975747073E9, 0.0, 2023-06-26 13:16:37.574
41.0, 49426.77014193179, 55721.55782241319, 84618.09421993425, 2959.5497798382976, -671.9157900709856, -4172.82482061682, 26242.80318532028, 19100.772631260472, 0.0, 0.0, 0.0, 196.0, 0.0, 0.0, 0.0, 15.0, 198.0, 8.0, 0.0, 0.0, 0.0, 1.687803397578704E9, 0.0, 2023-06-26 13:16:37.578
42.0, 49518.412294198555, 55791.13880290256, 82137.72113772883, 3069.3191968583105, -622.5631383136677, -4058.227426794461, 26285.003278851902, 19169.75011464955, 0.0, 0.0, 0.0, 196.0, 0.0, 0.0, 0.0, 15.0, 198.0, 12.0, 0.0, 0.0, 0.0, 1.6878033975827389E9, 0.0, 2023-06-26 13:16:37.582
43.0, 49600.04086494933, 55871.35921375266, 78528.74142274159, 3177.7475092110053, -504.56827933410165, -3967.1217163946294, 26409.167219301133, 19291.611825419885, 0.0, 0.0, 0.0, 196.0, 0.0, 0.0, 0.0, 15.0, 198.0, 16.0, 0.0, 0.0, 0.0, 1.6878033975867624E9, 0.0, 2023-06-26 13:16:37.586
44.0, 49514.72425636343, 55809.98132347839, 80700.03458261903, 3073.3201591158104, -522.8520062985428, -4075.5947322362344, 26374.142035739667, 19220.62268502983, 0.0, 0.0, 0.0, 196.0, 0.0, 0.0, 0.0, 15.0, 198.0, 20.0, 0.0, 0.0, 0.0, 1.68780339759179E9, 0.0, 2023-06-26 13:16:37.591
45.0, 49421.00339186232, 55711.58894438612, 84480.9886194454, 2956.1970181700017, -636.0412402202178, -4194.617771460745, 26262.58447916323, 19109.82508776487, 0.0, 0.0, 0.0, 196.0, 0.0, 0.0, 0.0, 15.0, 198.0, 24.0, 0.0, 0.0, 0.0, 1.6878033975957909E9, 0.0, 2023-06-26 13:16:37.595
46.0, 49490.98670375189, 55756.337136785645, 82908.16341735881, 3026.2250335484787, -636.1082954535837, -4141.644137101667, 26269.29000249982, 19137.92123054519, 0.0, 0.0, 0.0, 196.0, 0.0, 0.0, 0.0, 15.0, 198.0, 28.0, 0.0, 0.0, 0.0, 1.687803397599819E9, 0.0, 2023-06-26 13:16:37.599
47.0, 49576.03509140433, 55836.49049240238, 78866.40922622792, 3140.9341860931145, -523.2096342098278, -4025.280955467338, 26389.65414639165, 19269.28243270903, 0.0, 0.0, 0.0, 196.0, 0.0, 0.0, 0.0, 15.0, 198.0, 32.0, 0.0, 0.0, 0.0, 1.6878033976038375E9, 0.0, 2023-06-26 13:16:37.603
48.0, 49543.20037879948, 55828.80149230975, 79932.31921581259, 3100.4775286290087, -496.34283737454865, -4067.4363455100474, 26404.518056454428, 19245.589583586407, 0.0, 0.0, 0.0, 196.0, 30.0, 80.0, 0.0, 15.0, 198.0, 36.0, 0.0, 0.0, 0.0, 1.6878033976068418E9, 0.0, 2023-06-26 13:16:37.606
49.0, 49437.18605484797, 55727.07870329365, 84102.57358581705, 2984.7178440949733, -621.9596412133743, -4172.0872130497955, 26301.96825289348, 19122.096195470833, 0.0, 0.0, 0.0, 196.0, 3.0, 240.0, 0.0, 15.0, 198.0, 40.0, 0.0, 0.0, 0.0, 1.687803397610865E9, 0.0, 2023-06-26 13:16:37.610
50.0, 49463.0246714383, 55729.783264372745, 83571.92082070361, 3006.1531670276127, -654.5261328847567, -4149.087268005284, 26253.66613312556, 19110.383881376252, 0.0, 0.0, 0.0, 196.0, 0.0, 0.0, 0.0, 15.0, 198.0, 44.0, 0.0, 0.0, 0.0, 1.6878033976149223E9, 0.0, 2023-06-26 13:16:37.614
51.0, 49561.03707087482, 55813.55760259123, 79384.12033130173, 3142.05177331588, -538.4982274172578, -4018.776597830844, 26366.11775948021, 19248.785883043514, 0.0, 0.0, 0.0, 196.0, 0.0, 0.0, 0.0, 15.0, 198.0, 48.0, 0.0, 0.0, 0.0, 1.6878033976189158E9, 0.0, 2023-06-26 13:16:37.618
52.0, 49539.4899892199, 55810.22719266739, 79306.8727024642, 3120.4376364275977, -485.3904825914482, -4045.2634150103827, 26411.670614680126, 19253.09976972339, 0.0, 0.0, 0.0, 196.0, 0.0, 0.0, 0.0, 15.0, 198.0, 52.0, 0.0, 0.0, 0.0, 1.6878033976249528E9, 0.0, 2023-06-26 13:16:37.624
53.0, 49425.764313431304, 55711.85716531958, 83599.18994893908, 2986.662445862585, -603.3629898265589, -4162.721832123021, 26315.60281701122, 19136.69188460015, 0.0, 0.0, 0.0, 196.0, 0.0, 0.0, 0.0, 15.0, 198.0, 56.0, 0.0, 0.0, 0.0, 1.68780339762797E9, 0.0, 2023-06-26 13:16:37.627
54.0, 49432.04515362324, 55702.53648788172, 84120.00794649219, 2992.5186029098754, -666.3278539571588, -4166.789849613887, 26263.366790219163, 19118.475212869074, 0.0, 0.0, 0.0, 196.0, 0.0, 0.0, 0.0, 15.0, 198.0, 60.0, 0.0, 0.0, 0.0, 1.6878033976321237E9, 0.0, 2023-06-26 13:16:37.632
55.0, 49547.201341056985, 55803.23109665288, 80026.53181869171, 3134.1616075231564, -569.1201173210284, -4025.5938798897128, 26356.148881453144, 19244.650810319283, 0.0, 0.0, 0.0, 196.0, 0.0, 0.0, 0.0, 15.0, 198.0, 64.0, 0.0, 0.0, 0.0, 1.6878033976349733E9, 0.0, 2023-06-26 13:16:37.634
56.0, 49551.09054459221, 55821.09014047267, 78811.1557139344, 3144.175189039134, -504.18829967836143, -4012.965144272464, 26421.527733984916, 19283.766363116072, 0.0, 0.0, 0.0, 196.0, 0.0, 0.0, 0.0, 15.0, 198.0, 68.0, 0.0, 0.0, 0.0, 1.6878033976390705E9, 0.0, 2023-06-26 13:16:37.639
57.0, 49430.167607089, 55713.64530487601, 82917.99818491915, 3004.8567658492047, -615.7011527658883, -4146.2038929705495, 26329.416195084596, 19156.36141972082, 0.0, 0.0, 0.0, 196.0, 0.0, 0.0, 0.0, 15.0, 198.0, 72.0, 0.0, 0.0, 0.0, 1.6878033976430163E9, 0.0, 2023-06-26 13:16:37.643
58.0, 49419.148197072536, 55685.41505162896, 84466.54939252727, 2978.7946318143167, -690.9147728579966, -4189.521573724935, 26260.95280181799, 19112.2614279105, 0.0, 0.0, 0.0, 196.0, 30.0, 112.0, 0.0, 15.0, 198.0, 76.0, 0.0, 0.0, 0.0, 1.6878033976470444E9, 0.0, 2023-06-26 13:16:37.647
59.0, 49530.43753271551, 55779.068860896696, 80785.53000516057, 3110.3122961893437, -595.2493065892824, -4073.6948339575333, 26331.561962552307, 19225.47301357663, 0.0, 0.0, 0.0, 196.0, 3.0, 240.0, 0.0, 15.0, 198.0, 80.0, 0.0, 0.0, 0.0, 1.687803397651043E9, 0.0, 2023-06-26 13:16:37.651
60.0, 49566.40148954409, 55826.9239457755, 78570.20390870619, 3175.1547068541895, -494.7558635182218, -3977.1129461661517, 26422.622969463227, 19295.925712099757, 0.0, 0.0, 0.0, 196.0, 0.0, 0.0, 0.0, 15.0, 198.0, 84.0, 0.0, 0.0, 0.0, 1.6878033976550667E9, 0.0, 2023-06-26 13:16:37.655
61.0, 49454.419249823004, 55733.493653952326, 82193.24287095582, 3039.9266528995818, -567.6225504425229, -4108.272982629894, 26350.94092499506, 19187.989138125078, 0.0, 0.0, 0.0, 196.0, 0.0, 0.0, 0.0, 15.0, 198.0, 88.0, 0.0, 0.0, 0.0, 1.687803397658098E9, 0.0, 2023-06-26 13:16:37.658
62.0, 49397.802281117714, 55660.694022261385, 84696.95117437257, 2970.412727643577, -680.4094529640023, -4158.899683821164, 26250.29101971281, 19099.45387833761, 0.0, 0.0, 0.0, 196.0, 0.0, 0.0, 0.0, 15.0, 198.0, 92.0, 0.0, 0.0, 0.0, 1.6878033976621838E9, 0.0, 2023-06-26 13:16:37.662
63.0, 49497.356950921654, 55737.49461620982, 81603.04505861344, 3087.3123511448325, -623.680725536433, -4067.548104232324, 26299.15193309211, 19183.94347237867, 0.0, 0.0, 0.0, 196.0, 0.0, 0.0, 0.0, 15.0, 198.0, 96.0, 0.0, 0.0, 0.0, 1.6878033976671922E9, 0.0, 2023-06-26 13:16:37.667
64.0, 49558.57837898474, 55805.66743679851, 78494.54325372497, 3170.9972823855023, -505.7752735346882, -3991.038082961808, 26414.41987924813, 19289.220188763167, 0.0, 0.0, 0.0, 196.0, 0.0, 0.0, 0.0, 15.0, 198.0, 100.0, 0.0, 0.0, 0.0, 1.6878033976711752E9, 0.0, 2023-06-26 13:16:37.671
65.0, 49471.58538956468, 55739.57332844417, 81361.93679117404, 3058.3221385862994, -545.6954891318667, -4111.178709409083, 26370.141073482166, 19200.46141153114, 0.0, 0.0, 0.0, 196.0, 0.0, 0.0, 0.0, 15.0, 198.0, 104.0, 0.0, 0.0, 0.0, 1.687803397675192E9, 0.0, 2023-06-26 13:16:37.675
66.0, 49386.71581586788, 55642.96908890833, 84664.16116525665, 2958.186323426524, -683.0469588097285, -4216.745998471499, 26266.741903631915, 19101.55494231641, 0.0, 0.0, 0.0, 196.0, 0.0, 0.0, 0.0, 15.0, 198.0, 108.0, 0.0, 0.0, 0.0, 1.6878033976792068E9, 0.0, 2023-06-26 13:16:37.679
67.0, 49464.61164529463, 55697.753214568285, 82393.73801871992, 3042.3182895562995, -654.2802636957483, -4147.34383193777, 26273.603889179696, 19144.827919581883, 0.0, 0.0, 0.0, 196.0, 255.0, 208.0, 0.0, 15.0, 198.0, 112.0, 0.0, 0.0, 0.0, 1.6878033976833463E9, 0.0, 2023-06-26 13:16:37.683
68.0, 49557.50549525089, 55788.30013135674, 78644.70227297572, 3164.5376282379184, -516.0347242396741, -4003.2644871788607, 26406.306196010853, 19277.887854324326, 0.0, 0.0, 0.0, 196.0, 30.0, 160.0, 0.0, 15.0, 198.0, 116.0, 0.0, 0.0, 0.0, 1.6878033976882327E9, 0.0, 2023-06-26 13:16:37.688
69.0, 49491.12081421862, 55752.02325010577, 80569.1204153443, 3086.8653162557266, -543.974404808808, -4101.05336917083, 26397.454905206552, 19223.86368797585, 0.0, 0.0, 0.0, 196.0, 3.0, 160.0, 0.0, 15.0, 198.0, 120.0, 0.0, 0.0, 0.0, 1.687803397692299E9, 0.0, 2023-06-26 13:16:37.692
70.0, 49388.83923159113, 55649.093466889084, 84463.55425877027, 2965.2271229299454, -642.5679496011675, -4223.451521808091, 26287.48432248644, 19108.796907519925, 0.0, 0.0, 0.0, 196.0, 0.0, 0.0, 0.0, 15.0, 198.0, 124.0, 0.0, 0.0, 0.0, 1.6878033976953008E9, 0.0, 2023-06-26 13:16:37.695
71.0, 49447.847836953144, 55682.68813880541, 83148.39996676445, 3038.339679043255, -636.5329785982345, -4097.186517380062, 26273.737999646426, 19127.102986228823, 0.0, 0.0, 0.0, 196.0, 0.0, 0.0, 0.0, 15.0, 198.0, 128.0, 0.0, 0.0, 0.0, 1.6878033976992826E9, 0.0, 2023-06-26 13:16:37.699
72.0, 49554.80093417179, 55780.99111091985, 79047.88303946055, 3171.712538208072, -516.168834706406, -3987.6629695490565, 26406.2838442664, 19264.163883228764, 0.0, 0.0, 0.0, 196.0, 0.0, 0.0, 0.0, 15.0, 198.0, 132.0, 0.0, 0.0, 0.0, 1.6878033977033184E9, 0.0, 2023-06-26 13:16:37.703
73.0, 49519.35106746567, 55764.093192111635, 79853.19404044081, 3121.7787410949163, -476.00274992021923, -4053.4218017365697, 26420.633664206704, 19238.61583931635, 0.0, 0.0, 0.0, 196.0, 0.0, 0.0, 0.0, 15.0, 198.0, 136.0, 0.0, 0.0, 0.0, 1.6878033977073307E9, 0.0, 2023-06-26 13:16:37.707
74.0, 49397.64581890653, 55647.707658732856, 84079.84186170601, 2977.6770445915517, -620.3950191015028, -4203.960800643063, 26304.404593039108, 19109.556866831408, 0.0, 0.0, 0.0, 196.0, 0.0, 0.0, 0.0, 15.0, 198.0, 140.0, 0.0, 0.0, 0.0, 1.6878033977113638E9, 0.0, 2023-06-26 13:16:37.711
75.0, 49427.954784387926, 55658.950586193874, 83774.82995686888, 3008.276582750867, -677.548429673723, -4173.607131672756, 26265.892537342614, 19107.053471452415, 0.0, 0.0, 0.0, 196.0, 0.0, 0.0, 0.0, 15.0, 198.0, 144.0, 0.0, 0.0, 0.0, 1.687803397714367E9, 0.0, 2023-06-26 13:16:37.714
76.0, 49550.04001260281, 55768.764706702794, 79567.91872595773, 3155.395764755698, -554.1444485359727, -4038.267318995872, 26389.229463247, 19253.122121467844, 0.0, 0.0, 0.0, 196.0, 0.0, 0.0, 0.0, 15.0, 198.0, 148.0, 0.0, 0.0, 0.0, 1.6878033977183857E9, 0.0, 2023-06-26 13:16:37.718
77.0, 49529.40935247056, 55767.93769215795, 79226.0040910249, 3134.6756976456286, -518.2028434518389, -4049.867874368176, 26429.66376896665, 19268.61188037537, 0.0, 0.0, 0.0, 196.0, 255.0, 208.0, 0.0, 15.0, 198.0, 152.0, 0.0, 0.0, 0.0, 1.6878033977224252E9, 0.0, 2023-06-26 13:16:37.722
78.0, 49399.568068929686, 55647.03710639919, 83505.42438094907, 2984.2261057169567, -602.8936031929974, -4181.16202129865, 26313.658215243606, 19132.489756642553, 0.0, 0.0, 0.0, 196.0, 30.0, 224.0, 0.0, 15.0, 198.0, 156.0, 0.0, 0.0, 0.0, 1.6878033977274199E9, 0.0, 2023-06-26 13:16:37.727
79.0, 49396.416472961486, 55622.24902179826, 84266.79185233019, 2975.1960009570125, -681.7729093757761, -4184.425375989124, 26249.24048772341, 19093.754183501504, 0.0, 0.0, 0.0, 196.0, 3.0, 160.0, 0.0, 15.0, 198.0, 160.0, 0.0, 0.0, 0.0, 1.6878033977314308E9, 0.0, 2023-06-26 13:16:37.731
80.0, 49515.59597439718, 55721.42371194646, 80263.5497168958, 3120.5046916609635, -592.2541728322713, -4057.6462814386227, 26343.87777374718, 19224.690702520693, 0.0, 0.0, 0.0, 196.0, 0.0, 0.0, 0.0, 15.0, 198.0, 164.0, 0.0, 0.0, 0.0, 1.6878033977354836E9, 0.0, 2023-06-26 13:16:37.735
81.0, 49530.81751237125, 55749.58690996014, 78798.30346087259, 3141.560034937863, -518.493416129758, -4022.285821710327, 26414.71045192605, 19268.321307697453, 0.0, 0.0, 0.0, 196.0, 0.0, 0.0, 0.0, 15.0, 198.0, 168.0, 0.0, 0.0, 0.0, 1.6878033977384844E9, 0.0, 2023-06-26 13:16:37.738
82.0, 49408.17349054498, 55648.28880408869, 82805.77007600905, 2988.7411580969288, -629.4698273503575, -4177.1387072966945, 26319.82729671327, 19145.40906493772, 0.0, 0.0, 0.0, 196.0, 0.0, 0.0, 0.0, 15.0, 198.0, 172.0, 0.0, 0.0, 0.0, 1.687803397742496E9, 0.0, 2023-06-26 13:16:37.742
83.0, 49380.43497567594, 55607.653332668946, 84585.70654221851, 2955.213541413968, -725.9176046750075, -4200.272762807937, 26245.66420861056, 19108.707500542107, 0.0, 0.0, 0.0, 196.0, 0.0, 0.0, 0.0, 15.0, 198.0, 176.0, 0.0, 0.0, 0.0, 1.6878033977465284E9, 0.0, 2023-06-26 13:16:37.746
84.0, 49493.89243053108, 55700.56953436966, 81019.21749344081, 3106.1325199762014, -629.5145308392681, -4034.422818949559, 26322.330692092266, 19216.018225672036, 0.0, 0.0, 0.0, 196.0, 0.0, 0.0, 0.0, 15.0, 198.0, 180.0, 0.0, 0.0, 0.0, 1.6878033977505457E9, 0.0, 2023-06-26 13:16:37.750
85.0, 49541.971032854446, 55753.00672686181, 78548.1874404177, 3170.684357963128, -517.9346225183752, -3987.6182660601457, 26436.950437659078, 19300.463116224186, 0.0, 0.0, 0.0, 196.0, 0.0, 0.0, 0.0, 15.0, 198.0, 184.0, 0.0, 0.0, 0.0, 1.6878033977545583E9, 0.0, 2023-06-26 13:16:37.754
86.0, 49425.33963028665, 55653.3850018245, 81999.67676397285, 3016.6361351771516, -608.906222451475, -4150.026041272407, 26356.439454131065, 19185.84337065737, 0.0, 0.0, 0.0, 196.0, 0.0, 0.0, 0.0, 15.0, 198.0, 188.0, 0.0, 0.0, 0.0, 1.687803397759575E9, 0.0, 2023-06-26 13:16:37.759
87.0, 49377.99863553031, 55596.7233296303, 84700.8403779078, 2953.91714023556, -696.5697642051892, -4197.568201728845, 26273.022743823858, 19113.222552922078, 0.0, 0.0, 0.0, 196.0, 255.0, 240.0, 0.0, 15.0, 198.0, 192.0, 0.0, 0.0, 0.0, 1.6878033977636473E9, 0.0, 2023-06-26 13:16:37.763
88.0, 49467.83029649619, 55669.299443876684, 81809.59752912492, 3063.664205511118, -652.8274003061534, -4092.6938167445446, 26298.2578633139, 19180.970690366114, 0.0, 0.0, 0.0, 196.0, 31.0, 32.0, 0.0, 15.0, 198.0, 196.0, 0.0, 0.0, 0.0, 1.6878033977666078E9, 0.0, 2023-06-26 13:16:37.766
89.0, 49542.77569565483, 55745.407133747, 78520.27011159302, 3162.8612474037704, -539.5934628955678, -4008.360684914671, 26407.535541955895, 19289.086078296434, 0.0, 0.0, 0.0, 196.0, 3.0, 176.0, 0.0, 15.0, 198.0, 200.0, 0.0, 0.0, 0.0, 1.6878033977706308E9, 0.0, 2023-06-26 13:16:37.770
90.0, 49472.50181108735, 55698.82609830214, 81185.80504486621, 3064.93825494507, -550.2105415118386, -4119.29239264636, 26371.236308960477, 19207.949245923668, 0.0, 0.0, 0.0, 196.0, 0.0, 0.0, 0.0, 15.0, 198.0, 204.0, 0.0, 0.0, 0.0, 1.6878033977746732E9, 0.0, 2023-06-26 13:16:37.774
91.0, 49383.22894373285, 55605.10523380104, 84652.27003720643, 2956.0405559588144, -654.4367259069355, -4207.559431500367, 26293.38518302264, 19105.980587718557, 0.0, 0.0, 0.0, 196.0, 0.0, 0.0, 0.0, 15.0, 198.0, 208.0, 0.0, 0.0, 0.0, 1.6878033977786694E9, 0.0, 2023-06-26 13:16:37.778
92.0, 49453.68164225598, 55650.32281283412, 82560.77260503444, 3032.148245829135, -640.4892373668239, -4140.5712533678125, 26303.041136627333, 19138.59178287885, 0.0, 0.0, 0.0, 196.0, 0.0, 0.0, 0.0, 15.0, 198.0, 212.0, 0.0, 0.0, 0.0, 1.687803397784714E9, 0.0, 2023-06-26 13:16:37.784
93.0, 49543.4462479885, 55735.39355223102, 78715.15497149885, 3149.33844200831, -526.4059336669367, -4021.056475765285, 26418.957283372558, 19264.365048928863, 0.0, 0.0, 0.0, 196.0, 0.0, 0.0, 0.0, 15.0, 198.0, 216.0, 0.0, 0.0, 0.0, 1.687803397788737E9, 0.0, 2023-06-26 13:16:37.788
94.0, 49483.454165870455, 55696.72503432334, 80390.68643935758, 3071.755537003939, -549.6293961560007, -4096.918296446597, 26413.570512958828, 19214.3865483268, 0.0, 0.0, 0.0, 196.0, 0.0, 0.0, 0.0, 15.0, 198.0, 220.0, 0.0, 0.0, 0.0, 1.6878033977927408E9, 0.0, 2023-06-26 13:16:37.792
95.0, 49392.68373163745, 55593.88465808448, 84401.23759522887, 2944.5964627976973, -625.1112371815726, -4196.338855783803, 26304.87397967267, 19097.73279401455, 0.0, 0.0, 0.0, 196.0, 0.0, 0.0, 0.0, 15.0, 198.0, 224.0, 0.0, 0.0, 0.0, 1.6878033977957785E9, 0.0, 2023-06-26 13:16:37.795
96.0, 49442.63988049506, 55627.00994336724, 83280.96816312888, 2978.012320758381, -656.3589759300919, -4161.380727455703, 26266.451330953998, 19100.794983004926, 0.0, 0.0, 0.0, 196.0, 0.0, 0.0, 0.0, 15.0, 198.0, 228.0, 0.0, 0.0, 0.0, 1.6878033977997928E9, 0.0, 2023-06-26 13:16:37.799
97.0, 49561.66291971957, 55746.07768608066, 79126.94115959897, 3144.108133805768, -506.1105497015178, -4001.878679022632, 26407.1332105557, 19262.57690937244, 0.0, 0.0, 0.0, 196.0, 255.0, 208.0, 0.0, 15.0, 198.0, 232.0, 0.0, 0.0, 0.0, 1.6878033978027837E9, 0.0, 2023-06-26 13:16:37.802
98.0, 49500.933230034505, 55701.01656925876, 79648.76498565257, 3090.8439267687713, -477.3215028430823, -4078.254589826416, 26418.532600227907, 19240.538089339505, 0.0, 0.0, 0.0, 196.0, 31.0, 16.0, 0.0, 15.0, 198.0, 236.0, 0.0, 0.0, 0.0, 1.6878033978068132E9, 0.0, 2023-06-26 13:16:37.806
99.0, 49393.37663571556, 55599.65140815394, 83929.81695292199, 2959.7732972828508, -616.8857952220196, -4199.73632094101, 26314.664043744095, 19131.439224653153, 0.0, 0.0, 0.0, 196.0, 3.0, 128.0, 0.0, 15.0, 198.0, 240.0, 0.0, 0.0, 0.0, 1.6878033978108208E9, 0.0, 2023-06-26 13:16:37.810
100.0, 49428.87120591059, 55615.23057403929, 83876.01630401806, 3000.3640652136883, -661.4998771548126, -4156.776268097909, 26288.69131668703, 19134.233192710068, 0.0, 0.0, 0.0, 196.0, 0.0, 0.0, 0.0, 15.0, 198.0, 244.0, 0.0, 0.0, 0.0, 1.6878033978148503E9, 0.0, 2023-06-26 13:16:37.814
101.0, 49520.222785499434, 55690.35478715358, 79696.12833215337, 3131.971136566536, -566.616721942034, -4042.3576882311927, 26364.46373039052, 19228.37874035582, 0.0, 0.0, 0.0, 196.0, 0.0, 0.0, 0.0, 15.0, 198.0, 248.0, 0.0, 0.0, 0.0, 1.6878033978198948E9, 0.0, 2023-06-26 13:16:37.819
102.0, 49500.19562246748, 55684.43157487292, 79099.0685342632, 3102.8691652857265, -518.426360896392, -4074.387738035648, 26394.437419705086, 19239.2416881611, 0.0, 0.0, 0.0, 196.0, 0.0, 0.0, 0.0, 15.0, 198.0, 252.0, 0.0, 0.0, 0.0, 1.687803397822901E9, 0.0, 2023-06-26 13:16:37.822
103.0, 49404.59721143213, 55604.121757045, 83349.63272209559, 2989.076434263758, -597.0374461457069, -4163.258273989949, 26379.662916620127, 19183.071754344914, 0.0, 0.0, 0.0, 196.0, 0.0, 0.0, 0.0, 15.0, 199.0, 0.0, 0.0, 0.0, 0.0, 1.6878033978259091E9, 0.0, 2023-06-26 13:16:37.825
104.0, 49408.93344985646, 55592.14122201696, 84345.6041032796, 2979.308721936789, -688.254915267815, -4187.912248124153, 26298.011994124892, 19120.151593703224, 0.0, 0.0, 0.0, 196.0, 0.0, 0.0, 0.0, 15.0, 199.0, 4.0, 0.0, 0.0, 0.0, 1.6878033978309467E9, 0.0, 2023-06-26 13:16:37.830
105.0, 49526.794198369294, 55690.73476680932, 80418.13438154869, 3130.3171074768434, -578.2172773143384, -4042.3576882311927, 26384.40148644465, 19232.603220057874, 0.0, 0.0, 0.0, 196.0, 0.0, 0.0, 0.0, 15.0, 199.0, 8.0, 0.0, 0.0, 0.0, 1.6878033978349557E9, 0.0, 2023-06-26 13:16:37.834
106.0, 49561.77467844185, 55733.203081274405, 78737.75258514317, 3179.848573189804, -481.7471482452331, -3988.154707927073, 26462.90081297169, 19302.430069736252, 0.0, 0.0, 0.0, 196.0, 0.0, 0.0, 0.0, 15.0, 199.0, 12.0, 0.0, 0.0, 0.0, 1.6878033978389919E9, 0.0, 2023-06-26 13:16:37.838
107.0, 49411.63801093555, 55601.975989577295, 82644.32342580837, 2983.1308702386464, -605.5981642720895, -4178.59157068629, 26362.295611178353, 19164.87743435829, 0.0, 0.0, 0.0, 196.0, 255.0, 224.0, 0.0, 15.0, 199.0, 16.0, 0.0, 0.0, 0.0, 1.6878033978429837E9, 0.0, 2023-06-26 13:16:37.842
108.0, 49375.04820526221, 55563.41923039189, 84636.04267073187, 2937.086276660714, -711.5007295013344, -4210.68867572411, 26276.28609851433, 19098.135125414745, 0.0, 0.0, 0.0, 196.0, 31.0, 48.0, 0.0, 15.0, 199.0, 20.0, 0.0, 0.0, 0.0, 1.6878033978470123E9, 0.0, 2023-06-26 13:16:37.847
109.0, 49501.80494806826, 55668.65124328748, 81191.95177459142, 3095.627200082207, -611.7225422528437, -4040.4130864635813, 26337.865154488703, 19199.008548141544, 0.0, 0.0, 0.0, 196.0, 3.0, 80.0, 0.0, 15.0, 199.0, 24.0, 0.0, 0.0, 0.0, 1.6878033978510337E9, 0.0, 2023-06-26 13:16:37.851
110.0, 49557.50549525089, 55729.135063783535, 78532.67532976573, 3175.4676312765637, -510.5585468481239, -3974.2072193869617, 26428.99321663299, 19286.895607339815, 0.0, 0.0, 0.0, 196.0, 0.0, 0.0, 0.0, 15.0, 199.0, 28.0, 0.0, 0.0, 0.0, 1.6878033978540492E9, 0.0, 2023-06-26 13:16:37.854
111.0, 49439.55533976023, 55631.39088528048, 81821.26513973059, 3010.958792085504, -601.4630915478577, -4149.243730216472, 26327.44924157253, 19142.905669558724, 0.0, 0.0, 0.0, 196.0, 0.0, 0.0, 0.0, 15.0, 199.0, 32.0, 0.0, 0.0, 0.0, 1.6878033978590684E9, 0.0, 2023-06-26 13:16:37.859
112.0, 49399.29984799622, 55577.25496020973, 84728.71300324357, 2938.896767961594, -674.6203511500778, -4204.676056465632, 26269.692333900017, 19089.59675903282, 0.0, 0.0, 0.0, 196.0, 0.0, 0.0, 0.0, 15.0, 199.0, 36.0, 0.0, 0.0, 0.0, 1.6878033978630767E9, 0.0, 2023-06-26 13:16:37.863
113.0, 49480.593142580175, 55632.39671378097, 82004.7059064753, 3036.3950772756434, -640.6904030669216, -4108.898831474642, 26308.562017507797, 19166.93379484818, 0.0, 0.0, 0.0, 196.0, 0.0, 0.0, 0.0, 15.0, 199.0, 40.0, 0.0, 0.0, 0.0, 1.687803397867194E9, 0.0, 2023-06-26 13:16:37.867
114.0, 49571.07300413526, 55728.62097366107, 78573.82489130794, 3148.7349449080166, -499.5838403205682, -4021.995249032408, 26427.629760221214, 19279.877159580847, 0.0, 0.0, 0.0, 196.0, 0.0, 0.0, 0.0, 15.0, 199.0, 44.0, 0.0, 0.0, 0.0, 1.687803397872177E9, 0.0, 2023-06-26 13:16:37.872
115.0, 49464.54459006126, 55651.23923435679, 81033.83553431458, 3034.4504755080316, -550.165838022928, -4112.944497221052, 26387.620137646216, 19208.820963957427, 0.0, 0.0, 0.0, 196.0, 0.0, 0.0, 0.0, 15.0, 199.0, 48.0, 0.0, 0.0, 0.0, 1.6878033978762012E9, 0.0, 2023-06-26 13:16:37.876
116.0, 49389.01804554678, 55577.7690503322, 84659.40024368766, 2964.534218851831, -637.516455354268, -4188.44868999108, 26316.720404233984, 19133.987323521058, 0.0, 0.0, 0.0, 196.0, 0.0, 0.0, 0.0, 15.0, 199.0, 52.0, 0.0, 0.0, 0.0, 1.6878033978791895E9, 0.0, 2023-06-26 13:16:37.879
117.0, 49490.36085490714, 55645.87481568752, 82794.52714854803, 3053.3824030616765, -629.2686616502598, -4077.2487613259273, 26319.73788973545, 19161.010582567524, 0.0, 0.0, 0.0, 196.0, 255.0, 208.0, 0.0, 15.0, 199.0, 56.0, 0.0, 0.0, 0.0, 1.687803397882183E9, 0.0, 2023-06-26 13:16:37.882
118.0, 49567.92140816706, 55720.5519939127, 78840.83883057104, 3159.4861339910194, -507.9657444913083, -3989.071129449741, 26434.04471087989, 19279.698345625206, 0.0, 0.0, 0.0, 196.0, 29.0, 240.0, 0.0, 15.0, 199.0, 60.0, 0.0, 0.0, 0.0, 1.6878033978863847E9, 0.0, 2023-06-26 13:16:37.886
119.0, 49517.18294825351, 55697.37323491255, 80247.36705391014, 3111.6981043455726, -481.7694999896884, -4061.3343192737484, 26434.98348414701, 19248.919993510248, 0.0, 0.0, 0.0, 196.0, 3.0, 32.0, 0.0, 15.0, 199.0, 64.0, 0.0, 0.0, 0.0, 1.6878033978912282E9, 0.0, 2023-06-26 13:16:37.891
120.0, 49395.61181016109, 55575.51152414221, 84338.74211773183, 2962.3884513841217, -619.6350597900224, -4177.585742185801, 26320.028462413367, 19122.722044315582, 0.0, 0.0, 0.0, 196.0, 0.0, 0.0, 0.0, 15.0, 199.0, 68.0, 0.0, 0.0, 0.0, 1.6878033978952353E9, 0.0, 2023-06-26 13:16:37.895
121.0, 49421.47277849588, 55574.28217819717, 83469.72864505394, 2955.437058858521, -666.4396126794354, -4168.130954281206, 26292.871092900168, 19122.610285593306, 0.0, 0.0, 0.0, 196.0, 0.0, 0.0, 0.0, 15.0, 199.0, 72.0, 0.0, 0.0, 0.0, 1.6878033978992672E9, 0.0, 2023-06-26 13:16:37.899
122.0, 49530.30342224878, 55668.65124328748, 79279.31300155079, 3117.598964881774, -548.8247333556096, -4015.446187907003, 26411.827076891313, 19265.236766962622, 0.0, 0.0, 0.0, 196.0, 0.0, 0.0, 0.0, 15.0, 199.0, 76.0, 0.0, 0.0, 0.0, 1.6878033979022741E9, 0.0, 2023-06-26 13:16:37.902
123.0, 49529.029372814824, 55701.01656925876, 79573.35019986036, 3119.3200492048322, -495.22525015178326, -4080.266246827394, 26459.19042339211, 19276.926729312745, 0.0, 0.0, 0.0, 196.0, 0.0, 0.0, 0.0, 15.0, 199.0, 80.0, 0.0, 0.0, 0.0, 1.6878033979062853E9, 0.0, 2023-06-26 13:16:37.906
124.0, 49394.13659502704, 55549.09176219604, 83869.042559748, 2948.686832033018, -657.3424526861254, -4176.401099729669, 26335.69703527654, 19139.17292823469, 0.0, 0.0, 0.0, 196.0, 0.0, 0.0, 0.0, 15.0, 199.0, 84.0, 0.0, 0.0, 0.0, 1.6878033979103255E9, 0.0, 2023-06-26 13:16:37.910
125.0, 49429.16177858851, 55570.32591942858, 84073.13633836941, 2993.4126726880877, -669.5241534142677, -4133.463398631025, 26313.322939076777, 19138.79294857895, 0.0, 0.0, 0.0, 196.0, 0.0, 0.0, 0.0, 15.0, 199.0, 88.0, 0.0, 0.0, 0.0, 1.687803397914332E9, 0.0, 2023-06-26 13:16:37.914
126.0, 49537.29951826329, 55668.87476073203, 79925.83720992056, 3148.1537995521785, -550.5011141897577, -4002.2810104228274, 26425.014606119945, 19280.1006770254, 0.0, 0.0, 0.0, 196.0, 0.0, 0.0, 0.0, 15.0, 199.0, 92.0, 0.0, 0.0, 0.0, 1.6878033979183433E9, 0.0, 2023-06-26 13:16:37.918
127.0, 49540.696983420494, 55691.807650543175, 79059.64005704405, 3090.9333337465923, -466.65972073790084, -4051.7901243913325, 26492.405115652695, 19300.127840057354, 0.0, 0.0, 0.0, 196.0, 255.0, 208.0, 0.0, 15.0, 199.0, 96.0, 0.0, 0.0, 0.0, 1.6878033979233546E9, 0.0, 2023-06-26 13:16:37.923
128.0, 49402.40674047551, 55561.83225653556, 83241.80790684318, 2988.2270679744565, -678.3083889852035, -4165.918131580131, 26337.55223006633, 19128.93582927416, 0.0, 0.0, 0.0, 196.0, 29.0, 160.0, 0.0, 15.0, 199.0, 100.0, 0.0, 0.0, 0.0, 1.6878033979274049E9, 0.0, 2023-06-26 13:16:37.927
129.0, 49382.13370825454, 55530.51746255368, 84497.23833766441, 2964.5565705962863, -695.0498455822284, -4193.723701682532, 26293.58634872274, 19102.761936516996, 0.0, 0.0, 0.0, 196.0, 3.0, 48.0, 0.0, 15.0, 199.0, 104.0, 0.0, 0.0, 0.0, 1.6878033979304025E9, 0.0, 2023-06-26 13:16:37.930
130.0, 49524.335506479205, 55647.148865121475, 80669.25623050406, 3126.852587086271, -568.7848411541988, -4033.9087288270866, 26395.487951694486, 19249.031752232524, 0.0, 0.0, 0.0, 196.0, 0.0, 0.0, 0.0, 15.0, 199.0, 108.0, 0.0, 0.0, 0.0, 1.6878033979344237E9, 0.0, 2023-06-26 13:16:37.934
131.0, 49576.79505071582, 55717.35569445559, 78733.43869846329, 3191.96321868458, -425.2866417511275, -3961.779649469811, 26509.101868760812, 19344.630163267873, 0.0, 0.0, 0.0, 196.0, 0.0, 0.0, 0.0, 15.0, 199.0, 112.0, 0.0, 0.0, 0.0, 1.687803397938458E9, 0.0, 2023-06-26 13:16:37.938
132.0, 49407.83821437815, 55564.04507923664, 82512.67165096661, 3005.281448993856, -600.0102281582627, -4173.182448528105, 26373.426779917096, 19173.773428651504, 0.0, 0.0, 0.0, 196.0, 0.0, 0.0, 0.0, 15.0, 199.0, 116.0, 0.0, 0.0, 0.0, 1.687803397944482E9, 0.0, 2023-06-26 13:16:37.944
133.0, 49388.10162402411, 55519.43099730385, 84756.6079803238, 2948.9103494775713, -698.4696624838904, -4203.066730864851, 26282.29871777281, 19100.280892882456, 0.0, 0.0, 0.0, 196.0, 0.0, 0.0, 0.0, 15.0, 199.0, 120.0, 0.0, 0.0, 0.0, 1.6878033979474893E9, 0.0, 2023-06-26 13:16:37.947
134.0, 49522.48031168942, 55629.28982130168, 81483.03854263289, 3045.760458202417, -576.87617264702, -4052.4383249805364, 26377.83007357479, 19225.160089154255, 0.0, 0.0, 0.0, 196.0, 0.0, 0.0, 0.0, 15.0, 199.0, 124.0, 0.0, 0.0, 0.0, 1.6878033979515145E9, 0.0, 2023-06-26 13:16:37.951
135.0, 49538.14888455259, 55677.70369979188, 78585.98424029163, 3165.0964218493014, -541.1804367518946, -4039.94369983002, 26438.85033593778, 19285.66626139477, 0.0, 0.0, 0.0, 196.0, 0.0, 0.0, 0.0, 15.0, 199.0, 128.0, 0.0, 0.0, 0.0, 1.6878033979555404E9, 0.0, 2023-06-26 13:16:37.955
136.0, 49431.10638035612, 55583.13346900147, 81712.52390295552, 3039.9713563884925, -612.4377980754135, -4097.365331335704, 26391.55404467035, 19203.121269121322, 0.0, 0.0, 0.0, 196.0, 0.0, 0.0, 0.0, 15.0, 199.0, 132.0, 0.0, 0.0, 0.0, 1.6878033979585495E9, 0.0, 2023-06-26 13:16:37.958
137.0, 49380.054996020204, 55520.34741882652, 84821.94212936665, 2973.340806167222, -643.3055571681925, -4167.5721606698235, 26316.63099725616, 19112.082613954855, 0.0, 0.0, 0.0, 196.0, 255.0, 224.0, 0.0, 15.0, 199.0, 136.0, 0.0, 0.0, 0.0, 1.6878033979625647E9, 0.0, 2023-06-26 13:16:37.962
138.0, 49502.02846551281, 55609.55323094765, 82278.96181094192, 3084.56308657683, -593.2823530772154, -4108.831776241276, 26353.84665177425, 19189.1290770923, 0.0, 0.0, 0.0, 196.0, 30.0, 240.0, 0.0, 15.0, 199.0, 140.0, 0.0, 0.0, 0.0, 1.6878033979665892E9, 0.0, 2023-06-26 13:16:37.966
139.0, 49580.88541995113, 55684.543333595204, 78725.39207045938, 3198.042893176424, -482.21653487879456, -3978.07407117773, 26452.373141333243, 19308.219171550176, 0.0, 0.0, 0.0, 196.0, 3.0, 64.0, 0.0, 15.0, 199.0, 144.0, 0.0, 0.0, 0.0, 1.687803397970615E9, 0.0, 2023-06-26 13:16:37.970
140.0, 49475.00520646635, 55606.53574544618, 80914.96895730126, 3090.4192436241206, -520.7732940641993, -4073.5607234908016, 26413.324643769818, 19222.701397264173, 0.0, 0.0, 0.0, 196.0, 0.0, 0.0, 0.0, 15.0, 199.0, 148.0, 0.0, 0.0, 0.0, 1.6878033979746258E9, 0.0, 2023-06-26 13:16:37.974
141.0, 49329.33888785111, 55467.954929823274, 84634.05336547535, 2869.762822361329, -701.3306857741698, -4254.900426256708, 26279.303584015797, 19075.06812513687, 0.0, 0.0, 0.0, 196.0, 0.0, 0.0, 0.0, 15.0, 199.0, 152.0, 0.0, 0.0, 0.0, 1.6878033979786448E9, 0.0, 2023-06-26 13:16:37.978
142.0, 49441.49994152784, 55567.28608218266, 83026.06886936056, 3021.307649768311, -658.3706329310695, -4152.976471540507, 26310.596026253228, 19141.45280616913, 0.0, 0.0, 0.0, 196.0, 0.0, 0.0, 0.0, 15.0, 199.0, 156.0, 0.0, 0.0, 0.0, 1.687803397983673E9, 0.0, 2023-06-26 13:16:37.983
143.0, 49586.51805955387, 55695.07100523365, 79017.08233560114, 3182.10609937979, -476.5615435316019, -3978.8563822336655, 26448.28277209792, 19296.05982256649, 0.0, 0.0, 0.0, 196.0, 0.0, 0.0, 0.0, 15.0, 199.0, 160.0, 0.0, 0.0, 0.0, 1.6878033979866977E9, 0.0, 2023-06-26 13:16:37.986
144.0, 49496.84286079918, 55634.02839112621, 80154.78612837626, 3105.909002531648, -488.45267158182526, -4055.3440517597264, 26442.42661505063, 19264.409752417774, 0.0, 0.0, 0.0, 196.0, 0.0, 0.0, 0.0, 15.0, 199.0, 164.0, 0.0, 0.0, 0.0, 1.6878033979907124E9, 0.0, 2023-06-26 13:16:37.990
145.0, 49387.945161812924, 55512.18903210033, 84289.79179737471, 2907.3584565351557, -625.066533692662, -4261.94122576013, 26323.045947914834, 19122.230305937566, 0.0, 0.0, 0.0, 196.0, 0.0, 0.0, 0.0, 15.0, 199.0, 168.0, 0.0, 0.0, 0.0, 1.6878033979947228E9, 0.0, 2023-06-26 13:16:37.994
146.0, 49419.23760405035, 55523.94604968382, 83667.6533422057, 2962.030823472837, -696.2791915272703, -4143.320517935815, 26265.043171053312, 19106.338215629843, 0.0, 0.0, 0.0, 196.0, 0.0, 0.0, 0.0, 15.0, 199.0, 172.0, 0.0, 0.0, 0.0, 1.6878033979987447E9, 0.0, 2023-06-26 13:16:37.998
147.0, 49563.09343136471, 55667.31013862016, 79489.53115815297, 3169.9467503961027, -493.3477036175375, -3971.390899585593, 26419.337263028297, 19282.04527879301, 0.0, 0.0, 0.0, 196.0, 255.0, 160.0, 0.0, 15.0, 199.0, 176.0, 0.0, 0.0, 0.0, 1.6878033980027869E9, 0.0, 2023-06-26 13:16:38.002
148.0, 49549.19064631351, 55679.40243237048, 79487.11716975179, 3143.1246570497347, -472.784098718655, -3987.6629695490565, 26460.03978968141, 19294.808124876992, 0.0, 0.0, 0.0, 196.0, 31.0, 80.0, 0.0, 15.0, 199.0, 180.0, 0.0, 0.0, 0.0, 1.6878033980068033E9, 0.0, 2023-06-26 13:16:38.006
149.0, 49442.01403165031, 55582.99935853474, 83802.12143684881, 3047.727411714484, -538.7888000951767, -4133.9998404979515, 26377.874777063702, 19175.829789141393, 0.0, 0.0, 0.0, 196.0, 3.0, 80.0, 0.0, 15.0, 199.0, 184.0, 0.0, 0.0, 0.0, 1.6878033980108397E9, 0.0, 2023-06-26 13:16:38.010
150.0, 49428.17830183248, 55551.28223315266, 84230.11263967904, 3005.59437341623, -590.5107367647573, -4152.976471540507, 26331.763128252405, 19162.21757676811, 0.0, 0.0, 0.0, 196.0, 0.0, 0.0, 0.0, 15.0, 199.0, 188.0, 0.0, 0.0, 0.0, 1.687803398014848E9, 0.0, 2023-06-26 13:16:38.014
151.0, 49557.214922572966, 55668.65124328748, 80116.72110756888, 3153.2947007768994, -528.4846459012801, -3996.491908608903, 26403.020489575923, 19273.484560666628, 0.0, 0.0, 0.0, 196.0, 0.0, 0.0, 0.0, 15.0, 199.0, 192.0, 0.0, 0.0, 0.0, 1.6878033980178642E9, 0.0, 2023-06-26 13:16:38.017
152.0, 49546.26256778986, 55662.929196706915, 78991.13196028852, 3132.462874944553, -475.4663080532918, -4012.6298681056346, 26448.66275175366, 19287.52145618456, 0.0, 0.0, 0.0, 196.0, 0.0, 0.0, 0.0, 15.0, 199.0, 196.0, 0.0, 0.0, 0.0, 1.6878033980228536E9, 0.0, 2023-06-26 13:16:38.022
153.0, 49396.86350785059, 55541.04513419213, 83127.32227174309, 3037.3562022872215, -566.3485010085703, -4133.664564331122, 26365.06722749081, 19183.56349272293, 0.0, 0.0, 0.0, 196.0, 0.0, 0.0, 0.0, 15.0, 199.0, 200.0, 0.0, 0.0, 0.0, 1.6878033980278802E9, 0.0, 2023-06-26 13:16:38.027
154.0, 49377.261027963286, 55498.8003371716, 84597.44120805756, 2965.5847508412303, -651.3298334276478, -4177.228114274516, 26291.86526439968, 19123.16907920469, 0.0, 0.0, 0.0, 196.0, 0.0, 0.0, 0.0, 15.0, 199.0, 204.0, 0.0, 0.0, 0.0, 1.6878033980319123E9, 0.0, 2023-06-26 13:16:38.031
155.0, 49522.100332033675, 55598.422062208905, 80884.81645403105, 3092.1626796916344, -578.843126159087, -4046.0457260663184, 26365.91659378011, 19225.89769672128, 0.0, 0.0, 0.0, 196.0, 0.0, 0.0, 0.0, 15.0, 199.0, 208.0, 0.0, 0.0, 0.0, 1.6878033980379703E9, 0.0, 2023-06-26 13:16:38.037
156.0, 49554.51036149387, 55654.413182069446, 78698.45821839073, 3172.651311475195, -497.8627559975095, -4013.9262692840425, 26449.0427314094, 19289.19783701871, 0.0, 0.0, 0.0, 196.0, 0.0, 0.0, 0.0, 15.0, 199.0, 212.0, 0.0, 0.0, 0.0, 1.6878033980409853E9, 0.0, 2023-06-26 13:16:38.040
157.0, 49410.676885923975, 55539.10053242452, 82331.37665168961, 2995.0443500333254, -644.0431647352177, -4179.172716042128, 26343.07311094679, 19160.11651278931, 0.0, 0.0, 0.0, 196.0, 255.0, 192.0, 0.0, 15.0, 199.0, 216.0, 0.0, 0.0, 0.0, 1.6878033980450354E9, 0.0, 2023-06-26 13:16:38.045
158.0, 49383.36305419959, 55490.23961904521, 84779.11618699029, 2925.508073032865, -727.1245988755941, -4210.241640835005, 26258.225888994442, 19098.515105070484, 0.0, 0.0, 0.0, 196.0, 30.0, 240.0, 0.0, 15.0, 199.0, 220.0, 0.0, 0.0, 0.0, 1.6878033980480127E9, 0.0, 2023-06-26 13:16:38.048
159.0, 49520.0886750327, 55610.87198387051, 81688.87575732182, 3106.557203120852, -551.3504804790593, -4013.3004204392937, 26377.740666596972, 19223.126080408823, 0.0, 0.0, 0.0, 196.0, 3.0, 80.0, 0.0, 15.0, 199.0, 224.0, 0.0, 0.0, 0.0, 1.687803398051022E9, 0.0, 2023-06-26 13:16:38.051
160.0, 49570.42480354605, 55678.82128701464, 78656.36988358138, 3222.6298120772617, -429.22054877526153, -3930.040172343275, 26476.53537708943, 19311.795450663027, 0.0, 0.0, 0.0, 196.0, 0.0, 0.0, 0.0, 15.0, 199.0, 228.0, 0.0, 0.0, 0.0, 1.6878033980550437E9, 0.0, 2023-06-26 13:16:38.055
161.0, 49475.049909955254, 55599.58435292058, 81578.59225017932, 3085.3006941438553, -551.037556056685, -4082.032034639363, 26394.45977144954, 19202.1824958542, 0.0, 0.0, 0.0, 196.0, 0.0, 0.0, 0.0, 15.0, 199.0, 232.0, 0.0, 0.0, 0.0, 1.6878033980590682E9, 0.0, 2023-06-26 13:16:38.059
162.0, 49388.48160367985, 55500.85669766149, 84823.95378636764, 2984.9413615395265, -639.2375396773267, -4174.411794473147, 26300.046002870324, 19115.010692478503, 0.0, 0.0, 0.0, 196.0, 0.0, 0.0, 0.0, 15.0, 199.0, 236.0, 0.0, 0.0, 0.0, 1.6878033980630777E9, 0.0, 2023-06-26 13:16:38.063
163.0, 49512.89141331809, 55595.873963341, 82501.38402001667, 3105.3502089202657, -570.327111521615, -4078.2098863375054, 26359.74751231045, 19207.502211034564, 0.0, 0.0, 0.0, 196.0, 0.0, 0.0, 0.0, 15.0, 199.0, 240.0, 0.0, 0.0, 0.0, 1.6878033980671072E9, 0.0, 2023-06-26 13:16:38.067
164.0, 49584.886382208635, 55667.95833920936, 78812.2062459238, 3210.068131693379, -478.5955522770348, -3982.320902624238, 26456.888193713214, 19318.523325744074, 0.0, 0.0, 0.0, 196.0, 0.0, 0.0, 0.0, 15.0, 199.0, 244.0, 0.0, 0.0, 0.0, 1.6878033980701928E9, 0.0, 2023-06-26 13:16:38.070
165.0, 49493.288933430784, 55602.6241901665, 80791.67673488578, 3097.594153594274, -508.4574828693251, -4065.0894123422404, 26427.205077076564, 19246.8412812759, 0.0, 0.0, 0.0, 196.0, 0.0, 0.0, 0.0, 15.0, 199.0, 248.0, 0.0, 0.0, 0.0, 1.6878033980741944E9, 0.0, 2023-06-26 13:16:38.074
166.0, 49373.3047691947, 55479.68959566231, 84625.89497874916, 2962.9025415065935, -654.7720020737651, -4199.669265707644, 26293.049906855813, 19101.242017894034, 0.0, 0.0, 0.0, 196.0, 0.0, 0.0, 0.0, 15.0, 199.0, 252.0, 0.0, 0.0, 0.0, 1.6878033980782027E9, 0.0, 2023-06-26 13:16:38.078
167.0, 49453.3240143447, 55535.61366028949, 83221.26665368876, 3035.657469708618, -652.6932898394215, -4138.000802755452, 26297.11792434668, 19138.54707938994, 0.0, 0.0, 0.0, 196.0, 255.0, 208.0, 0.0, 15.0, 200.0, 0.0, 0.0, 0.0, 0.0, 1.6878033980822892E9, 0.0, 2023-06-26 13:16:38.082
168.0, 49562.6016929867, 55637.694077216875, 79157.85362218066, 3181.0108639014798, -507.1387299464619, -3976.330635110216, 26438.693873726592, 19297.311520255986, 0.0, 0.0, 0.0, 196.0, 31.0, 0.0, 0.0, 15.0, 200.0, 4.0, 0.0, 0.0, 0.0, 1.6878033980871823E9, 0.0, 2023-06-26 13:16:38.087
169.0, 49504.643619614086, 55602.37832097749, 80057.26546731776, 3123.2539562289667, -477.8132412210991, -4034.4675224384696, 26439.811460949357, 19262.48750239462, 0.0, 0.0, 0.0, 196.0, 3.0, 48.0, 0.0, 15.0, 200.0, 8.0, 0.0, 0.0, 0.0, 1.687803398091206E9, 0.0, 2023-06-26 13:16:38.091
170.0, 49405.46892946588, 55509.909154165885, 84264.31080869566, 3003.6050681597076, -593.3047048216707, -4144.572215625312, 26354.852480274738, 19160.474140700597, 0.0, 0.0, 0.0, 196.0, 0.0, 0.0, 0.0, 15.0, 200.0, 12.0, 0.0, 0.0, 0.0, 1.6878033980952132E9, 0.0, 2023-06-26 13:16:38.095
171.0, 49422.411551763005, 55505.774081441654, 83889.02501929105, 3017.59726018873, -651.933330527941, -4149.8472273167645, 26299.53191274785, 19132.489756642553, 0.0, 0.0, 0.0, 196.0, 0.0, 0.0, 0.0, 15.0, 200.0, 16.0, 0.0, 0.0, 0.0, 1.687803398098251E9, 0.0, 2023-06-26 13:16:38.098
172.0, 49523.150864023075, 55592.00711155023, 79676.41409354379, 3138.654308158673, -550.232893256294, -4025.0127345338747, 26389.78825685838, 19250.864595277857, 0.0, 0.0, 0.0, 196.0, 0.0, 0.0, 0.0, 15.0, 200.0, 20.0, 0.0, 0.0, 0.0, 1.687803398102272E9, 0.0, 2023-06-26 13:16:38.102
173.0, 49510.142148750085, 55599.53964943167, 79421.55950326438, 3124.304488218366, -495.5828780630682, -4053.131229058651, 26439.006798148966, 19268.18719723072, 0.0, 0.0, 0.0, 196.0, 0.0, 0.0, 0.0, 15.0, 200.0, 24.0, 0.0, 0.0, 0.0, 1.6878033981062787E9, 0.0, 2023-06-26 13:16:38.106
174.0, 49413.470853980885, 55516.59232575802, 83717.85536025232, 3007.8071961173055, -595.517527522746, -4137.039677743874, 26360.88745127767, 19162.306983745933, 0.0, 0.0, 0.0, 196.0, 0.0, 0.0, 0.0, 15.0, 200.0, 28.0, 0.0, 0.0, 0.0, 1.6878033981103108E9, 0.0, 2023-06-26 13:16:38.110
175.0, 49413.06852258069, 55499.02385461615, 84395.87317655959, 2999.492347179931, -677.2355052513487, -4153.11058200724, 26287.081991086245, 19123.616114093795, 0.0, 0.0, 0.0, 196.0, 0.0, 0.0, 0.0, 15.0, 200.0, 32.0, 0.0, 0.0, 0.0, 1.687803398114322E9, 0.0, 2023-06-26 13:16:38.114
176.0, 49510.25390747236, 55576.38324217597, 80346.49704056943, 3109.9993717669695, -611.0072864302739, -4046.9397958445306, 26361.088616977766, 19228.915182222747, 0.0, 0.0, 0.0, 196.0, 0.0, 0.0, 0.0, 15.0, 200.0, 36.0, 0.0, 0.0, 0.0, 1.6878033981193411E9, 0.0, 2023-06-26 13:16:38.119
177.0, 49528.694096647996, 55609.86615537002, 78965.87448905403, 3151.841837387304, -481.6577412674119, -3994.0555684632745, 26445.533507529915, 19279.072496780456, 0.0, 0.0, 0.0, 196.0, 255.0, 192.0, 0.0, 15.0, 200.0, 40.0, 0.0, 0.0, 0.0, 1.687803398122347E9, 0.0, 2023-06-26 13:16:38.122
178.0, 49412.86735688059, 55506.958723897784, 83011.56258720906, 3000.051140791314, -596.098672878584, -4136.212663199028, 26354.047817474344, 19146.705466116127, 0.0, 0.0, 0.0, 196.0, 30.0, 192.0, 0.0, 15.0, 200.0, 44.0, 0.0, 0.0, 0.0, 1.6878033981263611E9, 0.0, 2023-06-26 13:16:38.126
179.0, 49407.8605661226, 55481.50008696319, 84737.89957021471, 2984.9413615395265, -658.0800602531506, -4163.8170676013315, 26294.77099117887, 19107.053471452415, 0.0, 0.0, 0.0, 196.0, 3.0, 128.0, 0.0, 15.0, 200.0, 48.0, 0.0, 0.0, 0.0, 1.6878033981303918E9, 0.0, 2023-06-26 13:16:38.130
180.0, 49505.69415160348, 55561.362869902005, 81114.88295970953, 3077.566990562319, -611.3425625971034, -4081.3391305612486, 26329.505602062418, 19181.46242874413, 0.0, 0.0, 0.0, 196.0, 0.0, 0.0, 0.0, 15.0, 200.0, 52.0, 0.0, 0.0, 0.0, 1.687803398134414E9, 0.0, 2023-06-26 13:16:38.134
181.0, 49535.33256475122, 55597.52799243069, 78735.42800371982, 3137.7602383804606, -526.7859133226768, -4019.8941850536094, 26427.674463710126, 19263.873310550847, 0.0, 0.0, 0.0, 196.0, 0.0, 0.0, 0.0, 15.0, 200.0, 56.0, 0.0, 0.0, 0.0, 1.6878033981384273E9, 0.0, 2023-06-26 13:16:38.138
182.0, 49443.042211895256, 55530.83038697606, 82281.33109585418, 3026.269737037389, -568.8518963875647, -4146.427410415103, 26382.948623055057, 19171.560605950428, 0.0, 0.0, 0.0, 196.0, 0.0, 0.0, 0.0, 15.0, 200.0, 60.0, 0.0, 0.0, 0.0, 1.6878033981424408E9, 0.0, 2023-06-26 13:16:38.142
183.0, 49386.6040571456, 55463.39517395439, 84922.65908988228, 2962.7684310398618, -687.5843629341558, -4235.2532428804925, 26274.274441513353, 19072.855302435793, 0.0, 0.0, 0.0, 196.0, 0.0, 0.0, 0.0, 15.0, 200.0, 64.0, 0.0, 0.0, 0.0, 1.6878033981475022E9, 0.0, 2023-06-26 13:16:38.147
184.0, 49484.66116007104, 55541.715686525786, 81953.98979830621, 3066.4134700791205, -628.4416471054134, -4116.3866658671695, 26329.17032589559, 19177.37205950881, 0.0, 0.0, 0.0, 196.0, 0.0, 0.0, 0.0, 15.0, 200.0, 68.0, 0.0, 0.0, 0.0, 1.687803398150496E9, 0.0, 2023-06-26 13:16:38.150
185.0, 49542.66393693256, 55600.657236654435, 78754.82931790702, 3164.4705730045525, -520.393314408459, -3973.514315308847, 26439.90086792718, 19289.980148074646, 0.0, 0.0, 0.0, 196.0, 0.0, 0.0, 0.0, 15.0, 200.0, 72.0, 0.0, 0.0, 0.0, 1.6878033981534946E9, 0.0, 2023-06-26 13:16:38.153
186.0, 49459.24722662535, 55543.19090165984, 81479.66342922013, 3061.719603743506, -573.8139836566429, -4076.421746781081, 26383.350954455254, 19197.622739985316, 0.0, 0.0, 0.0, 196.0, 0.0, 0.0, 0.0, 15.0, 200.0, 76.0, 0.0, 0.0, 0.0, 1.6878033981585302E9, 0.0, 2023-06-26 13:16:38.158
187.0, 49374.802336073204, 55454.65564187237, 84864.70101650966, 2971.507963121887, -681.1917640199381, -4170.321425237826, 26294.59217722323, 19113.64723606673, 0.0, 0.0, 0.0, 196.0, 255.0, 160.0, 0.0, 15.0, 200.0, 80.0, 0.0, 0.0, 0.0, 1.687803398162556E9, 0.0, 2023-06-26 13:16:38.162
188.0, 49441.45523803893, 55494.35234002499, 82715.62549062079, 3019.698324167529, -685.6397611665442, -4131.071761974306, 26286.411438752588, 19130.54515487494, 0.0, 0.0, 0.0, 196.0, 30.0, 208.0, 0.0, 15.0, 200.0, 84.0, 0.0, 0.0, 0.0, 1.6878033981665657E9, 0.0, 2023-06-26 13:16:38.166
189.0, 49569.73189946794, 55624.99828636626, 78918.68995650888, 3187.716387238072, -552.2892537461822, -3987.5288590823247, 26449.42271106514, 19292.1035637979, 0.0, 0.0, 0.0, 196.0, 3.0, 112.0, 0.0, 15.0, 200.0, 88.0, 0.0, 0.0, 0.0, 1.6878033981705885E9, 0.0, 2023-06-26 13:16:38.170
190.0, 49515.21599474144, 55597.59504766406, 80664.27179149054, 3123.9245085626258, -519.5439481191573, -4067.2128280654943, 26453.580135533826, 19259.17944421523, 0.0, 0.0, 0.0, 196.0, 0.0, 0.0, 0.0, 15.0, 200.0, 92.0, 0.0, 0.0, 0.0, 1.6878033981756048E9, 0.0, 2023-06-26 13:16:38.175
191.0, 49381.664321620985, 55468.938406579306, 84620.75407752444, 2951.503151834387, -676.7214151288766, -4226.424303820647, 26298.816656925283, 19108.12635518627, 0.0, 0.0, 0.0, 196.0, 0.0, 0.0, 0.0, 15.0, 200.0, 96.0, 0.0, 0.0, 0.0, 1.6878033981786168E9, 0.0, 2023-06-26 13:16:38.178
192.0, 49421.33866802915, 55484.942255609305, 83452.0484151898, 3018.3125160113, -690.8030141357201, -4142.538206879879, 26279.34828750471, 19110.83091626536, 0.0, 0.0, 0.0, 196.0, 0.0, 0.0, 0.0, 15.0, 200.0, 100.0, 0.0, 0.0, 0.0, 1.687803398181638E9, 0.0, 2023-06-26 13:16:38.181
193.0, 49528.4929309479, 55584.854553324534, 79322.89890323865, 3173.00893938648, -534.2513959707494, -4002.035141233819, 26421.147754329177, 19254.86555753536, 0.0, 0.0, 0.0, 196.0, 0.0, 0.0, 0.0, 15.0, 200.0, 104.0, 0.0, 0.0, 0.0, 1.68780339818567E9, 0.0, 2023-06-26 13:16:38.185
194.0, 49508.24225047139, 55584.18400099087, 79945.32793108559, 3138.3190319918435, -505.7976252791435, -4018.396618175104, 26443.633609251217, 19260.028810504533, 0.0, 0.0, 0.0, 196.0, 0.0, 0.0, 0.0, 15.0, 200.0, 108.0, 0.0, 0.0, 0.0, 1.6878033981916847E9, 0.0, 2023-06-26 13:16:38.191
195.0, 49380.16675474248, 55460.57885415302, 84203.69287773286, 2959.3486141382, -643.3055571681925, -4184.268913777937, 26323.381224081662, 19133.674399098683, 0.0, 0.0, 0.0, 196.0, 0.0, 0.0, 0.0, 15.0, 200.0, 112.0, 0.0, 0.0, 0.0, 1.6878033981947036E9, 0.0, 2023-06-26 13:16:38.194
196.0, 49419.416418005996, 55485.299883520594, 84083.46284430777, 3001.124024525169, -674.5756476611672, -4147.3214801933145, 26291.507636488397, 19125.516012372496, 0.0, 0.0, 0.0, 196.0, 0.0, 0.0, 0.0, 15.0, 200.0, 116.0, 0.0, 0.0, 0.0, 1.6878033982058213E9, 0.0, 2023-06-26 13:16:38.205
197.0, 49511.818529584234, 55561.7652013022, 79870.06960750457, 3162.4589160035753, -582.4417570163914, -4004.9185162685535, 26395.46559995003, 19255.983144758124, 0.0, 0.0, 0.0, 196.0, 255.0, 176.0, 0.0, 15.0, 200.0, 120.0, 0.0, 0.0, 0.0, 1.6878033982087867E9, 0.0, 2023-06-26 13:16:38.208
198.0, 49513.22668948492, 55580.04892826664, 79348.82692680681, 3165.0293666159355, -520.1027417305401, -3996.558963842269, 26453.311914600363, 19286.38151721734, 0.0, 0.0, 0.0, 196.0, 30.0, 224.0, 0.0, 15.0, 200.0, 124.0, 0.0, 0.0, 0.0, 1.6878033982127964E9, 0.0, 2023-06-26 13:16:38.212
199.0, 49420.109322084114, 55500.208497072286, 83613.71858283503, 3016.434969477054, -607.5427660397013, -4163.481791434502, 26364.73195132398, 19165.63739366977, 0.0, 0.0, 0.0, 196.0, 3.0, 96.0, 0.0, 15.0, 200.0, 128.0, 0.0, 0.0, 0.0, 1.6878033982158213E9, 0.0, 2023-06-26 13:16:38.215
200.0, 49415.66132493751, 55483.35528175298, 84532.86701832617, 3009.3494664847217, -704.5940404646445, -4178.569218941834, 26288.24428179792, 19115.16715468969, 0.0, 0.0, 0.0, 196.0, 0.0, 0.0, 0.0, 15.0, 200.0, 132.0, 0.0, 0.0, 0.0, 1.6878033982188387E9, 0.0, 2023-06-26 13:16:38.218
201.0, 49495.8817357876, 55541.82744524806, 80559.15153731723, 3129.624203398729, -609.1297398960281, -4039.250795751905, 26391.062306292333, 19237.9899904716, 0.0, 0.0, 0.0, 196.0, 0.0, 0.0, 0.0, 15.0, 200.0, 136.0, 0.0, 0.0, 0.0, 1.6878033982228513E9, 0.0, 2023-06-26 13:16:38.222
202.0, 49527.73297163641, 55579.870114310994, 78934.96202647233, 3155.0157850999576, -521.7791225646881, -4008.4053884035816, 26465.113635672766, 19305.179334304255, 0.0, 0.0, 0.0, 196.0, 0.0, 0.0, 0.0, 15.0, 200.0, 140.0, 0.0, 0.0, 0.0, 1.6878033982258632E9, 0.0, 2023-06-26 13:16:38.225
203.0, 49431.016973378304, 55506.757558197685, 82890.30437353902, 3048.7332402149727, -575.5350679797016, -4093.6549417561228, 26396.60553891725, 19200.46141153114, 0.0, 0.0, 0.0, 196.0, 0.0, 0.0, 0.0, 15.0, 200.0, 144.0, 0.0, 0.0, 0.0, 1.6878033982288792E9, 0.0, 2023-06-26 13:16:38.228
204.0, 49387.609885646096, 55451.749915093176, 84804.17249252468, 2967.886980520127, -691.741787402843, -4195.511841238957, 26302.482343015952, 19111.63557906575, 0.0, 0.0, 0.0, 196.0, 0.0, 0.0, 0.0, 15.0, 200.0, 148.0, 0.0, 0.0, 0.0, 1.6878033982319E9, 0.0, 2023-06-26 13:16:38.231
205.0, 49477.21802916742, 55518.33576182554, 81336.16522981707, 3082.171449920112, -623.7701325142542, -4073.5607234908016, 26358.048779731846, 19200.126135364313, 0.0, 0.0, 0.0, 196.0, 0.0, 0.0, 0.0, 15.0, 200.0, 152.0, 0.0, 0.0, 0.0, 1.6878033982359285E9, 0.0, 2023-06-26 13:16:38.235
206.0, 49534.39379148409, 55583.111117257016, 78751.7894806611, 3176.1605353546784, -524.9083667884311, -4001.230478433428, 26443.879478440223, 19283.565197415974, 0.0, 0.0, 0.0, 196.0, 0.0, 0.0, 0.0, 15.0, 200.0, 156.0, 0.0, 0.0, 0.0, 1.6878033982389472E9, 0.0, 2023-06-26 13:16:38.238
207.0, 49438.080124626176, 55507.741034953724, 82113.91652988394, 3046.632176236174, -614.874138221042, -4120.342924635759, 26378.992364286467, 19184.479914245596, 0.0, 0.0, 0.0, 196.0, 255.0, 224.0, 0.0, 15.0, 200.0, 160.0, 0.0, 0.0, 0.0, 1.6878033982419322E9, 0.0, 2023-06-26 13:16:38.241
208.0, 49380.92671405396, 55438.11535097544, 84957.1031280879, 2963.2601694178784, -692.6135054365999, -4199.937486641108, 26296.804999924305, 19107.813430763894, 0.0, 0.0, 0.0, 196.0, 30.0, 192.0, 0.0, 15.0, 200.0, 164.0, 0.0, 0.0, 0.0, 1.6878033982459555E9, 0.0, 2023-06-26 13:16:38.245
209.0, 49477.21802916742, 55517.50874728069, 82158.8435362391, 3080.0927376857685, -640.869217022564, -4104.272020372394, 26333.752433508926, 19174.26516702952, 0.0, 0.0, 0.0, 196.0, 3.0, 80.0, 0.0, 15.0, 200.0, 168.0, 0.0, 0.0, 0.0, 1.687803398250994E9, 0.0, 2023-06-26 13:16:38.250
210.0, 49552.454001003985, 55594.89048658496, 78752.50473648366, 3195.9865326865356, -532.9996982812522, -3994.5696585857463, 26443.85712669577, 19289.935444585735, 0.0, 0.0, 0.0, 196.0, 0.0, 0.0, 0.0, 15.0, 200.0, 172.0, 0.0, 0.0, 0.0, 1.6878033982550044E9, 0.0, 2023-06-26 13:16:38.255
211.0, 49490.65142758506, 55553.45035236482, 81270.80872902974, 3103.629124597207, -549.7635066227325, -4049.7561156458996, 26420.968940373536, 19225.920048465738, 0.0, 0.0, 0.0, 196.0, 0.0, 0.0, 0.0, 15.0, 200.0, 176.0, 0.0, 0.0, 0.0, 1.6878033982590384E9, 0.0, 2023-06-26 13:16:38.259
212.0, 49390.157984514, 55449.20181622527, 84837.65540571873, 2985.9248382955598, -668.8983045695192, -4159.056146032351, 26322.710671748006, 19122.587933848852, 0.0, 0.0, 0.0, 196.0, 0.0, 0.0, 0.0, 15.0, 200.0, 180.0, 0.0, 0.0, 0.0, 1.6878033982620325E9, 0.0, 2023-06-26 13:16:38.262
213.0, 49467.83029649619, 55502.82365117355, 82940.86401949692, 3052.756554216928, -666.8195923351756, -4109.9270117195865, 26319.715537990993, 19149.365323706308, 0.0, 0.0, 0.0, 196.0, 0.0, 0.0, 0.0, 15.0, 200.0, 184.0, 0.0, 0.0, 0.0, 1.68780339826605E9, 0.0, 2023-06-26 13:16:38.266
214.0, 49550.39764051409, 55576.56205613161, 79021.82090542566, 3183.6483697472063, -557.005471826252, -4009.0759407372407, 26434.35763530226, 19282.268796237564, 0.0, 0.0, 0.0, 196.0, 0.0, 0.0, 0.0, 15.0, 200.0, 188.0, 0.0, 0.0, 0.0, 1.6878033982700696E9, 0.0, 2023-06-26 13:16:38.270
215.0, 49493.9818375089, 55548.75648602921, 80501.39462964471, 3099.0246652394135, -532.7985325811544, -4072.6890054570445, 26441.063158638855, 19243.063836462956, 0.0, 0.0, 0.0, 196.0, 0.0, 0.0, 0.0, 15.0, 200.0, 192.0, 0.0, 0.0, 0.0, 1.687803398274104E9, 0.0, 2023-06-26 13:16:38.274
216.0, 49393.98013281586, 55454.36506919445, 84574.44126301304, 2975.821849801761, -668.1830487469493, -4190.594457458789, 26336.993436454944, 19111.657930810205, 0.0, 0.0, 0.0, 196.0, 0.0, 0.0, 0.0, 15.0, 200.0, 196.0, 0.0, 0.0, 0.0, 1.687803398280188E9, 0.0, 2023-06-26 13:16:38.280
217.0, 49450.57474977669, 55491.13368882343, 83661.5960194583, 3070.9061707146375, -674.0392057942398, -4123.159244437128, 26331.58431429676, 19131.886259542258, 0.0, 0.0, 0.0, 196.0, 255.0, 224.0, 0.0, 15.0, 200.0, 200.0, 0.0, 0.0, 0.0, 1.6878033982831883E9, 0.0, 2023-06-26 13:16:38.283
218.0, 49553.52688473784, 55586.530934158676, 79460.4068351277, 3191.627942517751, -554.8373526140872, -3980.5327630678134, 26446.986370919512, 19294.316386498976, 0.0, 0.0, 0.0, 196.0, 30.0, 192.0, 0.0, 15.0, 200.0, 204.0, 0.0, 0.0, 0.0, 1.687803398288183E9, 0.0, 2023-06-26 13:16:38.288
219.0, 49490.94200026298, 55544.84493074953, 79818.05709815706, 3131.8370260998045, -585.97333264033, -4059.769697161877, 26439.118556871243, 19266.24259546311, 0.0, 0.0, 0.0, 196.0, 3.0, 96.0, 0.0, 15.0, 200.0, 208.0, 0.0, 0.0, 0.0, 1.687803398292188E9, 0.0, 2023-06-26 13:16:38.292
220.0, 49385.59822864512, 55441.669278343834, 84125.08179248354, 3006.957829828004, -658.7506125868098, -4167.527457180912, 26365.78248331338, 19157.367248221308, 0.0, 0.0, 0.0, 196.0, 0.0, 0.0, 0.0, 15.0, 200.0, 212.0, 0.0, 0.0, 0.0, 1.6878033982951984E9, 0.0, 2023-06-26 13:16:38.295
221.0, 49400.68565615245, 55440.127007976414, 84242.80843052965, 3016.345562499233, -688.1655082899938, -4138.581948111289, 26342.961352224513, 19141.899841058235, 0.0, 0.0, 0.0, 196.0, 0.0, 0.0, 0.0, 15.0, 200.0, 216.0, 0.0, 0.0, 0.0, 1.6878033982982187E9, 0.0, 2023-06-26 13:16:38.298
222.0, 49530.99632632689, 55556.0655064661, 80075.86211870458, 3176.6969772216057, -572.6963964338776, -4001.6998650669893, 26432.390681790195, 19261.23580470512, 0.0, 0.0, 0.0, 196.0, 0.0, 0.0, 0.0, 15.0, 200.0, 220.0, 0.0, 0.0, 0.0, 1.6878033983022397E9, 0.0, 2023-06-26 13:16:38.302
223.0, 49535.91371010706, 55577.5678846321, 79270.43935900205, 3165.9681398830585, -505.52940434567984, -4048.32560400076, 26484.33613590433, 19286.560331172983, 0.0, 0.0, 0.0, 196.0, 0.0, 0.0, 0.0, 15.0, 200.0, 224.0, 0.0, 0.0, 0.0, 1.6878033983062408E9, 0.0, 2023-06-26 13:16:38.306
224.0, 49415.840138893145, 55470.055993802074, 83503.36802045918, 3017.016114832892, -613.6894957649107, -4143.320517935815, 26399.89124535218, 19171.940585606168, 0.0, 0.0, 0.0, 196.0, 0.0, 0.0, 0.0, 15.0, 200.0, 228.0, 0.0, 0.0, 0.0, 1.6878033983102632E9, 0.0, 2023-06-26 13:16:38.310
225.0, 49398.83046136266, 55442.25042369967, 84685.97646784503, 2999.8052716023058, -699.2519735398262, -4142.873483046708, 26335.585276554262, 19139.508204401518, 0.0, 0.0, 0.0, 196.0, 0.0, 0.0, 0.0, 15.0, 200.0, 232.0, 0.0, 0.0, 0.0, 1.687803398315311E9, 0.0, 2023-06-26 13:16:38.315
226.0, 49508.91280280505, 55539.63697429145, 80811.36862175091, 3133.356944722765, -605.8216817166426, -4005.1867372020174, 26408.206094289555, 19245.23195567512, 0.0, 0.0, 0.0, 196.0, 0.0, 0.0, 0.0, 15.0, 200.0, 236.0, 0.0, 0.0, 0.0, 1.6878033983183105E9, 0.0, 2023-06-26 13:16:38.318
227.0, 49545.01087010037, 55590.33073071608, 78911.2691773497, 3166.616340472262, -511.9220032598977, -3974.6095507871573, 26490.90754877419, 19306.833363393947, 0.0, 0.0, 0.0, 196.0, 0.0, 0.0, 0.0, 15.0, 200.0, 240.0, 0.0, 0.0, 0.0, 1.687803398322336E9, 0.0, 2023-06-26 13:16:38.322
228.0, 49438.66126998202, 55500.811994172574, 82766.85568891236, 3053.337699572766, -600.5019665362795, -4106.328380862282, 26417.817344405335, 19203.389490054786, 0.0, 0.0, 0.0, 196.0, 31.0, 0.0, 0.0, 15.0, 200.0, 244.0, 0.0, 0.0, 0.0, 1.6878033983263476E9, 0.0, 2023-06-26 13:16:38.326
229.0, 49368.47679239235, 55412.29908612956, 84942.12745930285, 2968.82575378725, -742.0555641717392, -4200.764501185954, 26309.523142519374, 19103.45484059511, 0.0, 0.0, 0.0, 196.0, 3.0, 160.0, 0.0, 15.0, 200.0, 248.0, 0.0, 0.0, 0.0, 1.6878033983303587E9, 0.0, 2023-06-26 13:16:38.330
230.0, 49480.369625135616, 55505.68467446383, 81620.01003265502, 3097.303580916355, -689.126633301572, -4092.447947555536, 26367.727085080995, 19191.118382348825, 0.0, 0.0, 0.0, 196.0, 0.0, 0.0, 0.0, 15.0, 200.0, 251.0, 0.0, 0.0, 0.0, 1.6878033983343785E9, 0.0, 2023-06-26 13:16:38.334
231.0, 49529.1411315371, 55559.30650941211, 78787.23934736721, 3142.81173262736, -561.7887451396878, -4043.899958598609, 26454.831833223325, 19264.454455906685, 0.0, 0.0, 0.0, 196.0, 0.0, 0.0, 0.0, 15.0, 200.0, 255.0, 0.0, 0.0, 0.0, 1.687803398338406E9, 0.0, 2023-06-26 13:16:38.338
232.0, 49457.59319753566, 55509.39506404341, 81968.85370836899, 3058.36684207521, -573.9257423789195, -4098.684084258567, 26408.183742545098, 19194.448792272662, 0.0, 0.0, 0.0, 196.0, 0.0, 0.0, 0.0, 15.0, 201.0, 3.0, 0.0, 0.0, 0.0, 1.6878033983424256E9, 0.0, 2023-06-26 13:16:38.342
233.0, 49378.78094658625, 55425.97835373621, 85013.87655900438, 2979.286370192334, -693.2170025368932, -4179.887971864698, 26321.72719499197, 19118.095233213335, 0.0, 0.0, 0.0, 196.0, 0.0, 0.0, 0.0, 15.0, 201.0, 7.0, 0.0, 0.0, 0.0, 1.687803398347464E9, 0.0, 2023-06-26 13:16:38.347
234.0, 49467.67383428501, 55490.64195044541, 82397.15783562158, 3075.756499261439, -676.4084907065023, -4095.3760260791814, 26336.456994588018, 19167.31377450392, 0.0, 0.0, 0.0, 196.0, 0.0, 0.0, 0.0, 15.0, 201.0, 11.0, 0.0, 0.0, 0.0, 1.6878033983504648E9, 0.0, 2023-06-26 13:16:38.350
235.0, 49549.52592248034, 55576.02561426468, 78858.80963311311, 3204.748416513016, -544.9802333092968, -3961.779649469811, 26464.867766483756, 19295.277511510554, 0.0, 0.0, 0.0, 196.0, 0.0, 0.0, 0.0, 15.0, 201.0, 15.0, 0.0, 0.0, 0.0, 1.6878033983544817E9, 0.0, 2023-06-26 13:16:38.354
236.0, 49479.98964547988, 55530.875090464964, 81161.1063672431, 3097.4823948719973, -584.6769314619221, -4067.3692902766816, 26436.436347536608, 19227.305856621966, 0.0, 0.0, 0.0, 196.0, 0.0, 0.0, 0.0, 15.0, 201.0, 19.0, 0.0, 0.0, 0.0, 1.6878033983584995E9, 0.0, 2023-06-26 13:16:38.358
237.0, 49375.45053666241, 55424.30197290206, 84877.48621433809, 2959.058041460281, -734.4112675680242, -4213.817919947854, 26320.833125213758, 19112.328483143865, 0.0, 0.0, 0.0, 196.0, 0.0, 0.0, 0.0, 15.0, 201.0, 23.0, 0.0, 0.0, 0.0, 1.6878033983625193E9, 0.0, 2023-06-26 13:16:38.362
238.0, 49439.264767082306, 55467.21732225625, 83180.69823750237, 3049.537903015364, -703.7893776642535, -4099.846374970242, 26323.02359617038, 19148.560660905918, 0.0, 0.0, 0.0, 196.0, 30.0, 208.0, 0.0, 15.0, 201.0, 27.0, 0.0, 0.0, 0.0, 1.687803398366553E9, 0.0, 2023-06-26 13:16:38.366
239.0, 49546.41903000105, 55574.28217819717, 79149.60582847665, 3183.5366110249297, -571.5564574666569, -3970.161553640551, 26457.20111813559, 19296.886837111335, 0.0, 0.0, 0.0, 196.0, 4.0, 16.0, 0.0, 15.0, 201.0, 31.0, 0.0, 0.0, 0.0, 1.6878033983695571E9, 0.0, 2023-06-26 13:16:38.369
240.0, 49503.54838413577, 55552.24335816424, 80390.6193841242, 3131.6135086552513, -557.3183962486263, -4065.290578042338, 26471.260365397975, 19261.951060527692, 0.0, 0.0, 0.0, 196.0, 0.0, 0.0, 0.0, 15.0, 201.0, 35.0, 0.0, 0.0, 0.0, 1.6878033983735714E9, 0.0, 2023-06-26 13:16:38.373
241.0, 49379.18327798644, 55421.7315222897, 84561.23138203996, 2984.2931609503225, -678.8001273632202, -4183.598361444278, 26351.030331972877, 19117.64819832423, 0.0, 0.0, 0.0, 196.0, 0.0, 0.0, 0.0, 15.0, 201.0, 39.0, 0.0, 0.0, 0.0, 1.6878033983775904E9, 0.0, 2023-06-26 13:16:38.377
242.0, 49415.19193830394, 55438.83060679801, 83877.35740868538, 3011.0034955744145, -734.7241919903985, -4162.364204211736, 26302.169418593578, 19098.336291114843, 0.0, 0.0, 0.0, 196.0, 0.0, 0.0, 0.0, 15.0, 201.0, 43.0, 0.0, 0.0, 0.0, 1.6878033983826215E9, 0.0, 2023-06-26 13:16:38.382
243.0, 49537.903015363576, 55550.96930873029, 79649.79316589751, 3154.6805089331283, -605.9110886944638, -4014.5297663843357, 26428.769699188437, 19259.2464994486, 0.0, 0.0, 0.0, 196.0, 0.0, 0.0, 0.0, 15.0, 201.0, 47.0, 0.0, 0.0, 0.0, 1.687803398386657E9, 0.0, 2023-06-26 13:16:38.386
244.0, 49523.0391053008, 55556.93722449985, 79729.18656220277, 3158.4132502571647, -531.7927040806657, -4003.711522067967, 26485.56548184937, 19292.975281831656, 0.0, 0.0, 0.0, 196.0, 0.0, 0.0, 0.0, 15.0, 201.0, 51.0, 0.0, 0.0, 0.0, 1.6878033983906603E9, 0.0, 2023-06-26 13:16:38.390
245.0, 49407.88291786706, 55451.034659270605, 84053.15387882637, 3031.41063826211, -637.4941036098128, -4131.6752590746, 26397.83488486229, 19172.857007128838, 0.0, 0.0, 0.0, 196.0, 0.0, 0.0, 0.0, 15.0, 201.0, 55.0, 0.0, 0.0, 0.0, 1.687803398394914E9, 0.0, 2023-06-26 13:16:38.394
246.0, 49398.04815030672, 55422.44677811227, 84436.70981367944, 2998.3300564682554, -732.6231280115996, -4170.96962582703, 26317.30154958982, 19111.88144825476, 0.0, 0.0, 0.0, 196.0, 0.0, 0.0, 0.0, 15.0, 201.0, 59.0, 0.0, 0.0, 0.0, 1.687803398397692E9, 0.0, 2023-06-26 13:16:38.397
247.0, 49511.30443946176, 55515.87706993545, 80304.31929878227, 3123.589232395796, -636.3988681315027, -4034.378115460648, 26409.70366116806, 19237.319438137944, 0.0, 0.0, 0.0, 196.0, 0.0, 16.0, 0.0, 15.0, 201.0, 63.0, 0.0, 0.0, 0.0, 1.6878033984016988E9, 0.0, 2023-06-26 13:16:38.401
248.0, 49532.27037576084, 55561.54168385764, 79227.07697475875, 3164.358814282276, -542.4768379303024, -4009.2771064373383, 26492.2039499526, 19290.360127730386, 0.0, 0.0, 0.0, 196.0, 30.0, 144.0, 0.0, 15.0, 201.0, 67.0, 0.0, 0.0, 0.0, 1.6878033984057224E9, 0.0, 2023-06-26 13:16:38.405
249.0, 49422.344496529644, 55470.07834554653, 83419.0348886293, 3033.757571429917, -644.1102199685836, -4152.171808740117, 26413.972844359025, 19175.382754252285, 0.0, 0.0, 0.0, 196.0, 4.0, 128.0, 0.0, 15.0, 201.0, 71.0, 0.0, 0.0, 0.0, 1.6878033984097586E9, 0.0, 2023-06-26 13:16:38.409
250.0, 49390.29209498073, 55419.74221703318, 84854.48626929359, 2992.004512787403, -747.4199828410128, -4205.480719266024, 26323.15770663711, 19096.078764924856, 0.0, 0.0, 0.0, 196.0, 0.0, 0.0, 0.0, 15.0, 201.0, 75.0, 0.0, 0.0, 0.0, 1.6878033984137802E9, 0.0, 2023-06-26 13:16:38.413
251.0, 49497.51341313284, 55505.03647387463, 81076.6838284354, 3117.308392203855, -654.839057307131, -4061.8931128851314, 26393.118666782222, 19204.909408677748, 0.0, 0.0, 0.0, 196.0, 0.0, 0.0, 0.0, 15.0, 201.0, 79.0, 0.0, 0.0, 0.0, 1.6878033984188094E9, 0.0, 2023-06-26 13:16:38.418
252.0, 49529.588166426205, 55552.37746863097, 78918.55584604215, 3175.1323551097344, -557.6983759043666, -3981.35977761266, 26500.876426801256, 19298.965549345678, 0.0, 0.0, 0.0, 196.0, 0.0, 0.0, 0.0, 15.0, 201.0, 83.0, 0.0, 0.0, 0.0, 1.6878033984228148E9, 0.0, 2023-06-26 13:16:38.422
253.0, 49416.55539471572, 55461.607034397966, 82647.78794619894, 3043.7711529458948, -626.8993767379972, -4124.567404337812, 26430.244914322488, 19185.016356112523, 0.0, 0.0, 0.0, 196.0, 0.0, 0.0, 0.0, 15.0, 201.0, 87.0, 0.0, 0.0, 0.0, 1.68780339842584E9, 0.0, 2023-06-26 13:16:38.425
254.0, 49393.622504904575, 55427.431217125806, 85072.8851643664, 2992.0715680207695, -725.4035145525354, -4204.3184285543475, 26355.679494819582, 19113.06609071089, 0.0, 0.0, 0.0, 196.0, 0.0, 0.0, 0.0, 15.0, 201.0, 91.0, 0.0, 0.0, 0.0, 1.6878033984308472E9, 0.0, 2023-06-26 13:16:38.430
255.0, 49485.622285082616, 55499.94027613882, 81880.85489044845, 3110.9381450340925, -678.5319064297565, -4060.708470429, 26399.332451740796, 19202.02603364301, 0.0, 0.0, 0.0, 196.0, 0.0, 0.0, 0.0, 15.0, 201.0, 95.0, 0.0, 0.0, 0.0, 1.6878033984348667E9, 0.0, 2023-06-26 13:16:38.434
0.0, 49529.029372814824, 55548.42120986238, 78836.43553691334, 3170.2149713295667, -567.4437364868804, -3996.2460394198943, 26483.53147310394, 19284.123991027354, 0.0, 0.0, 0.0, 196.0, 0.0, 0.0, 0.0, 15.0, 201.0, 99.0, 0.0, 0.0, 0.0, 1.6878033984378772E9, 0.0, 2023-06-26 13:16:38.437
1.0, 49468.41144185203, 55513.21721234527, 81854.47983199118, 3081.500897586453, -609.6885335074107, -4092.2467818554383, 26447.120481386242, 19205.356443566852, 0.0, 0.0, 0.0, 196.0, 0.0, 0.0, 0.0, 15.0, 201.0, 103.0, 0.0, 0.0, 0.0, 1.687803398441915E9, 0.0, 2023-06-26 13:16:38.441
2.0, 49394.29305723823, 55432.862691028444, 85095.0804466105, 3004.409730960099, -719.7038197164321, -4160.956044311052, 26361.379189655687, 19116.418852379185, 0.0, 0.0, 0.0, 196.0, 0.0, 0.0, 0.0, 15.0, 201.0, 107.0, 0.0, 0.0, 0.0, 1.6878033984469457E9, 0.0, 2023-06-26 13:16:38.446
3.0, 49462.86820922711, 55479.95781659577, 82685.13771118376, 3085.9712464775143, -699.319028773192, -4101.589811037757, 26376.936003796578, 19165.570338436406, 0.0, 0.0, 0.0, 196.0, 0.0, 0.0, 0.0, 15.0, 201.0, 111.0, 0.0, 0.0, 0.0, 1.6878033984509492E9, 0.0, 2023-06-26 13:16:38.450
4.0, 49555.40443127209, 55571.912893284905, 78977.00565779278, 3196.3665123422757, -566.2590940307491, -3989.2499434053834, 26491.66750808567, 19297.535037700538, 0.0, 0.0, 0.0, 196.0, 0.0, 0.0, 0.0, 15.0, 201.0, 115.0, 0.0, 0.0, 0.0, 1.687803398453966E9, 0.0, 2023-06-26 13:16:38.453
5.0, 49489.75735780685, 55531.165663142885, 81027.80056331166, 3104.2102699530446, -600.904297936475, -4077.4722787704804, 26461.447949582096, 19228.959885711658, 0.0, 0.0, 0.0, 196.0, 0.0, 0.0, 0.0, 15.0, 201.0, 119.0, 0.0, 0.0, 0.0, 1.6878033984579947E9, 0.0, 2023-06-26 13:16:38.457
6.0, 49395.991789816835, 55438.27181318663, 84909.0915809979, 2999.917030324582, -748.738735763876, -4182.078442821317, 26364.530785623883, 19119.861021025303, 0.0, 0.0, 0.0, 196.0, 0.0, 0.0, 0.0, 15.0, 201.0, 123.0, 0.0, 0.0, 0.0, 1.6878033984620245E9, 0.0, 2023-06-26 13:16:38.462
7.0, 49442.23754909486, 55457.71783086274, 83460.20680191599, 3045.089905868758, -729.2256628543929, -4143.454628402546, 26338.02161669989, 19123.459651882607, 0.0, 0.0, 0.0, 196.0, 0.0, 0.0, 0.0, 15.0, 201.0, 127.0, 0.0, 0.0, 0.0, 1.6878033984661818E9, 0.0, 2023-06-26 13:16:38.466
8.0, 49531.93509959401, 55539.77108475818, 79337.13696445667, 3159.061450846368, -583.9840273838076, -4037.261490495383, 26447.70162674208, 19246.05897021997, 0.0, 0.0, 0.0, 196.0, 30.0, 96.0, 0.0, 15.0, 201.0, 131.0, 0.0, 0.0, 0.0, 1.6878033984700568E9, 0.0, 2023-06-26 13:16:38.470
9.0, 49507.45993941545, 55544.33084062706, 80291.71291490948, 3136.5085406909634, -561.1628962949391, -4047.8785691116536, 26497.367202921774, 19259.090037237413, 0.0, 0.0, 0.0, 196.0, 4.0, 96.0, 0.0, 15.0, 201.0, 135.0, 0.0, 0.0, 0.0, 1.6878033984740715E9, 0.0, 2023-06-26 13:16:38.474
10.0, 49375.47288840686, 55417.23882165418, 84544.3558149762, 2984.4272714170543, -710.6290114675775, -4177.943370097086, 26379.998192786956, 19116.999997735023, 0.0, 0.0, 0.0, 196.0, 0.0, 0.0, 0.0, 15.0, 201.0, 139.0, 0.0, 0.0, 0.0, 1.6878033984790926E9, 0.0, 2023-06-26 13:16:38.479
11.0, 49415.080179581666, 55432.25919392815, 84126.80287680661, 3013.9986293314255, -744.2683868728145, -4160.866637333231, 26343.967180725, 19115.904762256716, 0.0, 0.0, 0.0, 196.0, 0.0, 0.0, 0.0, 15.0, 201.0, 143.0, 0.0, 0.0, 0.0, 1.6878033984821763E9, 0.0, 2023-06-26 13:16:38.482
12.0, 49537.634794430116, 55541.04513419213, 79883.07832277755, 3163.9564828820808, -616.4387603329135, -4013.7921588173103, 26471.126254931245, 19265.549691384997, 0.0, 0.0, 0.0, 196.0, 0.0, 0.0, 0.0, 15.0, 201.0, 147.0, 0.0, 0.0, 0.0, 1.6878033984852054E9, 0.0, 2023-06-26 13:16:38.485
13.0, 49525.22957625742, 55551.12577094147, 79674.38008479835, 3158.1226775792456, -545.2261024983052, -4030.3100979697824, 26512.47698217356, 19277.686688624228, 0.0, 0.0, 0.0, 196.0, 0.0, 0.0, 0.0, 15.0, 201.0, 151.0, 0.0, 0.0, 0.0, 1.6878033984901936E9, 0.0, 2023-06-26 13:16:38.490
14.0, 49414.76725515929, 55452.75574359367, 83994.03351474208, 3027.78965566035, -654.3249671846589, -4137.9337475220855, 26418.17497231662, 19154.84150109786, 0.0, 0.0, 0.0, 196.0, 0.0, 0.0, 0.0, 15.0, 201.0, 155.0, 0.0, 0.0, 0.0, 1.6878033984941995E9, 0.0, 2023-06-26 13:16:38.494
15.0, 49423.0150488633, 55443.25625220016, 84640.55772311184, 3022.827568391272, -728.6221657540997, -4153.222340729516, 26359.702808821537, 19114.965988989592, 0.0, 0.0, 0.0, 196.0, 0.0, 0.0, 0.0, 15.0, 201.0, 159.0, 0.0, 0.0, 0.0, 1.6878033984981961E9, 0.0, 2023-06-26 13:16:38.498
16.0, 49532.80681762777, 55532.37265734347, 80553.42949073667, 3148.7796483969273, -641.0927344671172, -4042.1118190421844, 26436.90573417017, 19215.19121112719, 0.0, 0.0, 0.0, 196.0, 0.0, 0.0, 0.0, 15.0, 201.0, 163.0, 0.0, 0.0, 0.0, 1.6878033985022137E9, 0.0, 2023-06-26 13:16:38.502
17.0, 49518.03231454281, 55535.2560323782, 79181.92645095903, 3142.8340843718156, -588.9684663973411, -4033.4393421935256, 26491.1534179632, 19264.76738032906, 0.0, 0.0, 0.0, 196.0, 255.0, 208.0, 0.0, 15.0, 201.0, 167.0, 0.0, 0.0, 0.0, 1.6878033985072412E9, 0.0, 2023-06-26 13:16:38.507
18.0, 49423.90911864151, 55461.62938614242, 83284.47738700836, 3027.4543794935203, -685.3491884886251, -4166.96866356953, 26432.301274812377, 19165.950318092146, 0.0, 0.0, 0.0, 196.0, 30.0, 112.0, 0.0, 15.0, 201.0, 171.0, 0.0, 0.0, 0.0, 1.6878033985102556E9, 0.0, 2023-06-26 13:16:38.510
19.0, 49419.058790094714, 55442.518644633135, 84980.88538418834, 3013.506890953409, -760.8757330031077, -4186.437032990102, 26367.727085080995, 19107.701672041618, 0.0, 0.0, 0.0, 196.0, 4.0, 80.0, 0.0, 15.0, 201.0, 175.0, 0.0, 0.0, 0.0, 1.6878033985132687E9, 0.0, 2023-06-26 13:16:38.513
20.0, 49513.785483096304, 55515.94412516882, 81325.41404073406, 3129.847720843282, -649.2958246822149, -4050.069040068274, 26409.055460578857, 19206.161106367243, 0.0, 0.0, 0.0, 196.0, 0.0, 0.0, 0.0, 15.0, 201.0, 179.0, 0.0, 0.0, 0.0, 1.6878033985193133E9, 0.0, 2023-06-26 13:16:38.519
21.0, 49548.92242538004, 55557.00427973322, 78922.31093911064, 3179.4238900451533, -551.8198671126207, -3993.4744231074365, 26499.401211667206, 19289.62252016336, 0.0, 0.0, 0.0, 196.0, 0.0, 0.0, 0.0, 15.0, 201.0, 183.0, 0.0, 0.0, 0.0, 1.6878033985222976E9, 0.0, 2023-06-26 13:16:38.522
22.0, 49451.848799210646, 55479.51078170667, 82520.04772663685, 3063.1501153886456, -632.129684940539, -4110.061122186318, 26442.38191156172, 19190.827809670904, 0.0, 0.0, 0.0, 196.0, 0.0, 0.0, 0.0, 15.0, 201.0, 187.0, 0.0, 0.0, 0.0, 1.6878033985273335E9, 0.0, 2023-06-26 13:16:38.527
23.0, 49385.66528387848, 55400.497365057156, 85148.43406062532, 2983.957884783493, -759.7134422914318, -4196.9200011396415, 26340.323846378786, 19098.649215537218, 0.0, 0.0, 0.0, 196.0, 0.0, 0.0, 0.0, 15.0, 201.0, 191.0, 0.0, 0.0, 0.0, 1.6878033985313687E9, 0.0, 2023-06-26 13:16:38.531
24.0, 49477.5309535898, 55472.31351999206, 82126.79113469018, 3088.7652145344277, -720.5978894946444, -4093.5208312893906, 26376.868948563213, 19164.922137847203, 0.0, 0.0, 0.0, 196.0, 0.0, 0.0, 0.0, 15.0, 201.0, 195.0, 0.0, 0.0, 0.0, 1.6878033985343907E9, 0.0, 2023-06-26 13:16:38.534
25.0, 49559.494800507404, 55555.4620093658, 78883.12833108049, 3184.430680803142, -577.3902627694921, -4004.6055918461793, 26493.679165086647, 19275.071534522955, 0.0, 0.0, 0.0, 196.0, 0.0, 0.0, 0.0, 15.0, 201.0, 199.0, 0.0, 0.0, 0.0, 1.6878033985383968E9, 0.0, 2023-06-26 13:16:38.538
26.0, 49466.44448833996, 55490.619598700956, 81660.73491105258, 3074.03541493838, -625.8935482375084, -4129.507139862435, 26444.48297554052, 19192.392431782777, 0.0, 0.0, 0.0, 196.0, 0.0, 0.0, 0.0, 15.0, 201.0, 203.0, 0.0, 0.0, 0.0, 1.68780339854138E9, 0.0, 2023-06-26 13:16:38.541
27.0, 49375.29407445122, 55397.636341766876, 85077.06494057953, 2975.1960009570125, -764.0049772268507, -4201.1444808416945, 26345.934134237068, 19092.658948023196, 0.0, 0.0, 0.0, 196.0, 255.0, 224.0, 0.0, 15.0, 201.0, 207.0, 0.0, 0.0, 0.0, 1.6878033985454125E9, 0.0, 2023-06-26 13:16:38.545
28.0, 49474.75933727733, 55476.60505492748, 82921.26153960962, 3080.9644557195256, -714.3170493027031, -4110.7540262644325, 26379.819378831315, 19159.75888487803, 0.0, 0.0, 0.0, 196.0, 30.0, 112.0, 0.0, 15.0, 201.0, 211.0, 0.0, 0.0, 0.0, 1.6878033985504262E9, 0.0, 2023-06-26 13:16:38.550
29.0, 49558.57837898474, 55557.3619076445, 79083.1093887221, 3199.9651431995803, -586.5991814850786, -3995.7990045307884, 26507.29137745993, 19292.52824694255, 0.0, 0.0, 0.0, 196.0, 4.0, 96.0, 0.0, 15.0, 201.0, 215.0, 0.0, 0.0, 0.0, 1.6878033985544667E9, 0.0, 2023-06-26 13:16:38.554
30.0, 49485.01878798232, 55506.757558197685, 80875.85340450447, 3118.6718486156287, -597.3727223125366, -4080.1321363606617, 26500.071764000866, 19243.600278329883, 0.0, 0.0, 0.0, 196.0, 0.0, 0.0, 0.0, 15.0, 201.0, 219.0, 0.0, 0.0, 0.0, 1.687803398558472E9, 0.0, 2023-06-26 13:16:38.558
31.0, 49373.975321528356, 55393.61302776492, 84869.57369680092, 2982.817945816272, -718.2509563268371, -4214.086140881317, 26377.65125961915, 19119.4139861362, 0.0, 0.0, 0.0, 196.0, 0.0, 0.0, 0.0, 15.0, 201.0, 223.0, 0.0, 0.0, 0.0, 1.6878033985615084E9, 0.0, 2023-06-26 13:16:38.561
32.0, 49425.20551981992, 55424.905470002355, 83651.20245828659, 3035.948042386537, -752.6055875546441, -4147.34383193777, 26350.78446278387, 19121.515050115, 0.0, 0.0, 0.0, 196.0, 0.0, 0.0, 0.0, 15.0, 201.0, 227.0, 0.0, 0.0, 0.0, 1.6878033985655105E9, 0.0, 2023-06-26 13:16:38.565
33.0, 49534.03616357281, 55529.623392775466, 79484.72553309507, 3178.5745237558513, -628.7769232722429, -4004.002094745886, 26476.781246278435, 19268.947156542203, 0.0, 0.0, 0.0, 196.0, 0.0, 0.0, 0.0, 15.0, 201.0, 231.0, 0.0, 0.0, 0.0, 1.6878033985695455E9, 0.0, 2023-06-26 13:16:38.569
34.0, 49498.072206744226, 55516.189994357825, 80148.59469516214, 3142.8564361162707, -578.9995883702742, -4036.32271722826, 26505.52558964796, 19260.297031437996, 0.0, 0.0, 0.0, 196.0, 0.0, 0.0, 0.0, 15.0, 201.0, 235.0, 0.0, 0.0, 0.0, 1.6878033985735471E9, 0.0, 2023-06-26 13:16:38.573
35.0, 49388.83923159113, 55414.08722568599, 84436.48629623489, 3003.8285856042608, -705.6892759429546, -4179.820916631332, 26396.31496623933, 19128.01940775149, 0.0, 0.0, 0.0, 196.0, 0.0, 0.0, 0.0, 15.0, 201.0, 239.0, 0.0, 0.0, 0.0, 1.6878033985775833E9, 0.0, 2023-06-26 13:16:38.577
36.0, 49410.14044405705, 55412.455548340746, 84282.68394263792, 3018.111350311202, -753.2984916327587, -4176.311692751849, 26351.052683717335, 19112.373186632776, 0.0, 0.0, 0.0, 196.0, 0.0, 0.0, 0.0, 15.0, 201.0, 243.0, 0.0, 0.0, 0.0, 1.6878033985826077E9, 0.0, 2023-06-26 13:16:38.582
37.0, 49518.50170117637, 55510.244430332714, 80041.50748747677, 3159.5084857354746, -636.8906065095194, -4036.300365483805, 26463.012571693966, 19256.653697091784, 0.0, 0.0, 0.0, 196.0, 255.0, 224.0, 0.0, 15.0, 201.0, 247.0, 0.0, 0.0, 0.0, 1.687803398586632E9, 0.0, 2023-06-26 13:16:38.586
38.0, 49511.6397156286, 55523.610773516986, 79536.80509767594, 3157.9215118791476, -583.3134750501484, -4048.8173423787766, 26510.644139128228, 19263.269813450555, 0.0, 0.0, 0.0, 196.0, 30.0, 112.0, 0.0, 15.0, 201.0, 251.0, 0.0, 0.0, 0.0, 1.6878033985896144E9, 0.0, 2023-06-26 13:16:38.589
39.0, 49396.52823168376, 55421.128025189406, 83853.66455956275, 3013.439835720043, -703.1635288195049, -4182.771346899432, 26416.23037054901, 19145.967858549102, 0.0, 0.0, 0.0, 196.0, 4.0, 48.0, 0.0, 15.0, 201.0, 255.0, 0.0, 0.0, 0.0, 1.6878033985936503E9, 0.0, 2023-06-26 13:16:38.593
40.0, 49392.549621170714, 55398.3739493339, 84743.57691330634, 2999.179422757557, -803.4558061904677, -4174.165925284138, 26353.243154673954, 19117.201163435122, 0.0, 0.0, 0.0, 196.0, 0.0, 0.0, 0.0, 15.0, 202.0, 3.0, 0.0, 0.0, 0.0, 1.6878033985976772E9, 0.0, 2023-06-26 13:16:38.597
41.0, 49502.117872490635, 55488.719700422254, 80752.24825766662, 3138.721363392039, -672.4298801934576, -4053.0418220808297, 26428.590885232796, 19231.99972295758, 0.0, 0.0, 0.0, 196.0, 0.0, 0.0, 0.0, 15.0, 202.0, 7.0, 0.0, 0.0, 0.0, 1.6878033986016867E9, 0.0, 2023-06-26 13:16:38.601
42.0, 49529.7893321263, 55533.15496839941, 79128.01404333282, 3183.6036662582956, -557.9218933489196, -4011.5346326273243, 26521.015348555487, 19291.85769460889, 0.0, 0.0, 0.0, 196.0, 0.0, 0.0, 0.0, 15.0, 202.0, 11.0, 0.0, 0.0, 0.0, 1.6878033986057062E9, 0.0, 2023-06-26 13:16:38.605
43.0, 49416.10835982661, 55436.081342230005, 83140.08511782708, 3035.880987153171, -671.8263830931644, -4148.528474393902, 26433.597675990783, 19172.83465538438, 0.0, 0.0, 0.0, 196.0, 0.0, 0.0, 0.0, 15.0, 202.0, 15.0, 0.0, 0.0, 0.0, 1.6878033986117227E9, 0.0, 2023-06-26 13:16:38.611
44.0, 49389.554487413705, 55393.165992875816, 85058.49064093718, 2999.693512880029, -766.642483072577, -4193.075501093328, 26358.428759387585, 19122.051491981925, 0.0, 0.0, 0.0, 196.0, 0.0, 0.0, 0.0, 15.0, 202.0, 19.0, 0.0, 0.0, 0.0, 1.68780339861476E9, 0.0, 2023-06-26 13:16:38.614
45.0, 49489.84676478467, 55477.052089816585, 81532.19002869011, 3123.52217716243, -708.7067614444211, -4055.3664035041816, 26413.190533303088, 19212.061966903446, 0.0, 0.0, 0.0, 196.0, 0.0, 0.0, 0.0, 15.0, 202.0, 23.0, 0.0, 0.0, 0.0, 1.6878033986187968E9, 0.0, 2023-06-26 13:16:38.618
46.0, 49537.210111285465, 55533.15496839941, 78900.04860163316, 3186.2188203595665, -595.0704926336399, -4007.4666151364586, 26510.934711806145, 19290.360127730386, 0.0, 0.0, 0.0, 196.0, 0.0, 0.0, 0.0, 15.0, 202.0, 27.0, 0.0, 0.0, 0.0, 1.6878033986217911E9, 0.0, 2023-06-26 13:16:38.621
47.0, 49439.93531941597, 55455.75087735068, 82312.3776689026, 3064.848847967249, -666.2384469793376, -4126.109674705229, 26442.76189121746, 19186.60332996885, 0.0, 0.0, 0.0, 196.0, 255.0, 192.0, 0.0, 15.0, 202.0, 31.0, 0.0, 0.0, 0.0, 1.6878033986258116E9, 0.0, 2023-06-26 13:16:38.625
48.0, 49378.19980123041, 55385.09701312745, 85168.01418876818, 2993.4126726880877, -770.1070034631496, -4199.490451752002, 26347.78932902686, 19099.31976787088, 0.0, 0.0, 0.0, 196.0, 30.0, 192.0, 0.0, 15.0, 202.0, 35.0, 0.0, 0.0, 0.0, 1.6878033986298225E9, 0.0, 2023-06-26 13:16:38.629
49.0, 49476.525125089305, 55464.535112921614, 82327.75566908786, 3099.47170012852, -735.9088344465297, -4094.2137353675053, 26388.60361440225, 19177.707335675637, 0.0, 0.0, 0.0, 196.0, 4.0, 96.0, 0.0, 15.0, 202.0, 39.0, 0.0, 0.0, 0.0, 1.6878033986338615E9, 0.0, 2023-06-26 13:16:38.633
50.0, 49543.6921171775, 55533.400837588415, 78911.58210177209, 3195.159518141689, -613.7565509982767, -4001.386940644615, 26504.117429747275, 19296.1045260554, 0.0, 0.0, 0.0, 196.0, 0.0, 0.0, 0.0, 15.0, 202.0, 43.0, 0.0, 0.0, 0.0, 1.6878033986378622E9, 0.0, 2023-06-26 13:16:38.637
51.0, 49460.40951733703, 55477.186200283315, 81482.21152808804, 3091.1792029356006, -638.0081937322848, -4116.230203655983, 26474.166092177165, 19220.153298396268, 0.0, 0.0, 0.0, 196.0, 0.0, 0.0, 0.0, 15.0, 202.0, 47.0, 0.0, 0.0, 0.0, 1.687803398642887E9, 0.0, 2023-06-26 13:16:38.642
52.0, 49369.549676126204, 55383.71120497122, 85058.04360604807, 2985.857783062194, -766.1730964390155, -4209.682847223621, 26361.423893144598, 19101.577294060862, 0.0, 0.0, 0.0, 196.0, 0.0, 0.0, 0.0, 15.0, 202.0, 51.0, 0.0, 0.0, 0.0, 1.6878033986458936E9, 0.0, 2023-06-26 13:16:38.645
53.0, 49436.38139204757, 55428.10176945946, 83126.0705740536, 3062.7477839884505, -745.609491540133, -4124.030962470885, 26371.616288616216, 19150.147634762245, 0.0, 0.0, 0.0, 196.0, 0.0, 0.0, 0.0, 15.0, 202.0, 55.0, 0.0, 0.0, 0.0, 1.6878033986499183E9, 0.0, 2023-06-26 13:16:38.649
54.0, 49526.28010824682, 55514.78183445714, 79178.99837243538, 3181.5696575128627, -612.8624812200643, -4010.2158797044613, 26493.76857206447, 19289.95779633019, 0.0, 0.0, 0.0, 196.0, 0.0, 0.0, 0.0, 15.0, 202.0, 59.0, 0.0, 0.0, 0.0, 1.6878033986539412E9, 0.0, 2023-06-26 13:16:38.653
55.0, 49469.64078779707, 55485.21047654277, 80715.97137641566, 3113.843871813282, -611.4096178304694, -4071.2808455563604, 26495.37789766525, 19245.634287075318, 0.0, 0.0, 0.0, 196.0, 0.0, 0.0, 0.0, 15.0, 202.0, 63.0, 0.0, 0.0, 0.0, 1.6878033986579573E9, 0.0, 2023-06-26 13:16:38.657
56.0, 49359.849019032605, 55380.49255376966, 84814.65546067423, 2990.5516493978084, -742.3461368496581, -4194.908344138664, 26384.803817844848, 19125.1136809723, 0.0, 0.0, 0.0, 196.0, 0.0, 0.0, 0.0, 15.0, 202.0, 67.0, 0.0, 0.0, 0.0, 1.687803398661963E9, 0.0, 2023-06-26 13:16:38.661
57.0, 49418.94703137244, 55414.891888486374, 83851.60819907287, 3041.5806819892746, -754.2819683887922, -4144.460456903035, 26367.727085080995, 19145.342009704353, 0.0, 0.0, 0.0, 196.0, 255.0, 208.0, 0.0, 15.0, 202.0, 71.0, 0.0, 0.0, 0.0, 1.6878033986660068E9, 0.0, 2023-06-26 13:16:38.666
58.0, 49518.52405292083, 55503.829479674045, 79650.7542909091, 3173.679491720139, -649.6087491045892, -4021.1905862320173, 26476.445970111607, 19262.91218553927, 0.0, 0.0, 0.0, 196.0, 30.0, 144.0, 0.0, 15.0, 202.0, 75.0, 0.0, 0.0, 0.0, 1.6878033986710296E9, 0.0, 2023-06-26 13:16:38.671
59.0, 49491.769014807825, 55501.571953484054, 80034.46668797334, 3136.3520784797765, -610.001457929785, -4066.922255387575, 26503.893912302723, 19243.935554496715, 0.0, 0.0, 0.0, 196.0, 4.0, 112.0, 0.0, 15.0, 202.0, 79.0, 0.0, 0.0, 0.0, 1.687803398674044E9, 0.0, 2023-06-26 13:16:38.674
60.0, 49377.261027963286, 55394.08241439849, 84357.31641737418, 3000.788748358339, -733.740715234365, -4199.40104477418, 26410.9330071131, 19142.83861432536, 0.0, 0.0, 0.0, 196.0, 0.0, 0.0, 0.0, 15.0, 202.0, 83.0, 0.0, 0.0, 0.0, 1.6878033986790636E9, 0.0, 2023-06-26 13:16:38.679
61.0, 49396.59528691713, 55391.44490855276, 84457.22871508941, 3020.7935596458387, -774.9796837544064, -4178.055128819362, 26364.240212945966, 19135.84251831085, 0.0, 0.0, 0.0, 196.0, 0.0, 0.0, 0.0, 15.0, 202.0, 87.0, 0.0, 0.0, 0.0, 1.6878033986820805E9, 0.0, 2023-06-26 13:16:38.682
62.0, 49504.37539868062, 55485.70221492079, 80255.61484761415, 3157.2509595454885, -677.1908017624381, -4033.998135804908, 26457.13406290222, 19250.305801666476, 0.0, 0.0, 0.0, 196.0, 0.0, 0.0, 0.0, 15.0, 202.0, 91.0, 0.0, 0.0, 0.0, 1.6878033986870987E9, 0.0, 2023-06-26 13:16:38.687
63.0, 49512.35497145116, 55510.15502335489, 79472.96851551157, 3164.1800003266335, -608.615649773556, -4015.7591123293773, 26518.646063643228, 19271.115275754368, 0.0, 0.0, 0.0, 196.0, 0.0, 0.0, 0.0, 15.0, 202.0, 95.0, 0.0, 0.0, 0.0, 1.6878033986902037E9, 0.0, 2023-06-26 13:16:38.690
64.0, 49392.549621170714, 55404.63243778139, 83740.47532564108, 3024.50394922542, -707.3880085215579, -4154.339927952281, 26420.298388039875, 19153.589803408362, 0.0, 0.0, 0.0, 196.0, 0.0, 0.0, 0.0, 15.0, 202.0, 99.0, 0.0, 0.0, 0.0, 1.6878033986951892E9, 0.0, 2023-06-26 13:16:38.695
65.0, 49389.73330136935, 55383.57709450449, 84917.13820900182, 3015.8314723767608, -782.6016286136662, -4165.381689713203, 26354.60661108573, 19121.380939648265, 0.0, 0.0, 0.0, 196.0, 0.0, 0.0, 0.0, 15.0, 202.0, 103.0, 0.0, 0.0, 0.0, 1.6878033986992133E9, 0.0, 2023-06-26 13:16:38.699
66.0, 49502.43079691301, 55478.236732272715, 81006.1640746789, 3141.8729593602375, -700.3695607625915, -4047.1409615446287, 26421.79595491838, 19223.081376919912, 0.0, 0.0, 0.0, 196.0, 0.0, 0.0, 0.0, 15.0, 202.0, 107.0, 0.0, 0.0, 0.0, 1.687803398702186E9, 0.0, 2023-06-26 13:16:38.702
67.0, 49538.6406229306, 55527.63408751894, 79093.72646733839, 3179.937980167625, -607.9450974398968, -4008.092463981207, 26509.57125539437, 19287.834380606935, 0.0, 0.0, 0.0, 196.0, 255.0, 224.0, 0.0, 15.0, 202.0, 111.0, 0.0, 0.0, 0.0, 1.6878033987061987E9, 0.0, 2023-06-26 13:16:38.706
68.0, 49425.22787156438, 55435.656659085354, 82980.31484846055, 3040.753667444428, -689.5960199351335, -4142.605262113245, 26436.145774858687, 19178.89197813177, 0.0, 0.0, 0.0, 196.0, 30.0, 160.0, 0.0, 15.0, 202.0, 115.0, 0.0, 0.0, 0.0, 1.687803398709221E9, 0.0, 2023-06-26 13:16:38.709
69.0, 49385.24060073383, 55380.55960900302, 85141.70618554427, 2986.662445862585, -792.190526984993, -4195.757710427965, 26350.963276739512, 19108.841611008836, 0.0, 0.0, 0.0, 196.0, 4.0, 128.0, 0.0, 15.0, 202.0, 119.0, 0.0, 0.0, 0.0, 1.6878033987132275E9, 0.0, 2023-06-26 13:16:38.713
70.0, 49489.42208164002, 55465.92092107784, 81771.3983978508, 3108.3229909328215, -752.7844015102866, -4097.320627846793, 26402.573454686815, 19196.03576612899, 0.0, 0.0, 0.0, 196.0, 0.0, 0.0, 0.0, 15.0, 202.0, 123.0, 0.0, 0.0, 0.0, 1.687803398718235E9, 0.0, 2023-06-26 13:16:38.718
71.0, 49540.47346597594, 55526.8070729741, 78939.52178234122, 3189.7280442390497, -645.0266414912512, -4018.0166385193634, 26509.928883305656, 19300.083136568446, 0.0, 0.0, 0.0, 196.0, 0.0, 0.0, 0.0, 15.0, 202.0, 127.0, 0.0, 0.0, 0.0, 1.68780339872227E9, 0.0, 2023-06-26 13:16:38.722
72.0, 49443.377488062084, 55449.89472030339, 82178.17779519294, 3067.195781135056, -644.4007926465026, -4120.231165913483, 26459.23512688102, 19199.41087954174, 0.0, 0.0, 0.0, 196.0, 0.0, 0.0, 0.0, 15.0, 202.0, 131.0, 0.0, 0.0, 0.0, 1.6878033987262888E9, 0.0, 2023-06-26 13:16:38.726
73.0, 49368.00740575879, 55365.695698940246, 85223.60297722853, 2979.2640184478782, -766.0166342278284, -4198.842251162798, 26361.066265233312, 19106.69584354113, 0.0, 0.0, 0.0, 196.0, 0.0, 0.0, 0.0, 15.0, 202.0, 135.0, 0.0, 0.0, 0.0, 1.6878033987293065E9, 0.0, 2023-06-26 13:16:38.729
74.0, 49463.20348539394, 55434.963755007244, 82591.34979144929, 3076.94114171757, -725.0235348967952, -4115.157319922128, 26391.062306292333, 19174.488684474076, 0.0, 0.0, 0.0, 196.0, 0.0, 0.0, 0.0, 15.0, 202.0, 139.0, 0.0, 0.0, 0.0, 1.6878033987333293E9, 0.0, 2023-06-26 13:16:38.733
75.0, 49541.56870145425, 55516.39116005792, 79020.21157982489, 3178.194544100111, -621.9149377244637, -4019.9835920314304, 26499.043583755923, 19288.840209107424, 0.0, 0.0, 0.0, 196.0, 0.0, 0.0, 0.0, 15.0, 202.0, 143.0, 0.0, 0.0, 0.0, 1.687803398737347E9, 0.0, 2023-06-26 13:16:38.737
76.0, 49457.995528935855, 55457.71783086274, 81348.03400612283, 3075.5776853057964, -657.6330253640444, -4118.532433334879, 26476.602432322794, 19211.14554538078, 0.0, 0.0, 0.0, 196.0, 0.0, 0.0, 0.0, 15.0, 202.0, 147.0, 0.0, 0.0, 0.0, 1.6878033987413526E9, 0.0, 2023-06-26 13:16:38.741
77.0, 49372.61186511658, 55368.93670188626, 85091.14653958638, 2986.2824662068447, -762.2838929037921, -4209.280515823426, 26385.362611456232, 19110.383881376252, 0.0, 0.0, 0.0, 196.0, 255.0, 224.0, 0.0, 15.0, 202.0, 151.0, 0.0, 0.0, 0.0, 1.6878033987463706E9, 0.0, 2023-06-26 13:16:38.746
78.0, 49439.60004324914, 55416.59062106498, 83384.38968472359, 3055.505818784931, -754.8631137446301, -4144.482808647491, 26385.966108556524, 19146.21372773811, 0.0, 0.0, 0.0, 196.0, 30.0, 112.0, 0.0, 15.0, 202.0, 155.0, 0.0, 0.0, 0.0, 1.6878033987504044E9, 0.0, 2023-06-26 13:16:38.750
79.0, 49535.77959964032, 55506.623447730955, 79319.81436250382, 3177.0993086218014, -627.681687793933, -4007.1983942029947, 26503.022194268968, 19283.967528816167, 0.0, 0.0, 0.0, 196.0, 4.0, 128.0, 0.0, 15.0, 202.0, 159.0, 0.0, 0.0, 0.0, 1.687803398753421E9, 0.0, 2023-06-26 13:16:38.753
80.0, 49482.29187515878, 55480.09192706251, 80569.1651188332, 3117.598964881774, -621.2220336463492, -4065.4917437424356, 26510.82295308387, 19253.68091507923, 0.0, 0.0, 0.0, 196.0, 0.0, 0.0, 0.0, 15.0, 202.0, 163.0, 0.0, 0.0, 0.0, 1.687803398757428E9, 0.0, 2023-06-26 13:16:38.757
81.0, 49370.17552497095, 55373.67527171079, 84760.02779722546, 2990.8645738201826, -736.8252559691973, -4175.35056774027, 26409.45779197905, 19138.703541601128, 0.0, 0.0, 0.0, 196.0, 0.0, 0.0, 0.0, 15.0, 202.0, 167.0, 0.0, 0.0, 0.0, 1.6878033987614446E9, 0.0, 2023-06-26 13:16:38.761
82.0, 49414.27551678128, 55394.73061498769, 84051.00811135866, 3024.280431780867, -774.286779676292, -4147.276776704404, 26374.678477606594, 19129.181698463166, 0.0, 0.0, 0.0, 196.0, 0.0, 0.0, 0.0, 15.0, 202.0, 171.0, 0.0, 0.0, 0.0, 1.687803398765555E9, 0.0, 2023-06-26 13:16:38.765
83.0, 49518.412294198555, 55488.78675565562, 79812.75973472116, 3153.6523286881843, -655.934292785441, -4031.159464259084, 26480.648098069203, 19248.003571987578, 0.0, 0.0, 0.0, 196.0, 0.0, 0.0, 0.0, 15.0, 202.0, 175.0, 0.0, 0.0, 0.0, 1.68780339876951E9, 0.0, 2023-06-26 13:16:38.769
84.0, 49490.74083456288, 55482.41650848586, 79915.44364874884, 3131.077066788324, -611.9013562084862, -4065.6929094425336, 26513.840438585336, 19257.57011861445, 0.0, 0.0, 0.0, 196.0, 0.0, 0.0, 0.0, 15.0, 202.0, 179.0, 0.0, 0.0, 0.0, 1.6878033987735105E9, 0.0, 2023-06-26 13:16:38.773
85.0, 49372.67892034995, 55374.59169323346, 84247.85992477655, 2980.2251434594564, -744.4472008284571, -4210.442806535102, 26404.830980876803, 19131.79685256444, 0.0, 0.0, 0.0, 196.0, 0.0, 0.0, 0.0, 15.0, 202.0, 183.0, 0.0, 0.0, 0.0, 1.6878033987795444E9, 0.0, 2023-06-26 13:16:38.779
86.0, 49379.89853380901, 55362.119419827395, 84627.19137992756, 2983.600256872208, -817.380942986124, -4187.867544635242, 26352.326733151287, 19105.19827666262, 0.0, 0.0, 0.0, 196.0, 0.0, 0.0, 0.0, 15.0, 202.0, 187.0, 0.0, 0.0, 0.0, 1.6878033987835772E9, 0.0, 2023-06-26 13:16:38.783
87.0, 49498.02750325531, 55465.585644911014, 80463.59782977079, 3131.948784822081, -707.8797468995747, -4050.2478540239163, 26463.99604845, 19240.85101376188, 0.0, 0.0, 0.0, 196.0, 255.0, 240.0, 0.0, 15.0, 202.0, 191.0, 0.0, 0.0, 0.0, 1.6878033987865949E9, 0.0, 2023-06-26 13:16:38.786
88.0, 49512.26556447334, 55495.849906903495, 79392.70340117258, 3151.327747264832, -589.4155012864472, -4019.648315864601, 26522.937598578646, 19283.587549160427, 0.0, 0.0, 0.0, 196.0, 30.0, 144.0, 0.0, 15.0, 202.0, 195.0, 0.0, 0.0, 0.0, 1.6878033987895963E9, 0.0, 2023-06-26 13:16:38.789
89.0, 49394.58362991615, 55392.85306845344, 83578.89456497367, 2992.697416865518, -695.8545083826194, -4182.816050388343, 26420.298388039875, 19156.182605765178, 0.0, 0.0, 0.0, 196.0, 4.0, 144.0, 0.0, 15.0, 202.0, 199.0, 0.0, 0.0, 0.0, 1.687803398793604E9, 0.0, 2023-06-26 13:16:38.793
90.0, 49377.57395238566, 55361.202998304725, 85005.36054436691, 2978.5487626253084, -771.7163290639317, -4182.078442821317, 26353.913707007614, 19108.416927864186, 0.0, 0.0, 0.0, 196.0, 0.0, 0.0, 0.0, 15.0, 202.0, 203.0, 0.0, 0.0, 0.0, 1.6878033987976396E9, 0.0, 2023-06-26 13:16:38.797
91.0, 49496.574639865714, 55459.014232041154, 81215.39875452504, 3128.976002809525, -692.9264298589743, -4037.5297114288464, 26434.648207980183, 19220.62268502983, 0.0, 0.0, 0.0, 196.0, 0.0, 0.0, 0.0, 15.0, 202.0, 207.0, 0.0, 0.0, 0.0, 1.6878033988016615E9, 0.0, 2023-06-26 13:16:38.801
92.0, 49523.70965763446, 55498.35330228249, 79080.85186253213, 3168.158610839678, -613.6224405315448, -4003.353894156682, 26517.61788339828, 19284.928653827745, 0.0, 0.0, 0.0, 196.0, 0.0, 0.0, 0.0, 15.0, 202.0, 211.0, 0.0, 0.0, 0.0, 1.687803398806686E9, 0.0, 2023-06-26 13:16:38.806
93.0, 49407.48058646686, 55405.191231392775, 82829.61938734286, 3027.3202690267885, -708.192671321949, -4156.552750653356, 26449.534469787417, 19174.823960640904, 0.0, 0.0, 0.0, 196.0, 0.0, 0.0, 0.0, 15.0, 202.0, 215.0, 0.0, 0.0, 0.0, 1.6878033988096998E9, 0.0, 2023-06-26 13:16:38.809
94.0, 49369.706138337395, 55354.72099241269, 85217.34448878103, 2970.770355554862, -805.8697945916408, -4230.671135267155, 26375.46078866253, 19110.58504707635, 0.0, 0.0, 0.0, 196.0, 0.0, 0.0, 0.0, 15.0, 202.0, 219.0, 0.0, 0.0, 0.0, 1.687803398812724E9, 0.0, 2023-06-26 13:16:38.812
95.0, 49472.09947968715, 55434.181443951304, 82007.43281929885, 3073.1636969046235, -721.4919592728567, -4117.548956578846, 26416.56564671584, 19184.055231100945, 0.0, 0.0, 0.0, 196.0, 0.0, 0.0, 0.0, 15.0, 202.0, 223.0, 0.0, 0.0, 0.0, 1.687803398817724E9, 0.0, 2023-06-26 13:16:38.817
96.0, 49544.18385555552, 55513.485433278736, 78969.92015480043, 3178.1498406112005, -592.5223937657349, -3980.8009840012774, 26530.023101570976, 19278.826627591447, 0.0, 0.0, 0.0, 196.0, 0.0, 0.0, 0.0, 15.0, 202.0, 227.0, 0.0, 0.0, 0.0, 1.687803398821744E9, 0.0, 2023-06-26 13:16:38.821
97.0, 49443.82452295119, 55436.93070851931, 82020.73210724976, 3065.2288276229892, -660.8516765656086, -4112.609221054223, 26473.42848461014, 19197.42157428522, 0.0, 0.0, 0.0, 196.0, 255.0, 224.0, 0.0, 15.0, 202.0, 231.0, 0.0, 0.0, 0.0, 1.687803398825772E9, 0.0, 2023-06-26 13:16:38.825
98.0, 49371.67309184946, 55355.19037904625, 85246.37940482848, 2975.6206841016633, -774.7561663098534, -4207.917059411652, 26374.343201439766, 19103.320730128376, 0.0, 0.0, 0.0, 196.0, 30.0, 144.0, 0.0, 15.0, 202.0, 235.0, 0.0, 0.0, 0.0, 1.6878033988298E9, 0.0, 2023-06-26 13:16:38.829
99.0, 49451.0217846658, 55413.79665300807, 82822.44447737272, 3061.6078450212294, -765.6813580609987, -4135.117427720717, 26392.716335382025, 19159.334201733374, 0.0, 0.0, 0.0, 196.0, 4.0, 144.0, 0.0, 15.0, 202.0, 239.0, 0.0, 0.0, 0.0, 1.6878033988348172E9, 0.0, 2023-06-26 13:16:38.834
100.0, 49536.89718686309, 55496.98984587072, 79119.81095311773, 3174.014767886969, -623.2113389028715, -4024.3421822002156, 26511.091174017332, 19285.889778839326, 0.0, 0.0, 0.0, 196.0, 0.0, 0.0, 0.0, 15.0, 202.0, 243.0, 0.0, 0.0, 0.0, 1.6878033988378272E9, 0.0, 2023-06-26 13:16:38.837
101.0, 49463.091726671664, 55449.96177553675, 81195.84097812665, 3089.2122494235336, -640.5339408557345, -4095.308970845815, 26490.080534229342, 19223.684874020204, 0.0, 0.0, 0.0, 196.0, 0.0, 0.0, 0.0, 15.0, 202.0, 247.0, 0.0, 0.0, 0.0, 1.6878033988408391E9, 0.0, 2023-06-26 13:16:38.840
102.0, 49368.00740575879, 55355.838579635456, 85063.11745203943, 2974.078413734247, -771.6269220861104, -4202.9102686536635, 26383.574471899807, 19108.77455577547, 0.0, 0.0, 0.0, 196.0, 0.0, 0.0, 0.0, 15.0, 202.0, 251.0, 0.0, 0.0, 0.0, 1.6878033988448603E9, 0.0, 2023-06-26 13:16:38.844
103.0, 49422.478606996374, 55390.17085911881, 83613.65152760167, 3035.7692284308946, -780.9699512684288, -4150.763648839432, 26373.851463061746, 19131.707445586617, 0.0, 0.0, 0.0, 196.0, 0.0, 0.0, 0.0, 15.0, 202.0, 255.0, 0.0, 0.0, 0.0, 1.6878033988498816E9, 0.0, 2023-06-26 13:16:38.849
104.0, 49529.63286991511, 55492.631255701934, 79481.48453014906, 3173.590084742318, -649.9663770158741, -4017.1449204856067, 26499.24474945602, 19268.991860031114, 0.0, 0.0, 0.0, 196.0, 0.0, 0.0, 0.0, 15.0, 203.0, 3.0, 0.0, 0.0, 0.0, 1.6878033988539093E9, 0.0, 2023-06-26 13:16:38.853
105.0, 49491.769014807825, 55477.83440087252, 80430.20432355456, 3121.6669823726397, -638.2317111768378, -4085.228334096472, 26513.68397637415, 19252.496272623095, 0.0, 0.0, 0.0, 196.0, 0.0, 0.0, 0.0, 15.0, 203.0, 7.0, 0.0, 0.0, 0.0, 1.6878033988599598E9, 0.0, 2023-06-26 13:16:38.859
106.0, 49380.79260358722, 55372.177704832284, 84670.84433684878, 2991.8033470873056, -762.060375459239, -4220.031704906429, 26411.089469324288, 19129.94165777465, 0.0, 0.0, 0.0, 196.0, 0.0, 0.0, 0.0, 15.0, 203.0, 11.0, 0.0, 0.0, 0.0, 1.6878033988629625E9, 0.0, 2023-06-26 13:16:38.862
107.0, 49412.19680454693, 55385.65580673883, 84249.62571258852, 3029.8907196391488, -779.606494856655, -4134.022192242407, 26374.633774117683, 19116.21768667909, 0.0, 0.0, 0.0, 196.0, 255.0, 240.0, 0.0, 15.0, 203.0, 15.0, 0.0, 0.0, 0.0, 1.6878033988659687E9, 0.0, 2023-06-26 13:16:38.865
108.0, 49522.41325645605, 55482.81883988605, 79996.9828125218, 3167.2198375725557, -665.8361155791421, -4009.835900048721, 26480.469284113562, 19251.691609822705, 0.0, 0.0, 0.0, 196.0, 30.0, 144.0, 0.0, 15.0, 203.0, 19.0, 0.0, 0.0, 0.0, 1.6878033988689826E9, 0.0, 2023-06-26 13:16:38.868
109.0, 49499.50271838936, 55480.51661020716, 79806.94828116278, 3143.750505894483, -619.0539144341844, -4047.051554566807, 26523.317578234386, 19265.57204312945, 0.0, 0.0, 0.0, 196.0, 4.0, 128.0, 0.0, 15.0, 203.0, 23.0, 0.0, 0.0, 0.0, 1.6878033988729973E9, 0.0, 2023-06-26 13:16:38.872
110.0, 49371.0025395158, 55364.17578031729, 84157.5141736882, 2994.1055767662024, -749.4539915864458, -4187.01817834594, 26414.308120525853, 19141.095178257845, 0.0, 0.0, 0.0, 196.0, 0.0, 0.0, 0.0, 15.0, 203.0, 27.0, 0.0, 0.0, 0.0, 1.6878033988780248E9, 0.0, 2023-06-26 13:16:38.878
111.0, 49392.4602141929, 55365.963919873706, 84792.97426855259, 3004.7673588713837, -792.414044429546, -4177.518686952435, 26369.716390337515, 19119.324579158376, 0.0, 0.0, 0.0, 196.0, 0.0, 0.0, 0.0, 15.0, 203.0, 31.0, 0.0, 0.0, 0.0, 1.6878033988820431E9, 0.0, 2023-06-26 13:16:38.882
112.0, 49503.54838413577, 55459.77419135263, 80691.9432511262, 3138.3637354807543, -702.7611974193094, -4044.1458277876172, 26457.55874604687, 19236.939458482204, 0.0, 0.0, 0.0, 196.0, 0.0, 0.0, 0.0, 15.0, 203.0, 35.0, 0.0, 0.0, 0.0, 1.6878033988860705E9, 0.0, 2023-06-26 13:16:38.886
113.0, 49515.819491841736, 55488.33972076652, 79336.46641212302, 3164.4705730045525, -623.1442836695056, -4021.0788275097407, 26528.72670039257, 19287.610863162383, 0.0, 0.0, 0.0, 196.0, 0.0, 0.0, 0.0, 15.0, 203.0, 39.0, 0.0, 0.0, 0.0, 1.6878033988900893E9, 0.0, 2023-06-26 13:16:38.890
114.0, 49390.62737114756, 55378.63735897987, 83464.4536333625, 3013.3057252533113, -739.4851135593789, -4174.657663662156, 26432.636550979205, 19154.50622493103, 0.0, 0.0, 0.0, 196.0, 0.0, 0.0, 0.0, 15.0, 203.0, 43.0, 0.0, 0.0, 0.0, 1.6878033988932152E9, 0.0, 2023-06-26 13:16:38.893
115.0, 49367.91799878097, 55345.53442544156, 85141.30385414409, 2990.283428464345, -826.0981233236937, -4204.07255936534, 26360.21689894401, 19106.62878830776, 0.0, 0.0, 0.0, 196.0, 0.0, 0.0, 0.0, 15.0, 203.0, 47.0, 0.0, 0.0, 0.0, 1.687803398897174E9, 0.0, 2023-06-26 13:16:38.897
116.0, 49483.74473854837, 55440.73050507671, 81469.49338549297, 3124.907985318659, -727.5269302757896, -4084.7142439739996, 26437.777452203925, 19215.347673338376, 0.0, 0.0, 0.0, 196.0, 0.0, 0.0, 0.0, 15.0, 203.0, 51.0, 0.0, 0.0, 0.0, 1.687803398901241E9, 0.0, 2023-06-26 13:16:38.901
117.0, 49522.882643089615, 55489.85963938948, 79075.95683049642, 3168.426831773142, -623.0101732027738, -4033.0146590488744, 26525.083366046354, 19285.57685441695, 0.0, 0.0, 0.0, 196.0, 255.0, 240.0, 0.0, 15.0, 203.0, 55.0, 0.0, 0.0, 0.0, 1.6878033989051769E9, 0.0, 2023-06-26 13:16:38.905
118.0, 49413.962592358905, 55404.63243778139, 82689.07161820789, 3043.145304101146, -704.6610956980105, -4141.621785357212, 26459.391589092207, 19183.965824123123, 0.0, 0.0, 0.0, 196.0, 30.0, 176.0, 0.0, 15.0, 203.0, 59.0, 0.0, 0.0, 0.0, 1.6878033989091816E9, 0.0, 2023-06-26 13:16:38.909
119.0, 49352.87527476255, 55330.53640491205, 85341.86605714155, 2968.512829364876, -836.6034432176881, -4216.924812427141, 26365.447207146553, 19088.479171810053, 0.0, 0.0, 0.0, 196.0, 4.0, 128.0, 0.0, 15.0, 203.0, 63.0, 0.0, 0.0, 0.0, 1.6878033989142046E9, 0.0, 2023-06-26 13:16:38.914
120.0, 49447.95959567542, 55407.02407443811, 82303.77224728731, 3075.756499261439, -790.15651823956, -4124.165072937617, 26391.107009781244, 19153.56745166391, 0.0, 0.0, 0.0, 196.0, 0.0, 0.0, 0.0, 15.0, 203.0, 67.0, 0.0, 0.0, 0.0, 1.687803398918223E9, 0.0, 2023-06-26 13:16:38.918
121.0, 49523.37438146763, 55482.66237767487, 79055.99672269783, 3175.0205963874578, -620.7973505016984, -4014.574469873246, 26512.11935426228, 19284.928653827745, 0.0, 0.0, 0.0, 196.0, 0.0, 0.0, 0.0, 15.0, 203.0, 71.0, 0.0, 0.0, 0.0, 1.6878033989222484E9, 0.0, 2023-06-26 13:16:38.922
122.0, 49439.465932782405, 55423.51966184613, 81859.59838147144, 3066.860504968227, -661.7010428549103, -4129.730657306988, 26483.129141703743, 19212.46429830364, 0.0, 0.0, 0.0, 196.0, 0.0, 0.0, 0.0, 15.0, 203.0, 75.0, 0.0, 0.0, 0.0, 1.687803398925261E9, 0.0, 2023-06-26 13:16:38.925
123.0, 49366.46513539137, 55342.829864362466, 85249.44159381886, 2974.212524200979, -795.6550473755655, -4222.602155518789, 26390.905844081146, 19116.68707331265, 0.0, 0.0, 0.0, 196.0, 0.0, 0.0, 0.0, 15.0, 203.0, 79.0, 0.0, 0.0, 0.0, 1.6878033989292808E9, 0.0, 2023-06-26 13:16:38.929
124.0, 49444.4727235404, 55399.89386795687, 83062.07752967806, 3060.7361269874727, -790.9835327844063, -4144.885140047686, 26400.830018619305, 19155.467349942606, 0.0, 0.0, 0.0, 196.0, 0.0, 0.0, 0.0, 15.0, 203.0, 83.0, 0.0, 0.0, 0.0, 1.6878033989353151E9, 0.0, 2023-06-26 13:16:38.935
125.0, 49521.273317488834, 55477.610883427966, 79237.93992256402, 3171.8019451858936, -659.3764614315584, -4023.1128362551735, 26505.391479181228, 19263.448627406196, 0.0, 0.0, 0.0, 196.0, 0.0, 0.0, 0.0, 15.0, 203.0, 87.0, 0.0, 0.0, 0.0, 1.6878033989383254E9, 0.0, 2023-06-26 13:16:38.938
126.0, 49468.41144185203, 55450.22999647022, 81046.15134550945, 3105.305505431355, -667.9595313023963, -4112.542165820857, 26509.01246178299, 19237.878231749324, 0.0, 0.0, 0.0, 196.0, 0.0, 0.0, 0.0, 15.0, 203.0, 91.0, 0.0, 0.0, 0.0, 1.6878033989423423E9, 0.0, 2023-06-26 13:16:38.942
127.0, 49361.72656556685, 55343.99215507414, 85039.826934317, 2980.3592539261886, -794.1127770081494, -4194.573067971834, 26399.332451740796, 19119.2128204361, 0.0, 0.0, 0.0, 196.0, 255.0, 240.0, 0.0, 15.0, 203.0, 95.0, 0.0, 0.0, 0.0, 1.687803398947389E9, 0.0, 2023-06-26 13:16:38.947
128.0, 49416.64480169354, 55375.552818245036, 83832.69862326368, 3039.7478389439393, -791.9446577959845, -4139.028983000396, 26379.573509642305, 19137.36243693381, 0.0, 0.0, 0.0, 196.0, 30.0, 176.0, 0.0, 15.0, 203.0, 99.0, 0.0, 0.0, 0.0, 1.687803398951388E9, 0.0, 2023-06-26 13:16:38.951
129.0, 49519.61928839914, 55471.6429676584, 79640.6513024153, 3176.0934801213125, -667.065461524184, -4012.160481472073, 26490.43816214063, 19263.493330895108, 0.0, 0.0, 0.0, 196.0, 4.0, 144.0, 0.0, 15.0, 203.0, 103.0, 0.0, 0.0, 0.0, 1.6878033989544027E9, 0.0, 2023-06-26 13:16:38.954
130.0, 49487.142203705575, 55463.775153610135, 80308.09674359522, 3137.0226308134356, -647.9323682704411, -4054.4052784926034, 26520.47890668856, 19259.447665148695, 0.0, 0.0, 0.0, 196.0, 0.0, 0.0, 0.0, 15.0, 203.0, 107.0, 0.0, 0.0, 0.0, 1.6878033989574068E9, 0.0, 2023-06-26 13:16:38.957
131.0, 49377.97628378586, 55359.392507003846, 84611.99219369795, 3003.1580332706017, -761.2780644033032, -4184.8277073893205, 26428.99321663299, 19148.918288817204, 0.0, 0.0, 0.0, 196.0, 0.0, 0.0, 0.0, 15.0, 203.0, 111.0, 0.0, 0.0, 0.0, 1.6878033989614236E9, 0.0, 2023-06-26 13:16:38.961
132.0, 49397.06467355069, 55361.44886749374, 84447.66216846254, 3021.4417602350427, -820.8901668656072, -4171.260198504949, 26378.008887530435, 19129.047587996436, 0.0, 0.0, 0.0, 196.0, 0.0, 0.0, 0.0, 15.0, 203.0, 115.0, 0.0, 0.0, 0.0, 1.6878033989654713E9, 0.0, 2023-06-26 13:16:38.965
133.0, 49504.44245391399, 55455.32619420603, 80215.06878317223, 3155.2616542889664, -713.4229795244909, -4039.1166852851734, 26477.56355733437, 19249.076455721435, 0.0, 0.0, 0.0, 196.0, 0.0, 0.0, 0.0, 15.0, 203.0, 119.0, 0.0, 0.0, 0.0, 1.6878033989694772E9, 0.0, 2023-06-26 13:16:38.969
134.0, 49502.095520746174, 55470.905360091376, 79714.14383818435, 3164.0905933488125, -632.487312851824, -4039.7425341299218, 26534.091119061843, 19282.04527879301, 0.0, 0.0, 0.0, 196.0, 0.0, 0.0, 0.0, 15.0, 203.0, 123.0, 0.0, 0.0, 0.0, 1.68780339897451E9, 0.0, 2023-06-26 13:16:38.974
135.0, 49388.43690019094, 55371.03776586506, 84035.47364896223, 3026.8955858821378, -743.061392672228, -4176.155230540661, 26441.398434805684, 19167.13496054828, 0.0, 0.0, 0.0, 196.0, 0.0, 0.0, 0.0, 15.0, 203.0, 127.0, 0.0, 0.0, 0.0, 1.6878033989775174E9, 0.0, 2023-06-26 13:16:38.977
136.0, 49382.60309488811, 55346.33908824195, 84952.34220651892, 3010.467053707487, -826.1204750681491, -4191.868506892742, 26371.571585127305, 19119.2128204361, 0.0, 0.0, 0.0, 196.0, 0.0, 0.0, 0.0, 15.0, 203.0, 131.0, 0.0, 0.0, 0.0, 1.68780339898154E9, 0.0, 2023-06-26 13:16:38.981
137.0, 49498.45218639996, 55445.42437141232, 80922.92617832735, 3148.2208547855444, -723.1012848736387, -4075.2818078138603, 26455.010647178966, 19233.877269491826, 0.0, 0.0, 0.0, 196.0, 0.0, 16.0, 0.0, 15.0, 203.0, 135.0, 0.0, 0.0, 0.0, 1.6878033989855516E9, 0.0, 2023-06-26 13:16:38.985
138.0, 49519.79810235478, 55482.93059860833, 79286.93494641005, 3183.067224391368, -635.1918739309161, -4030.1759875030507, 26540.550773209427, 19292.036508564535, 0.0, 0.0, 0.0, 196.0, 30.0, 160.0, 0.0, 15.0, 203.0, 139.0, 0.0, 0.0, 0.0, 1.687803398989576E9, 0.0, 2023-06-26 13:16:38.989
139.0, 49404.2619352653, 55386.19224860576, 83312.57352978869, 3043.7040977125284, -734.0759914011945, -4146.96385228203, 26459.168071647655, 19178.132018820288, 0.0, 0.0, 0.0, 196.0, 4.0, 128.0, 0.0, 15.0, 203.0, 143.0, 0.0, 0.0, 0.0, 1.6878033989936068E9, 0.0, 2023-06-26 13:16:38.993
140.0, 49371.516629638274, 55338.13599802685, 85231.0684598766, 2997.3242279677665, -840.1797223305372, -4190.862678392253, 26374.61142237323, 19115.569486089884, 0.0, 0.0, 0.0, 196.0, 0.0, 0.0, 0.0, 15.0, 203.0, 147.0, 0.0, 0.0, 0.0, 1.6878033989976332E9, 0.0, 2023-06-26 13:16:38.997
141.0, 49473.5746948212, 55422.89381300138, 81692.02735329, 3114.9167555471367, -781.5734483687221, -4079.7745084493768, 26434.98348414701, 19210.31853083593, 0.0, 0.0, 0.0, 196.0, 0.0, 0.0, 0.0, 15.0, 203.0, 151.0, 0.0, 0.0, 0.0, 1.6878033990016692E9, 0.0, 2023-06-26 13:16:39.001
142.0, 49522.6367739006, 55482.640025930414, 79075.80036828523, 3181.3908435572203, -656.515438141279, -4027.5608334017797, 26532.548848694427, 19307.414508749785, 0.0, 0.0, 0.0, 196.0, 0.0, 0.0, 0.0, 15.0, 203.0, 155.0, 0.0, 0.0, 0.0, 1.6878033990066538E9, 0.0, 2023-06-26 13:16:39.006
143.0, 49425.47374075338, 55409.14749016136, 82504.44620900706, 3066.6146357792186, -701.7106654299099, -4149.579006383301, 26472.400304365197, 19205.93758892269, 0.0, 0.0, 0.0, 196.0, 0.0, 0.0, 0.0, 15.0, 203.0, 159.0, 0.0, 0.0, 0.0, 1.6878033990096755E9, 0.0, 2023-06-26 13:16:39.009
144.0, 49357.63619633153, 55330.581108400955, 85359.81450793917, 2986.4836319069427, -811.9494690834844, -4209.995771645996, 26378.41121893063, 19113.334311644354, 0.0, 0.0, 0.0, 196.0, 0.0, 0.0, 0.0, 15.0, 203.0, 163.0, 0.0, 0.0, 0.0, 1.6878033990147097E9, 0.0, 2023-06-26 13:16:39.014
145.0, 49456.542665546265, 55406.75585350464, 82532.72116574302, 3096.18599369359, -770.0399482297836, -4106.328380862282, 26425.238123564497, 19193.08533586089, 0.0, 0.0, 0.0, 196.0, 0.0, 0.0, 0.0, 15.0, 203.0, 167.0, 0.0, 0.0, 0.0, 1.6878033990187109E9, 0.0, 2023-06-26 13:16:39.018
146.0, 49522.81558785625, 55475.6439299159, 79134.25018003586, 3188.051663404902, -662.7962783332204, -4020.3412199427153, 26529.620770170783, 19294.38344173234, 0.0, 0.0, 0.0, 196.0, 0.0, 0.0, 0.0, 15.0, 203.0, 171.0, 0.0, 0.0, 0.0, 1.6878033990227437E9, 0.0, 2023-06-26 13:16:39.022
147.0, 49453.9722149339, 55433.35442940646, 81704.74549588507, 3099.270534428422, -681.6164471645889, -4112.028075698385, 26503.223359969066, 19228.646961289283, 0.0, 0.0, 0.0, 196.0, 0.0, 32.0, 0.0, 15.0, 203.0, 175.0, 0.0, 0.0, 0.0, 1.6878033990257404E9, 0.0, 2023-06-26 13:16:39.025
148.0, 49367.33685342513, 55344.48389345216, 85277.67184706591, 2990.6187046311743, -814.028181317828, -4216.2319083490265, 26404.071021565323, 19128.108814729312, 0.0, 0.0, 0.0, 196.0, 30.0, 160.0, 0.0, 15.0, 203.0, 179.0, 0.0, 0.0, 0.0, 1.6878033990297685E9, 0.0, 2023-06-26 13:16:39.029
149.0, 49446.59613926365, 55399.89386795687, 83301.10708488312, 3073.051938182347, -796.5938206426885, -4141.420619657114, 26415.64922519317, 19172.633489684285, 0.0, 0.0, 0.0, 196.0, 4.0, 160.0, 0.0, 15.0, 203.0, 183.0, 0.0, 0.0, 0.0, 1.6878033990327852E9, 0.0, 2023-06-26 13:16:39.032
150.0, 49532.20332052748, 55480.78483114062, 79357.76762458893, 3184.5647912698737, -665.2996737122147, -4012.898089039098, 26522.647025900726, 19290.29307249702, 0.0, 0.0, 0.0, 196.0, 0.0, 0.0, 0.0, 15.0, 203.0, 187.0, 0.0, 0.0, 0.0, 1.6878033990368063E9, 0.0, 2023-06-26 13:16:39.036
151.0, 49477.10627044515, 55450.609976125954, 80896.46171289227, 3116.6154881257403, -666.3278539571588, -4087.5529155198237, 26521.261217744497, 19250.23874643311, 0.0, 0.0, 0.0, 196.0, 0.0, 0.0, 0.0, 15.0, 203.0, 191.0, 0.0, 0.0, 0.0, 1.6878033990408256E9, 0.0, 2023-06-26 13:16:39.040
152.0, 49373.77415582826, 55349.20011153223, 84988.10499764742, 2995.312570966789, -788.8377653166968, -4199.758672685465, 26413.503457725463, 19133.83086130987, 0.0, 0.0, 0.0, 196.0, 0.0, 0.0, 0.0, 15.0, 203.0, 195.0, 0.0, 0.0, 0.0, 1.6878033990458372E9, 0.0, 2023-06-26 13:16:39.045
153.0, 49420.0646185952, 55372.334167043475, 84017.07816327551, 3043.502932012431, -820.9572220989731, -4148.282605204893, 26390.54821616986, 19145.476120171086, 0.0, 0.0, 0.0, 196.0, 0.0, 0.0, 0.0, 15.0, 203.0, 199.0, 0.0, 0.0, 0.0, 1.6878033990498865E9, 0.0, 2023-06-26 13:16:39.049
154.0, 49523.016753556345, 55466.85969434497, 79792.75492343366, 3175.91466616567, -699.4531392399239, -4019.93888854252, 26504.184484980644, 19280.123028769856, 0.0, 0.0, 0.0, 196.0, 0.0, 0.0, 0.0, 15.0, 203.0, 203.0, 0.0, 0.0, 0.0, 1.6878033990538964E9, 0.0, 2023-06-26 13:16:39.053
155.0, 49496.239363698885, 55462.791676854096, 80186.16797759151, 3140.151875037179, -660.7175660988768, -4066.3411100317376, 26534.3146365064, 19272.14345599931, 0.0, 0.0, 0.0, 196.0, 0.0, 0.0, 0.0, 15.0, 203.0, 207.0, 0.0, 0.0, 0.0, 1.6878033990569308E9, 0.0, 2023-06-26 13:16:39.056
156.0, 49382.58074314365, 55360.510094226614, 84516.63965185161, 3009.505928695909, -788.0778060052164, -4188.180469057616, 26442.516022028452, 19160.228271511587, 0.0, 0.0, 0.0, 196.0, 0.0, 0.0, 0.0, 15.0, 203.0, 211.0, 0.0, 0.0, 0.0, 1.6878033990609646E9, 0.0, 2023-06-26 13:16:39.060
157.0, 49402.92083059798, 55360.644204693344, 84606.76188549542, 3022.7158096689955, -834.3012135387914, -4176.401099729669, 26396.247911005965, 19140.066998012902, 0.0, 0.0, 0.0, 196.0, 0.0, 16.0, 0.0, 15.0, 203.0, 215.0, 0.0, 0.0, 0.0, 1.6878033990649807E9, 0.0, 2023-06-26 13:16:39.064
