%OpenBCI Raw EEG Data
%Number of channels = 8
%Sample Rate = 250 Hz
%Board = OpenBCI_GUI$BoardCytonSerial
Sample Index, EXG Channel 0, EXG Channel 1, EXG Channel 2, EXG Channel 3, EXG Channel 4, EXG Channel 5, EXG Channel 6, EXG Channel 7, Accel Channel 0, Accel Channel 1, Accel Channel 2, Other, Other, Other, Other, Other, Other, Other, Analog Channel 0, Analog Channel 1, Analog Channel 2, Timestamp, Other, Timestamp (Formatted)
109.0, 44211.996401786375, 47648.55476004539, 50589.93257164152, -7075.087079416166, -9014.011503936232, -12987.726984945177, 15579.501161515853, 10290.921961179014, 0.0, 0.0, 0.0, 192.0, 0.0, 0.0, 0.0, 0.0, 0.0, 0.0, 0.0, 0.0, 0.0, 1.687802660340561E9, 0.0, 2023-06-26 13:04:20.340
110.0, 44189.06351197523, 47617.30702129687, 51955.26652994949, -7082.083175430677, -9066.135772006008, -12996.645330982845, 15540.229146507878, 10271.721812691905, 0.0, 0.0, 0.0, 192.0, 0.0, 0.0, 0.0, 0.0, 0.0, 0.0, 0.0, 0.0, 0.0, 1.6878026603405943E9, 0.0, 2023-06-26 13:04:20.340
111.0, 44291.68037076955, 47709.9102985752, 48833.55484408794, -6938.4955690497845, -8966.53639871316, -12851.336640278894, 15642.041342501801, 10405.787575934837, 0.0, 0.0, 0.0, 192.0, 0.0, 0.0, 0.0, 0.0, 0.0, 0.0, 0.0, 0.0, 0.0, 1.6878026603406081E9, 0.0, 2023-06-26 13:04:20.340
112.0, 44304.46556859798, 47735.8159703989, 47698.57796413636, -6938.786141727704, -8924.693933092825, -12842.373590752315, 15685.090802322722, 10431.961468692001, -0.01, 0.984, 0.11, 192.0, 255.0, 176.0, 30.0, 192.0, 3.0, 112.0, 0.0, 0.0, 0.0, 1.6878026603406188E9, 0.0, 2023-06-26 13:04:20.340
113.0, 44223.99928855888, 47662.05521369639, 50046.04757381053, -7073.231884626375, -9013.251544624753, -12982.47432499818, 15588.151286620056, 10300.220286872422, -0.01, 0.984, 0.11, 192.0, 0.0, 0.0, 0.0, 0.0, 0.0, 0.0, 0.0, 0.0, 0.0, 1.6878026603406317E9, 0.0, 2023-06-26 13:04:20.340
114.0, 44183.207354927945, 47615.87650965172, 52091.58981938241, -7107.988847254378, -9076.305815733172, -13013.230325368682, 15537.658695895518, 10258.98131835238, -0.01, 0.984, 0.11, 192.0, 0.0, 0.0, 0.0, 0.0, 0.0, 0.0, 0.0, 0.0, 0.0, 1.6878026603406427E9, 0.0, 2023-06-26 13:04:20.340
124.0, 44306.11959768768, 47730.25038602953, 47755.150229352745, -6908.611286713039, -8925.09626449302, -12803.34744493335, 15707.531953755852, 10469.937082521568, -0.01, 0.984, 0.11, 192.0, 0.0, 0.0, 0.0, 0.0, 0.0, 0.0, 0.0, 0.0, 0.0, 1.687802660340654E9, 0.0, 2023-06-26 13:04:20.340
116.0, 44313.74154254694, 47742.92382513569, 47577.431509188595, -6932.259432346754, -8925.252726704208, -12827.755549878544, 15692.377471015154, 10441.103332174222, -0.01, 0.984, 0.11, 192.0, 0.0, 0.0, 0.0, 0.0, 0.0, 0.0, 0.0, 0.0, 0.0, 1.6878026603406644E9, 0.0, 2023-06-26 13:04:20.340
117.0, 44242.46182947896, 47680.94243776112, 49478.40267162355, -7053.092962872143, -8995.92894267189, -12955.316955484981, 15600.489449559385, 10319.241621403888, -0.01, 0.984, 0.11, 192.0, 0.0, 0.0, 0.0, 0.0, 0.0, 0.0, 0.0, 0.0, 0.0, 1.6878026603406746E9, 0.0, 2023-06-26 13:04:20.340
118.0, 44172.88084898959, 47613.08254159481, 52013.33636204438, -7122.875109061612, -9073.265978487252, -13017.253639370638, 15537.569288917697, 10258.958966607925, -0.01, 0.984, 0.11, 192.0, 0.0, 0.0, 0.0, 0.0, 0.0, 0.0, 0.0, 0.0, 0.0, 1.687802660340685E9, 0.0, 2023-06-26 13:04:20.340
122.0, 44177.753529280846, 47620.1903963316, 51800.368940874214, -7107.675922832003, -9061.374850437029, -13004.535496775568, 15550.13096930158, 10276.683899960983, -0.01, 0.988, 0.112, 192.0, 255.0, 176.0, 30.0, 224.0, 3.0, 128.0, 0.0, 0.0, 0.0, 1.6878026603406956E9, 0.0, 2023-06-26 13:04:20.340
130.0, 44200.41819815853, 47639.323489585346, 50956.52353245301, -7088.11814643361, -9025.813225008635, -12986.296473300037, 15580.529341760797, 10294.185315869488, -0.01, 0.988, 0.112, 192.0, 0.0, 0.0, 0.0, 0.0, 0.0, 0.0, 0.0, 0.0, 0.0, 1.6878026603407066E9, 0.0, 2023-06-26 13:04:20.340
125.0, 44263.33835880022, 47699.58379263685, 48530.442837529525, -6997.90650581199, -8957.841570120045, -12895.101355922385, 15651.853758317682, 10386.29685476981, -0.01, 0.988, 0.112, 192.0, 0.0, 0.0, 0.0, 0.0, 0.0, 0.0, 0.0, 0.0, 0.0, 1.6878026603407598E9, 0.0, 2023-06-26 13:04:20.340
126.0, 44177.35119788065, 47617.46348350805, 51432.45922713986, -7108.592344354671, -9057.038612012699, -13007.463575299213, 15548.856919867627, 10277.622673228107, -0.01, 0.988, 0.112, 192.0, 0.0, 0.0, 0.0, 0.0, 0.0, 0.0, 0.0, 0.0, 0.0, 1.6878026603407757E9, 0.0, 2023-06-26 13:04:20.340
127.0, 44208.017791273334, 47630.31573656985, 51294.236039428244, -7056.289262329253, -9054.669327100435, -12954.71345838469, 15567.051239854247, 10315.866507991137, -0.01, 0.988, 0.112, 192.0, 0.0, 0.0, 0.0, 0.0, 0.0, 0.0, 0.0, 0.0, 0.0, 1.6878026603407917E9, 0.0, 2023-06-26 13:04:20.340
128.0, 44300.88928948514, 47720.6614876582, 48040.53730255811, -6921.910574663946, -8935.713343109292, -12815.372683450305, 15688.443563991019, 10453.64266081365, -0.01, 0.988, 0.112, 192.0, 0.0, 0.0, 0.0, 0.0, 0.0, 0.0, 0.0, 0.0, 0.0, 1.6878026603408093E9, 0.0, 2023-06-26 13:04:20.340
131.0, 44195.52316612282, 47624.01254463346, 51724.9094515931, -7076.584646294671, -9060.07844925862, -12975.031194094563, 15557.797617649749, 10294.408833314043, -0.01, 0.988, 0.112, 192.0, 0.0, 0.0, 0.0, 0.0, 0.0, 0.0, 0.0, 0.0, 0.0, 1.6878026603409832E9, 0.0, 2023-06-26 13:04:20.340
132.0, 44292.395626592115, 47712.27958348746, 48457.82201979423, -6935.299269592675, -8950.241977005242, -12827.710846389635, 15679.1005348087, 10440.745704262938, -0.008, 0.988, 0.11, 192.0, 255.0, 192.0, 30.0, 224.0, 3.0, 112.0, 0.0, 0.0, 0.0, 1.687802660340995E9, 0.0, 2023-06-26 13:04:20.340
145.0, 44308.15360643311, 47736.64298494375, 47603.47129147903, -6908.454824501851, -8912.355770153496, -12804.889715300766, 15713.63397999215, 10465.131457463678, -0.008, 0.988, 0.11, 192.0, 0.0, 0.0, 0.0, 0.0, 0.0, 0.0, 0.0, 0.0, 0.0, 1.6878026603410068E9, 0.0, 2023-06-26 13:04:20.341
134.0, 44211.8846430641, 47652.48866706952, 50397.32758967014, -7072.2707596147975, -9011.463405068327, -12974.338290016449, 15592.331062833198, 10308.222211387421, -0.008, 0.988, 0.11, 192.0, 0.0, 0.0, 0.0, 0.0, 0.0, 0.0, 0.0, 0.0, 0.0, 1.6878026603410175E9, 0.0, 2023-06-26 13:04:20.341
135.0, 44185.733102051396, 47619.40808527567, 51989.44234722166, -7087.291131888764, -9060.726649847824, -12989.470421012691, 15556.121236815601, 10285.89281867657, -0.008, 0.988, 0.11, 192.0, 0.0, 0.0, 0.0, 0.0, 0.0, 0.0, 0.0, 0.0, 0.0, 1.687802660341028E9, 0.0, 2023-06-26 13:04:20.341
136.0, 44286.15948988909, 47708.43508344115, 48982.484517393656, -6939.210824872354, -8956.746334641735, -12843.245308786072, 15663.47666543444, 10419.332733074752, -0.008, 0.988, 0.11, 192.0, 0.0, 0.0, 0.0, 0.0, 0.0, 0.0, 0.0, 0.0, 0.0, 1.6878026603410387E9, 0.0, 2023-06-26 13:04:20.341
137.0, 44310.925222745565, 47746.09777284834, 47613.61898346174, -6920.904746163457, -8903.482127604739, -12818.837203840876, 15711.689378224539, 10455.140227692154, -0.008, 0.988, 0.11, 192.0, 0.0, 0.0, 0.0, 0.0, 0.0, 0.0, 0.0, 0.0, 0.0, 1.6878026603410523E9, 0.0, 2023-06-26 13:04:20.341
138.0, 44225.02746880382, 47665.83265850934, 49837.43874280915, -7052.891797172046, -8987.390576289961, -12958.51325494209, 15615.912153233547, 10321.99088597189, -0.008, 0.988, 0.11, 192.0, 0.0, 0.0, 0.0, 0.0, 0.0, 0.0, 0.0, 0.0, 0.0, 1.6878026603410635E9, 0.0, 2023-06-26 13:04:20.341
143.0, 44173.88667749008, 47614.51305323995, 51958.172256728685, -7105.105472219643, -9055.250472456273, -13007.038892154562, 15553.953117603436, 10272.705289447938, -0.012, 0.986, 0.106, 192.0, 255.0, 160.0, 30.0, 208.0, 3.0, 80.0, 0.0, 0.0, 0.0, 1.6878026603410738E9, 0.0, 2023-06-26 13:04:20.341
140.0, 44258.10805059768, 47677.79084179293, 49598.096263181724, -6977.633473591027, -8993.939637415366, -12880.662129004257, 15626.730397549916, 10381.24536052291, -0.012, 0.986, 0.106, 192.0, 0.0, 0.0, 0.0, 0.0, 0.0, 0.0, 0.0, 0.0, 0.0, 1.687802660341086E9, 0.0, 2023-06-26 13:04:20.341
141.0, 44306.72309478797, 47737.20177855513, 47550.34119490877, -6915.965010638834, -8904.018569471666, -12812.444604926659, 15713.432814292053, 10461.532826606373, -0.012, 0.986, 0.106, 192.0, 0.0, 0.0, 0.0, 0.0, 0.0, 0.0, 0.0, 0.0, 0.0, 1.6878026603410974E9, 0.0, 2023-06-26 13:04:20.341
146.0, 44254.308254040276, 47695.82869956836, 48820.210852648124, -7011.2281455073535, -8958.780343387169, -12915.46379512117, 15643.918889036047, 10361.397011446597, -0.012, 0.986, 0.106, 192.0, 0.0, 0.0, 0.0, 0.0, 0.0, 0.0, 0.0, 0.0, 0.0, 1.6878026603411129E9, 0.0, 2023-06-26 13:04:20.341
0.0, 0.0, 0.0, 0.0, 0.0, 0.0, 0.0, 0.0, 0.0, -0.004, 0.966, 0.188, 192.0, 255.0, 224.0, 30.0, 48.0, 5.0, 224.0, 0.0, 0.0, 0.0, 1.6878026604310265E9, 0.0, 2023-06-26 13:04:20.431
1.0, 44993.7710158552, 47888.545440262016, 51269.559713549585, -5782.4856975657585, -7845.663469512877, -11793.76385137604, 17035.22557440109, 11522.860708577718, -0.004, 0.966, 0.188, 192.0, 0.0, 0.0, 0.0, 0.0, 0.0, 0.0, 0.0, 0.0, 0.0, 1.6878026604471228E9, 0.0, 2023-06-26 13:04:20.447
2.0, 44968.7147103208, 47886.444376283216, 52401.13912834396, -5865.857704384053, -7896.468984659789, -11890.055166489503, 16974.898216116217, 11425.295344030303, -0.004, 0.966, 0.188, 192.0, 0.0, 0.0, 0.0, 0.0, 0.0, 0.0, 0.0, 0.0, 0.0, 1.68780266045114E9, 0.0, 2023-06-26 13:04:20.451
3.0, 44931.70022150281, 47856.35892824637, 54482.75708946671, -5923.994591712308, -7942.625336959999, -11949.98019337418, 16918.325950899834, 11358.10600019765, -0.004, 0.966, 0.188, 192.0, 0.0, 0.0, 0.0, 0.0, 0.0, 0.0, 0.0, 0.0, 0.0, 1.6878026604542463E9, 0.0, 2023-06-26 13:04:20.454
4.0, 44930.20265462431, 47832.57667214593, 54466.17209508087, -5896.144318120995, -7947.945052140361, -11904.673207363274, 16933.189860962615, 11399.747300117886, -0.004, 0.966, 0.188, 192.0, 0.0, 0.0, 0.0, 0.0, 0.0, 0.0, 0.0, 0.0, 0.0, 1.6878026604572172E9, 0.0, 2023-06-26 13:04:20.457
5.0, 44984.24917271724, 47879.89531515781, 51394.23774412129, -5788.833592991065, -7848.07745791405, -11781.626854136808, 17040.99232447056, 11533.254269749435, -0.004, 0.966, 0.188, 192.0, 0.0, 0.0, 0.0, 0.0, 0.0, 0.0, 0.0, 0.0, 0.0, 1.687802660461226E9, 0.0, 2023-06-26 13:04:20.461
6.0, 44955.43777411435, 47872.116908087366, 52098.11652876336, -5866.036518339696, -7895.396100925935, -11865.356488866388, 16986.007033110505, 11457.772428723863, -0.004, 0.966, 0.188, 192.0, 0.0, 0.0, 0.0, 0.0, 0.0, 0.0, 0.0, 0.0, 0.0, 1.6878026604652188E9, 0.0, 2023-06-26 13:04:20.465
7.0, 44929.84502671302, 47856.314224757465, 54108.70064600714, -5928.5990510701, -7943.340592782569, -11942.51471072611, 16925.947895759095, 11371.874674782119, -0.004, 0.966, 0.188, 192.0, 0.0, 0.0, 0.0, 0.0, 0.0, 0.0, 0.0, 0.0, 0.0, 1.6878026604692328E9, 0.0, 2023-06-26 13:04:20.469
8.0, 44909.08025611404, 47819.90323303977, 54898.968922968976, -5925.872138246553, -7969.469782050823, -11933.909289110816, 16915.666093309654, 11377.596721362677, -0.006, 0.968, 0.228, 192.0, 255.0, 208.0, 30.0, 64.0, 7.0, 32.0, 0.0, 0.0, 0.0, 1.6878026604742584E9, 0.0, 2023-06-26 13:04:20.474
9.0, 44973.118003978496, 47864.40555625028, 51741.5615012123, -5810.224212434794, -7877.5594088505995, -11808.448947483177, 17014.483155546564, 11505.42634790258, -0.006, 0.968, 0.228, 192.0, 0.0, 0.0, 0.0, 0.0, 0.0, 0.0, 0.0, 0.0, 0.0, 1.687802660477254E9, 0.0, 2023-06-26 13:04:20.477
10.0, 44962.344463151036, 47867.199524307194, 51812.03655147988, -5851.127904788006, -7888.400004911424, -11857.73454400713, 17006.972969409584, 11473.12807716466, -0.006, 0.968, 0.228, 192.0, 0.0, 0.0, 0.0, 0.0, 0.0, 0.0, 0.0, 0.0, 0.0, 1.687802660481281E9, 0.0, 2023-06-26 13:04:20.481
11.0, 44951.4591636013, 47863.1985620497, 53694.18754508347, -5915.165652652461, -7941.3065840371355, -11954.852873665437, 16931.40172140619, 11368.119581713627, -0.006, 0.968, 0.228, 192.0, 0.0, 0.0, 0.0, 0.0, 0.0, 0.0, 0.0, 0.0, 0.0, 1.687802660485293E9, 0.0, 2023-06-26 13:04:20.485
12.0, 44925.66525049988, 47830.40855293376, 55123.04516113343, -5922.474673089347, -7974.074241408616, -11958.518559756109, 16909.720529284543, 11363.269253166825, -0.006, 0.968, 0.228, 192.0, 0.0, 0.0, 0.0, 0.0, 0.0, 0.0, 0.0, 0.0, 0.0, 1.6878026604892993E9, 0.0, 2023-06-26 13:04:20.489
13.0, 45000.320076980606, 47880.02942562455, 52196.64301832236, -5796.790814017155, -7891.953932279817, -11829.034904126514, 16996.445297771133, 11485.354481381713, -0.006, 0.968, 0.228, 192.0, 0.0, 0.0, 0.0, 0.0, 0.0, 0.0, 0.0, 0.0, 0.0, 1.6878026604933395E9, 0.0, 2023-06-26 13:04:20.493
14.0, 44996.05089378964, 47892.76991996407, 51526.694181763436, -5805.664456565912, -7876.173600694371, -11836.545090263497, 17016.47246080309, 11491.65767331811, -0.006, 0.968, 0.228, 192.0, 0.0, 0.0, 0.0, 0.0, 0.0, 0.0, 0.0, 0.0, 0.0, 1.68780266049738E9, 0.0, 2023-06-26 13:04:20.497
15.0, 44991.558193154124, 47901.889431701835, 53278.69096740377, -5871.512695731247, -7923.939278595362, -11931.875280365382, 16939.113073243272, 11382.983491776407, -0.006, 0.968, 0.228, 192.0, 0.0, 0.0, 0.0, 0.0, 0.0, 0.0, 0.0, 0.0, 0.0, 1.687802660502376E9, 0.0, 2023-06-26 13:04:20.502
16.0, 44952.912026990896, 47860.73987015961, 55143.9663939436, -5904.056835658173, -7972.800191974663, -11963.055963880535, 16894.655453521664, 11354.194444917972, -0.006, 0.968, 0.228, 192.0, 0.0, 0.0, 0.0, 0.0, 0.0, 0.0, 0.0, 0.0, 0.0, 1.687802660505384E9, 0.0, 2023-06-26 13:04:20.505
17.0, 45013.46290272033, 47891.58527750794, 52783.085737596244, -5810.268915923705, -7923.04520881715, -11861.936671964726, 16952.3006024719, 11451.715105976476, -0.006, 0.968, 0.228, 192.0, 0.0, 0.0, 0.0, 0.0, 0.0, 0.0, 0.0, 0.0, 0.0, 1.6878026605093951E9, 0.0, 2023-06-26 13:04:20.509
18.0, 45023.25296679175, 47914.29464987453, 51330.870548590494, -5773.880275950465, -7865.668280800377, -11823.603430223875, 17019.825222471383, 11506.208658958514, -0.002, 0.964, 0.23800000000000002, 192.0, 255.0, 240.0, 30.0, 32.0, 7.0, 112.0, 0.0, 0.0, 0.0, 1.6878026605134206E9, 0.0, 2023-06-26 13:04:20.513
19.0, 44997.32494322359, 47907.29855386002, 52970.25924566499, -5863.086088071595, -7932.477644977289, -11941.17360605879, 16929.077139982837, 11380.97183477543, -0.002, 0.964, 0.23800000000000002, 192.0, 0.0, 0.0, 0.0, 0.0, 0.0, 0.0, 0.0, 0.0, 0.0, 1.687802660517449E9, 0.0, 2023-06-26 13:04:20.517
20.0, 44951.59327406804, 47862.57271320495, 55062.31547144836, -5909.98004793883, -7978.835162977596, -11985.877094969404, 16882.33964232679, 11338.280002865793, -0.002, 0.964, 0.23800000000000002, 192.0, 0.0, 0.0, 0.0, 0.0, 0.0, 0.0, 0.0, 0.0, 0.0, 1.6878026605214624E9, 0.0, 2023-06-26 13:04:20.521
21.0, 44992.966353054806, 47879.80590817999, 53467.13852490646, -5833.58178539059, -7943.966441627317, -11897.297131693022, 16932.474605140043, 11415.549983447789, -0.002, 0.964, 0.23800000000000002, 192.0, 0.0, 0.0, 0.0, 0.0, 0.0, 0.0, 0.0, 0.0, 0.0, 1.6878026605254827E9, 0.0, 2023-06-26 13:04:20.525
22.0, 45014.781655643186, 47911.29951611752, 51275.03589094114, -5773.924979439375, -7868.976338979762, -11820.585944722408, 17015.243114858047, 11504.487574635456, -0.002, 0.964, 0.23800000000000002, 192.0, 0.0, 0.0, 0.0, 0.0, 0.0, 0.0, 0.0, 0.0, 0.0, 1.687802660529502E9, 0.0, 2023-06-26 13:04:20.529
23.0, 44992.02757978768, 47904.258716614095, 52670.90233217506, -5863.644881682978, -7920.18418552687, -11930.60123093143, 16949.68544837063, 11393.444108181491, -0.002, 0.964, 0.23800000000000002, 192.0, 0.0, 0.0, 0.0, 0.0, 0.0, 0.0, 0.0, 0.0, 0.0, 1.6878026605325172E9, 0.0, 2023-06-26 13:04:20.532
24.0, 44956.13067819246, 47870.73109993114, 54802.141165988585, -5912.863422973564, -7957.0422121336715, -11980.333862344487, 16909.787584517908, 11344.918470969018, -0.002, 0.964, 0.23800000000000002, 192.0, 0.0, 0.0, 0.0, 0.0, 0.0, 0.0, 0.0, 0.0, 0.0, 1.6878026605365412E9, 0.0, 2023-06-26 13:04:20.536
25.0, 44972.67096908939, 47860.2481317816, 54081.29740730493, -5865.075393328118, -7947.922700395907, -11913.83742258995, 16933.703951085085, 11405.73756763191, -0.002, 0.964, 0.23800000000000002, 192.0, 0.0, 0.0, 0.0, 0.0, 0.0, 0.0, 0.0, 0.0, 0.0, 1.6878026605415711E9, 0.0, 2023-06-26 13:04:20.541
26.0, 45009.260774762726, 47894.51335603158, 51303.26614418819, -5773.0979648945295, -7851.184350393338, -11795.440232210189, 17041.41700761521, 11530.840281348263, -0.002, 0.964, 0.23800000000000002, 192.0, 0.0, 0.0, 0.0, 0.0, 0.0, 0.0, 0.0, 0.0, 0.0, 1.6878026605455933E9, 0.0, 2023-06-26 13:04:20.545
27.0, 44981.11992849349, 47889.12658561785, 52354.31222371009, -5851.329070488104, -7895.2843422036585, -11884.154305953301, 16987.906931389207, 11442.372076794158, -0.002, 0.964, 0.23800000000000002, 192.0, 0.0, 0.0, 0.0, 0.0, 0.0, 0.0, 0.0, 0.0, 0.0, 1.6878026605495925E9, 0.0, 2023-06-26 13:04:20.549
28.0, 44946.206503654306, 47860.47164922615, 54420.038094525116, -5912.617553784556, -7937.484435735279, -11948.79555091805, 16933.59219236281, 11376.993224262384, -0.002, 0.964, 0.23800000000000002, 192.0, 0.0, 0.0, 29.0, 224.0, 7.0, 192.0, 0.0, 0.0, 0.0, 1.6878026605536325E9, 0.0, 2023-06-26 13:04:20.553
29.0, 44937.869302972475, 47831.1908639897, 54594.00172162077, -5900.569963523146, -7955.008203388239, -11922.420492460788, 16934.68742784112, 11401.222515251937, -0.002, 0.964, 0.23800000000000002, 192.0, 0.0, 0.0, 0.0, 0.0, 0.0, 0.0, 0.0, 0.0, 0.0, 1.6878026605566523E9, 0.0, 2023-06-26 13:04:20.556
30.0, 44995.17917575588, 47875.737890689124, 51483.1529835645, -5793.1698314153955, -7861.689670287332, -11798.413014222744, 17036.343161623856, 11532.85193834924, -0.002, 0.964, 0.23800000000000002, 192.0, 0.0, 0.0, 0.0, 0.0, 0.0, 0.0, 0.0, 0.0, 0.0, 1.6878026605606968E9, 0.0, 2023-06-26 13:04:20.560
31.0, 44971.70984407781, 47870.37347201985, 52049.479132828616, -5855.553550190157, -7893.272685202681, -11863.948328965704, 16999.932169906162, 11463.919158449073, -0.002, 0.964, 0.23800000000000002, 192.0, 0.0, 0.0, 0.0, 0.0, 0.0, 0.0, 0.0, 0.0, 0.0, 1.6878026605646768E9, 0.0, 2023-06-26 13:04:20.564
32.0, 44956.73417529275, 47864.8972946283, 54018.176080963145, -5913.69043751841, -7936.836235146075, -11941.955917114725, 16945.997410535503, 11382.089421998195, -0.002, 0.964, 0.23800000000000002, 192.0, 0.0, 0.0, 0.0, 0.0, 0.0, 0.0, 0.0, 0.0, 0.0, 1.687802660568704E9, 0.0, 2023-06-26 13:04:20.568
33.0, 44929.50975054619, 47825.669983109234, 54962.35847024423, -5923.346391123104, -7974.074241408616, -11939.161949057812, 16926.23846843701, 11384.034023765806, -0.002, 0.964, 0.23800000000000002, 192.0, 0.0, 0.0, 0.0, 0.0, 0.0, 0.0, 0.0, 0.0, 0.0, 1.6878026605737183E9, 0.0, 2023-06-26 13:04:20.573
34.0, 44990.55236465363, 47866.57367546245, 51825.1793772196, -5809.598363590046, -7885.829554299064, -11813.835717896905, 17025.659027774218, 11510.388435171657, -0.002, 0.964, 0.23800000000000002, 192.0, 0.0, 0.0, 0.0, 0.0, 0.0, 0.0, 0.0, 0.0, 0.0, 1.687802660577733E9, 0.0, 2023-06-26 13:04:20.577
35.0, 44965.29489341914, 47860.76222190407, 51762.39332704465, -5855.7323641458, -7899.8664498169965, -11862.987203954126, 17013.499678790533, 11468.41185908459, -0.002, 0.964, 0.23800000000000002, 192.0, 0.0, 0.0, 0.0, 0.0, 0.0, 0.0, 0.0, 0.0, 0.0, 1.687802660581801E9, 0.0, 2023-06-26 13:04:20.581
36.0, 44951.436811856845, 47861.969216104655, 53620.672657569965, -5924.642792301512, -7959.2103313458365, -11959.390277789866, 16922.52807885743, 11358.575386831211, -0.002, 0.964, 0.23800000000000002, 192.0, 0.0, 0.0, 0.0, 0.0, 0.0, 0.0, 0.0, 0.0, 0.0, 1.6878026605848076E9, 0.0, 2023-06-26 13:04:20.584
37.0, 44924.94999467731, 47827.502826154574, 55156.930405727675, -5941.048972731706, -7998.482346353811, -11963.860626680926, 16897.270607622937, 11359.625918820611, -0.002, 0.964, 0.23800000000000002, 192.0, 0.0, 0.0, 0.0, 0.0, 0.0, 0.0, 0.0, 0.0, 0.0, 1.6878026605888076E9, 0.0, 2023-06-26 13:04:20.588
38.0, 44994.79919610014, 47871.17813482024, 52332.809845544085, -5817.644991593957, -7919.401874470935, -11845.06110490097, 16987.906931389207, 11472.234007386447, -0.002, 0.964, 0.23800000000000002, 192.0, 0.0, 0.0, 0.0, 0.0, 0.0, 0.0, 0.0, 0.0, 0.0, 1.6878026605928323E9, 0.0, 2023-06-26 13:04:20.592
39.0, 44987.445472174346, 47879.42592852425, 51511.785568211744, -5822.092988740563, -7899.911153305907, -11854.784113739028, 17004.514277519498, 11470.64703353012, -0.002, 0.964, 0.23800000000000002, 192.0, 0.0, 0.0, 29.0, 192.0, 8.0, 0.0, 0.0, 0.0, 0.0, 1.6878026605968223E9, 0.0, 2023-06-26 13:04:20.596
40.0, 44983.04217851665, 47886.48907977213, 53248.65022285584, -5899.608838511567, -7962.071354636116, -11958.183283589278, 16915.48727935401, 11356.451971107957, -0.002, 0.964, 0.23800000000000002, 192.0, 0.0, 0.0, 0.0, 0.0, 0.0, 0.0, 0.0, 0.0, 0.0, 1.6878026606010423E9, 0.0, 2023-06-26 13:04:20.601
41.0, 44955.147201436426, 47857.83414338042, 55149.64373703525, -5922.385266111525, -7999.644637065487, -11977.517542543119, 16887.592302273788, 11347.824197748208, -0.002, 0.964, 0.23800000000000002, 192.0, 0.0, 0.0, 0.0, 0.0, 0.0, 0.0, 0.0, 0.0, 0.0, 1.6878026606068828E9, 0.0, 2023-06-26 13:04:20.606
42.0, 45007.2714695062, 47883.44924252621, 52916.078617105326, -5823.545852130157, -7947.4086102734345, -11878.722832050662, 16945.77389309095, 11429.385713265625, -0.002, 0.964, 0.23800000000000002, 192.0, 0.0, 0.0, 0.0, 0.0, 0.0, 0.0, 0.0, 0.0, 0.0, 1.6878026606098864E9, 0.0, 2023-06-26 13:04:20.609
43.0, 45010.84774861905, 47897.419082810775, 51320.56639439659, -5791.7169680258, -7898.570048638589, -11841.373067065844, 17003.73196646356, 11481.733498779953, -0.002, 0.964, 0.23800000000000002, 192.0, 0.0, 0.0, 0.0, 0.0, 0.0, 0.0, 0.0, 0.0, 0.0, 1.6878026606139169E9, 0.0, 2023-06-26 13:04:20.613
44.0, 44998.263716490714, 47901.97883867966, 52881.65693064415, -5870.372756764025, -7952.86243592053, -11942.738228170661, 16925.88084052573, 11374.266311438836, -0.002, 0.964, 0.23800000000000002, 192.0, 0.0, 0.0, 0.0, 0.0, 0.0, 0.0, 0.0, 0.0, 0.0, 1.6878026606169453E9, 0.0, 2023-06-26 13:04:20.616
45.0, 44965.25018993023, 47871.02167260906, 54959.74331614296, -5907.946039193397, -7994.570791074132, -11982.233760623189, 16879.299805080867, 11327.037075404773, -0.002, 0.964, 0.23800000000000002, 192.0, 0.0, 0.0, 0.0, 0.0, 0.0, 0.0, 0.0, 0.0, 0.0, 1.6878026606209407E9, 0.0, 2023-06-26 13:04:20.620
46.0, 45002.532899681675, 47882.53282100354, 53544.140284555, -5835.4369801803805, -7965.200598859859, -11903.64502711833, 16920.44936662309, 11388.6384831236, -0.002, 0.964, 0.23800000000000002, 192.0, 0.0, 0.0, 0.0, 0.0, 0.0, 0.0, 0.0, 0.0, 0.0, 1.687802660625112E9, 0.0, 2023-06-26 13:04:20.625
47.0, 45027.43274300489, 47912.99824869612, 51242.26823356965, -5771.779211971666, -7885.22605719877, -11828.789034937507, 17007.375300809777, 11485.46624010399, -0.002, 0.964, 0.23800000000000002, 192.0, 0.0, 0.0, 0.0, 0.0, 0.0, 0.0, 0.0, 0.0, 0.0, 1.6878026606289988E9, 0.0, 2023-06-26 13:04:20.628
48.0, 45005.08099854959, 47911.03129518405, 52579.796621775226, -5852.2231402663165, -7934.422246744901, -11926.466158207199, 16942.599945378297, 11385.889218555596, -0.002, 0.964, 0.23800000000000002, 192.0, 0.0, 0.0, 0.0, 0.0, 0.0, 0.0, 0.0, 0.0, 0.0, 1.687802660633996E9, 0.0, 2023-06-26 13:04:20.633
49.0, 44970.32403592158, 47883.493946015114, 54643.89081524502, -5900.279390845227, -7969.983872173295, -11969.359155816932, 16903.462040837054, 11342.862110479131, -0.002, 0.9580000000000001, 0.256, 192.0, 255.0, 240.0, 29.0, 240.0, 8.0, 0.0, 0.0, 0.0, 0.0, 1.687802660638068E9, 0.0, 2023-06-26 13:04:20.638
50.0, 44981.54461163814, 47874.57559997745, 54027.42970316765, -5858.9733670918195, -7964.284177337191, -11912.83159408946, 16917.945971244095, 11394.49464017089, -0.002, 0.9580000000000001, 0.256, 192.0, 0.0, 0.0, 0.0, 0.0, 0.0, 0.0, 0.0, 0.0, 0.0, 1.6878026606410415E9, 0.0, 2023-06-26 13:04:20.641
51.0, 45014.66989692091, 47905.68922825924, 51253.64527149741, -5773.47794455027, -7871.479734358756, -11803.710377658652, 17021.166327138704, 11515.954019541028, -0.002, 0.9580000000000001, 0.256, 192.0, 0.0, 0.0, 0.0, 0.0, 0.0, 0.0, 0.0, 0.0, 0.0, 1.6878026606450799E9, 0.0, 2023-06-26 13:04:20.645
52.0, 44975.353178424026, 47885.729120460644, 52400.334465543565, -5867.332919518104, -7921.882918105473, -11907.601285886918, 16970.07023931387, 11413.270105513348, -0.002, 0.9580000000000001, 0.256, 192.0, 0.0, 0.0, 0.0, 0.0, 0.0, 0.0, 0.0, 0.0, 0.0, 1.687802660650094E9, 0.0, 2023-06-26 13:04:20.650
53.0, 44958.499963104725, 47876.0508151115, 54293.057834274514, -5915.635039286022, -7953.711802209831, -11959.725553956694, 16920.53877360091, 11358.217758919925, -0.002, 0.9580000000000001, 0.256, 192.0, 0.0, 0.0, 0.0, 0.0, 0.0, 0.0, 0.0, 0.0, 0.0, 1.6878026606530874E9, 0.0, 2023-06-26 13:04:20.653
54.0, 44948.32991937756, 47845.42892520773, 54576.90263711246, -5902.4698618018465, -7969.358023328546, -11925.750902384629, 16920.941105001104, 11388.280855212315, -0.002, 0.9580000000000001, 0.256, 192.0, 0.0, 0.0, 0.0, 0.0, 0.0, 0.0, 0.0, 0.0, 0.0, 1.6878026606571207E9, 0.0, 2023-06-26 13:04:20.657
55.0, 44987.870155319, 47874.1509168328, 51527.20827188591, -5800.657665807923, -7870.1609814358935, -11804.71620615914, 17032.163385410713, 11519.507946909422, -0.002, 0.9580000000000001, 0.256, 192.0, 0.0, 0.0, 0.0, 0.0, 0.0, 0.0, 0.0, 0.0, 0.0, 1.6878026606612227E9, 0.0, 2023-06-26 13:04:20.661
56.0, 44955.013090969696, 47869.56880921946, 52186.09299493945, -5865.745945661777, -7898.882973060963, -11871.927901736248, 17003.039062385447, 11456.520731034367, -0.002, 0.9580000000000001, 0.256, 192.0, 0.0, 0.0, 0.0, 0.0, 0.0, 0.0, 0.0, 0.0, 0.0, 1.687802660665223E9, 0.0, 2023-06-26 13:04:20.665
57.0, 44946.675890287865, 47872.385129020826, 53950.04796386337, -5924.620440557056, -7947.922700395907, -11950.024896863091, 16931.289962683913, 11368.67837532501, -0.002, 0.9580000000000001, 0.256, 192.0, 0.0, 0.0, 0.0, 0.0, 0.0, 0.0, 0.0, 0.0, 0.0, 1.6878026606692052E9, 0.0, 2023-06-26 13:04:20.669
58.0, 44929.66621275738, 47841.137390272306, 54920.04661799033, -5929.671934803955, -7975.3482908425685, -11939.65368743583, 16920.829346278828, 11376.546189373279, -0.002, 0.9580000000000001, 0.256, 192.0, 0.0, 0.0, 0.0, 0.0, 0.0, 0.0, 0.0, 0.0, 0.0, 1.6878026606732252E9, 0.0, 2023-06-26 13:04:20.673
59.0, 44989.90416406443, 47877.9507133902, 51860.69629915909, -5812.995828747253, -7885.494278132234, -11813.209869052156, 17017.433585814666, 11500.061929233305, -0.002, 0.96, 0.258, 192.0, 255.0, 240.0, 30.0, 0.0, 8.0, 16.0, 0.0, 0.0, 0.0, 1.6878026606782503E9, 0.0, 2023-06-26 13:04:20.678
60.0, 44962.344463151036, 47871.66987319826, 51898.56015426638, -5855.978233334808, -7899.531173650167, -11854.493541061109, 17004.64838798623, 11468.188341640038, -0.002, 0.96, 0.258, 192.0, 0.0, 0.0, 0.0, 0.0, 0.0, 0.0, 0.0, 0.0, 0.0, 1.687802660681256E9, 0.0, 2023-06-26 13:04:20.681
61.0, 44950.453335100814, 47871.133431331335, 53561.73110744132, -5920.798292255198, -7947.09568585106, -11946.515672983609, 16926.774910303942, 11358.843607764675, -0.002, 0.96, 0.258, 192.0, 0.0, 0.0, 0.0, 0.0, 0.0, 0.0, 0.0, 0.0, 0.0, 1.687802660684271E9, 0.0, 2023-06-26 13:04:20.684
62.0, 44916.45633178429, 47833.49309366859, 55050.91608177616, -5939.171426197461, -7982.165572901437, -11956.976289388693, 16901.070404180336, 11344.650250035555, -0.002, 0.96, 0.258, 192.0, 0.0, 0.0, 0.0, 0.0, 0.0, 0.0, 0.0, 0.0, 0.0, 1.6878026606892817E9, 0.0, 2023-06-26 13:04:20.689
63.0, 44986.86432681851, 47877.79425117901, 52351.16062774189, -5822.651782351945, -7909.544755166145, -11835.114578618357, 16976.46283822809, 11463.6062340267, -0.002, 0.96, 0.258, 192.0, 0.0, 0.0, 0.0, 0.0, 0.0, 0.0, 0.0, 0.0, 0.0, 1.687802660693303E9, 0.0, 2023-06-26 13:04:20.693
64.0, 44981.075225004584, 47886.73494896114, 51654.07677341423, -5827.233889965283, -7887.863563044497, -11835.494558274098, 17003.150821107723, 11480.995891212928, -0.002, 0.96, 0.258, 192.0, 0.0, 0.0, 0.0, 0.0, 0.0, 0.0, 0.0, 0.0, 0.0, 1.6878026606973307E9, 0.0, 2023-06-26 13:04:20.697
65.0, 44972.24628594474, 47884.49977451561, 53240.581243107474, -5906.783748481721, -7953.801209187653, -11946.895652639349, 16907.77592751693, 11356.764895530332, -0.002, 0.96, 0.258, 192.0, 0.0, 0.0, 0.0, 0.0, 0.0, 0.0, 0.0, 0.0, 0.0, 1.68780266070133E9, 0.0, 2023-06-26 13:04:20.701
66.0, 44944.79834375362, 47852.82735262244, 54967.83464763578, -5925.5368620797235, -7979.706881011353, -11964.285309825578, 16886.072383650826, 11340.895156967063, -0.002, 0.96, 0.258, 192.0, 0.0, 0.0, 0.0, 0.0, 0.0, 0.0, 0.0, 0.0, 0.0, 1.6878026607053578E9, 0.0, 2023-06-26 13:04:20.705
67.0, 44985.09853900654, 47868.49592548561, 52886.37314872422, -5835.794608091665, -7935.696296178854, -11866.898759233805, 16940.20830872158, 11427.038780097817, -0.002, 0.96, 0.258, 192.0, 0.0, 0.0, 0.0, 0.0, 0.0, 0.0, 0.0, 0.0, 0.0, 1.687802660709381E9, 0.0, 2023-06-26 13:04:20.709
68.0, 44991.69230362085, 47887.18198385024, 51421.08218921211, -5807.564354844613, -7889.070557245083, -11823.156395334769, 16992.712556447095, 11488.304911649813, -0.002, 0.96, 0.258, 192.0, 0.0, 0.0, 0.0, 0.0, 0.0, 0.0, 0.0, 0.0, 0.0, 1.6878026607124045E9, 0.0, 2023-06-26 13:04:20.712
69.0, 44976.35900692451, 47887.74077746162, 52931.926003924134, -5894.959675664863, -7956.796342944664, -11940.011315347114, 16903.797317003886, 11365.593834590178, 0.002, 0.9580000000000001, 0.262, 192.0, 0.0, 16.0, 29.0, 240.0, 8.0, 48.0, 0.0, 0.0, 0.0, 1.687802660717425E9, 0.0, 2023-06-26 13:04:20.717
70.0, 44940.953843707306, 47860.292835270506, 54789.780651304805, -5926.341524880115, -7989.429889849412, -11970.409687806332, 16878.450438791566, 11339.509348810834, 0.002, 0.9580000000000001, 0.262, 192.0, 0.0, 0.0, 0.0, 0.0, 0.0, 0.0, 0.0, 0.0, 0.0, 1.6878026607214408E9, 0.0, 2023-06-26 13:04:20.721
71.0, 44974.48146039027, 47869.166477819264, 53512.84784231757, -5851.865512355032, -7955.209369088337, -11885.227189687157, 16925.25499168098, 11416.622867181644, 0.002, 0.9580000000000001, 0.262, 192.0, 0.0, 0.0, 0.0, 0.0, 0.0, 0.0, 0.0, 0.0, 0.0, 1.6878026607254653E9, 0.0, 2023-06-26 13:04:20.725
72.0, 44988.9206873084, 47890.13241411834, 51311.62569661447, -5796.835517506065, -7885.762499065698, -11815.2885812865, 17009.185792110657, 11506.432176403068, 0.002, 0.9580000000000001, 0.262, 192.0, 0.0, 0.0, 0.0, 0.0, 0.0, 0.0, 0.0, 0.0, 0.0, 1.6878026607294772E9, 0.0, 2023-06-26 13:04:20.729
73.0, 44973.319169678594, 47887.47255652816, 52676.11028863314, -5880.699262702377, -7946.447485261856, -11919.26889649259, 16929.613581849764, 11386.000977277872, 0.002, 0.9580000000000001, 0.262, 192.0, 0.0, 0.0, 0.0, 0.0, 0.0, 0.0, 0.0, 0.0, 0.0, 1.687802660733488E9, 0.0, 2023-06-26 13:04:20.733
74.0, 44949.11223043349, 47863.55618996098, 54483.360586566996, -5927.034428958229, -7984.19958164687, -11970.186170361778, 16874.650642234166, 11330.412188817525, 0.002, 0.9580000000000001, 0.262, 192.0, 0.0, 0.0, 0.0, 0.0, 0.0, 0.0, 0.0, 0.0, 0.0, 1.6878026607365103E9, 0.0, 2023-06-26 13:04:20.736
75.0, 44954.99073922524, 47849.47459095414, 54099.782299969476, -5885.482536015813, -7978.835162977596, -11910.507012666108, 16900.891590224695, 11394.87461982663, 0.002, 0.9580000000000001, 0.262, 192.0, 0.0, 0.0, 0.0, 0.0, 0.0, 0.0, 0.0, 0.0, 0.0, 1.6878026607405295E9, 0.0, 2023-06-26 13:04:20.740
76.0, 44986.752568096235, 47881.90697215879, 51347.63435693197, -5792.43222384837, -7882.946179264329, -11795.14965953227, 17013.45497530162, 11524.648848134142, 0.002, 0.9580000000000001, 0.262, 192.0, 0.0, 0.0, 0.0, 0.0, 0.0, 0.0, 0.0, 0.0, 0.0, 1.6878026607445536E9, 0.0, 2023-06-26 13:04:20.744
77.0, 44965.18313469686, 47876.922533145254, 52421.121587887006, -5869.277521285716, -7933.99756360025, -11882.276759419055, 16953.26172748348, 11440.047495370805, 0.002, 0.9580000000000001, 0.262, 192.0, 0.0, 0.0, 0.0, 0.0, 0.0, 0.0, 0.0, 0.0, 0.0, 1.6878026607485824E9, 0.0, 2023-06-26 13:04:20.748
78.0, 44955.348367136525, 47868.31711152996, 54140.84245453387, -5924.93336497943, -7974.633035019999, -11951.65657420833, 16891.928540698118, 11365.504427612357, 0.002, 0.9580000000000001, 0.262, 192.0, 0.0, 0.0, 0.0, 0.0, 0.0, 0.0, 0.0, 0.0, 0.0, 1.6878026607536018E9, 0.0, 2023-06-26 13:04:20.753
79.0, 44947.391146110436, 47836.48822742561, 54571.13588704299, -5915.433873585925, -7990.502773583266, -11927.69550415224, 16896.398889589178, 11379.5860266192, 0.002, 0.9580000000000001, 0.262, 192.0, 0.0, 0.0, 0.0, 0.0, 0.0, 0.0, 0.0, 0.0, 0.0, 1.6878026607576113E9, 0.0, 2023-06-26 13:04:20.757
80.0, 44994.03923678866, 47866.32780627344, 51542.36275462661, -5808.167851944906, -7898.257124216214, -11807.33136026041, 17001.31797806239, 11519.08326376477, 0.002, 0.9460000000000001, 0.264, 192.0, 0.0, 16.0, 29.0, 144.0, 8.0, 64.0, 0.0, 0.0, 0.0, 1.6878026607616262E9, 0.0, 2023-06-26 13:04:20.761
81.0, 44962.478573617766, 47851.486247955116, 52145.14459909733, -5868.852838141065, -7927.627316430488, -11870.564445324475, 16974.428829482655, 11466.757829994898, 0.002, 0.9460000000000001, 0.264, 192.0, 0.0, 0.0, 0.0, 0.0, 0.0, 0.0, 0.0, 0.0, 0.0, 1.6878026607646444E9, 0.0, 2023-06-26 13:04:20.764
82.0, 44961.40568988391, 47855.04017532351, 53789.160107274074, -5920.351257366092, -7967.659290749943, -11944.571071215996, 16916.02372122094, 11377.931997529507, 0.002, 0.9460000000000001, 0.264, 192.0, 0.0, 0.0, 0.0, 0.0, 0.0, 0.0, 0.0, 0.0, 0.0, 1.687802660768653E9, 0.0, 2023-06-26 13:04:20.768
83.0, 44936.52819830515, 47820.149102228774, 54896.57728631226, -5935.773961040254, -8003.690302811898, -11940.391295002853, 16900.422203591133, 11379.787192319298, 0.002, 0.9460000000000001, 0.264, 192.0, 0.0, 0.0, 0.0, 0.0, 0.0, 0.0, 0.0, 0.0, 0.0, 1.6878026607726986E9, 0.0, 2023-06-26 13:04:20.772
84.0, 44986.77491984069, 47852.13444854432, 51925.024619701464, -5830.765465589222, -7920.385351226968, -11823.961058135159, 16989.918588390185, 11495.502173364423, 0.002, 0.9460000000000001, 0.264, 192.0, 0.0, 0.0, 0.0, 0.0, 0.0, 0.0, 0.0, 0.0, 0.0, 1.6878026607767165E9, 0.0, 2023-06-26 13:04:20.776
85.0, 44953.94020723584, 47840.17626526073, 51874.08499408782, -5875.670120199933, -7927.269688519203, -11864.909453977281, 16986.722288933073, 11467.27192011737, 0.002, 0.9460000000000001, 0.264, 192.0, 0.0, 0.0, 0.0, 0.0, 0.0, 0.0, 0.0, 0.0, 0.0, 1.6878026607807312E9, 0.0, 2023-06-26 13:04:20.780
86.0, 44960.28810266115, 47861.209256793176, 53489.534972850684, -5930.8789290045415, -7976.220008876326, -11954.182321331778, 16910.413433362657, 11356.876654252608, 0.002, 0.9460000000000001, 0.264, 192.0, 0.0, 0.0, 0.0, 0.0, 0.0, 0.0, 0.0, 0.0, 0.0, 1.6878026607857447E9, 0.0, 2023-06-26 13:04:20.785
87.0, 44940.28329137365, 47840.06450653845, 55048.77031430844, -5943.12768496605, -8002.930343500418, -11966.36402205992, 16886.497066795477, 11344.069104679716, 0.002, 0.9460000000000001, 0.264, 192.0, 0.0, 0.0, 0.0, 0.0, 0.0, 0.0, 0.0, 0.0, 0.0, 1.68780266078978E9, 0.0, 2023-06-26 13:04:20.789
88.0, 45002.37643747049, 47876.85547791189, 52467.05442274266, -5836.956898803342, -7934.176377555893, -11856.438142828722, 16953.41818969467, 11442.774408194353, 0.002, 0.9460000000000001, 0.264, 192.0, 0.0, 0.0, 0.0, 0.0, 0.0, 0.0, 0.0, 0.0, 0.0, 1.6878026607927744E9, 0.0, 2023-06-26 13:04:20.792
89.0, 44982.32692269408, 47870.485230742124, 51603.651237923055, -5845.115285529529, -7912.830461601075, -11855.856997472883, 16978.809771395896, 11453.100914132705, 0.002, 0.9460000000000001, 0.264, 192.0, 0.0, 0.0, 0.0, 0.0, 0.0, 0.0, 0.0, 0.0, 0.0, 1.6878026607967925E9, 0.0, 2023-06-26 13:04:20.796
90.0, 44971.19575395534, 47872.22866680964, 53199.78930947654, -5920.910050977475, -7972.2413983632805, -11962.832446435983, 16891.257988364458, 11336.715380753922, 0.004, 0.9420000000000001, 0.264, 192.0, 0.0, 32.0, 29.0, 112.0, 8.0, 64.0, 0.0, 0.0, 0.0, 1.687802660800812E9, 0.0, 2023-06-26 13:04:20.800
91.0, 44945.31243387609, 47850.07808805443, 55028.452578598575, -5944.3793826555475, -8006.484270868811, -11981.2279321227, 16866.49225550798, 11324.645438748055, 0.004, 0.9420000000000001, 0.264, 192.0, 0.0, 0.0, 0.0, 0.0, 0.0, 0.0, 0.0, 0.0, 0.0, 1.6878026608048372E9, 0.0, 2023-06-26 13:04:20.804
92.0, 44997.83903334606, 47878.3530447904, 53104.190898441186, -5849.92091058742, -7955.343479555068, -11879.236922173133, 16932.362846417767, 11418.701579415987, 0.004, 0.9420000000000001, 0.264, 192.0, 0.0, 0.0, 0.0, 0.0, 0.0, 0.0, 0.0, 0.0, 0.0, 1.6878026608088486E9, 0.0, 2023-06-26 13:04:20.808
93.0, 45001.19179501436, 47888.07605362846, 51405.90535472696, -5810.984171746275, -7894.099699747527, -11828.677276215229, 16999.351024550324, 11489.26603666139, 0.004, 0.9420000000000001, 0.264, 192.0, 0.0, 0.0, 0.0, 0.0, 0.0, 0.0, 0.0, 0.0, 0.0, 1.6878026608138883E9, 0.0, 2023-06-26 13:04:20.813
94.0, 44988.09367276355, 47891.04883564101, 52909.57425946883, -5889.59525699559, -7954.628223732499, -11933.194033288246, 16920.24820092299, 11373.305186427258, 0.004, 0.9420000000000001, 0.264, 192.0, 0.0, 0.0, 0.0, 0.0, 0.0, 0.0, 0.0, 0.0, 0.0, 1.6878026608189273E9, 0.0, 2023-06-26 13:04:20.818
95.0, 44960.98100673926, 47868.78649816352, 54836.62990768313, -5929.806045270687, -7993.967293973839, -11975.215312864222, 16879.232749847502, 11330.38983707307, 0.004, 0.9420000000000001, 0.264, 192.0, 0.0, 0.0, 0.0, 0.0, 0.0, 0.0, 0.0, 0.0, 0.0, 1.6878026608219512E9, 0.0, 2023-06-26 13:04:20.821
96.0, 44983.869193061495, 47866.10428882889, 53778.744194357896, -5867.019995095729, -7978.030500177205, -11904.896724807826, 16903.350282114778, 11390.404270935569, 0.004, 0.9420000000000001, 0.264, 192.0, 0.0, 0.0, 0.0, 0.0, 0.0, 0.0, 0.0, 0.0, 0.0, 1.68780266082594E9, 0.0, 2023-06-26 13:04:20.825
97.0, 44998.844861846555, 47881.258771569584, 51346.941452853855, -5800.858831508021, -7904.426205685879, -11822.463491256654, 16987.437544755645, 11486.807344771309, 0.004, 0.9420000000000001, 0.264, 192.0, 0.0, 0.0, 0.0, 0.0, 0.0, 0.0, 0.0, 0.0, 0.0, 1.6878026608289661E9, 0.0, 2023-06-26 13:04:20.828
98.0, 44979.957637781816, 47881.34817854741, 52564.619787290074, -5876.921817889431, -7953.912967909929, -11917.726626125173, 16928.54069811591, 11383.654044110066, 0.004, 0.9420000000000001, 0.264, 192.0, 0.0, 0.0, 0.0, 0.0, 0.0, 0.0, 0.0, 0.0, 0.0, 1.687802660832966E9, 0.0, 2023-06-26 13:04:20.832
99.0, 44955.840105514544, 47863.26561728306, 54582.69173892638, -5924.866309746064, -7994.280218396213, -11977.875170454405, 16882.11612488224, 11331.038037662272, 0.004, 0.9420000000000001, 0.264, 192.0, 0.0, 0.0, 0.0, 0.0, 0.0, 0.0, 0.0, 0.0, 0.0, 1.6878026608369856E9, 0.0, 2023-06-26 13:04:20.836
100.0, 44964.579637596566, 47852.22385552214, 54416.21594622326, -5884.87903891552, -7993.855535251562, -11924.02981806157, 16904.24435189299, 11379.809544063753, 0.006, 0.9560000000000001, 0.26, 192.0, 0.0, 48.0, 29.0, 224.0, 8.0, 32.0, 0.0, 0.0, 0.0, 1.6878026608410063E9, 0.0, 2023-06-26 13:04:20.841
101.0, 45012.0770945641, 47890.04300714052, 51429.32998291612, -5787.559543557113, -7903.778005096675, -11809.030092839015, 17001.87677167377, 11506.745100825441, 0.006, 0.9560000000000001, 0.26, 192.0, 0.0, 0.0, 0.0, 0.0, 0.0, 0.0, 0.0, 0.0, 0.0, 1.6878026608460546E9, 0.0, 2023-06-26 13:04:20.846
102.0, 44993.61455364401, 47889.52891701805, 52220.96171628973, -5862.281425271204, -7945.128732338993, -11894.167887469279, 16955.005163550995, 11423.93188761853, 0.006, 0.9560000000000001, 0.26, 192.0, 0.0, 0.0, 0.0, 0.0, 0.0, 0.0, 0.0, 0.0, 0.0, 1.6878026608490517E9, 0.0, 2023-06-26 13:04:20.849
103.0, 44975.353178424026, 47878.57656223495, 54157.785076830995, -5916.327943364137, -7983.037290935194, -11962.407763291332, 16905.652511793676, 11348.986488459885, 0.006, 0.9560000000000001, 0.26, 192.0, 0.0, 0.0, 0.0, 0.0, 0.0, 0.0, 0.0, 0.0, 0.0, 1.6878026608520644E9, 0.0, 2023-06-26 13:04:20.852
104.0, 44955.57188458108, 47842.07616353943, 54819.8884510861, -5908.415425826958, -8002.483308611311, -11937.194995545746, 16916.895439254695, 11378.088459740695, 0.006, 0.9560000000000001, 0.26, 192.0, 0.0, 0.0, 0.0, 0.0, 0.0, 0.0, 0.0, 0.0, 0.0, 1.6878026608570817E9, 0.0, 2023-06-26 13:04:20.857
105.0, 45015.63102193249, 47886.578486749946, 51666.929026476035, -5797.595476817546, -7915.020932557694, -11817.411997009754, 17009.833992699863, 11493.222295429981, 0.006, 0.9560000000000001, 0.26, 192.0, 0.0, 0.0, 0.0, 0.0, 0.0, 0.0, 0.0, 0.0, 0.0, 1.6878026608611057E9, 0.0, 2023-06-26 13:04:20.861
106.0, 44995.0227135447, 47885.84087918292, 51872.02863359793, -5847.5292739307015, -7939.294927036158, -11868.932767979237, 16983.59304470933, 11450.284594331337, 0.006, 0.9560000000000001, 0.26, 192.0, 0.0, 0.0, 0.0, 0.0, 0.0, 0.0, 0.0, 0.0, 0.0, 1.6878026608651376E9, 0.0, 2023-06-26 13:04:20.865
107.0, 44988.60776288602, 47889.9536001627, 53753.6878888235, -5908.393074082503, -7983.886657224496, -11944.280498538077, 16922.796299790894, 11378.06610799624, 0.006, 0.9560000000000001, 0.26, 192.0, 0.0, 0.0, 0.0, 0.0, 0.0, 0.0, 0.0, 0.0, 0.0, 1.6878026608692088E9, 0.0, 2023-06-26 13:04:20.869
108.0, 44965.361948652506, 47856.47068696865, 55051.49722713199, -5922.005286455785, -8015.424968650934, -11950.114303840912, 16916.716625299054, 11376.412078906546, 0.006, 0.9560000000000001, 0.26, 192.0, 0.0, 0.0, 0.0, 0.0, 0.0, 0.0, 0.0, 0.0, 0.0, 1.6878026608722188E9, 0.0, 2023-06-26 13:04:20.872
109.0, 45034.16061808594, 47903.81168172499, 52060.990281223094, -5808.279610667183, -7936.590365957066, -11837.685029230719, 17002.837896685352, 11487.254379660413, 0.006, 0.9560000000000001, 0.26, 192.0, 0.0, 0.0, 0.0, 0.0, 0.0, 0.0, 0.0, 0.0, 0.0, 1.6878026608762057E9, 0.0, 2023-06-26 13:04:20.876
110.0, 45017.843844633564, 47910.427798083765, 51541.87101624859, -5831.301907456149, -7928.85666237553, -11867.815180756472, 17009.31990257739, 11470.423516085568, 0.002, 0.9500000000000001, 0.258, 192.0, 0.0, 16.0, 29.0, 176.0, 8.0, 16.0, 0.0, 0.0, 0.0, 1.6878026608802145E9, 0.0, 2023-06-26 13:04:20.880
111.0, 45007.33852473957, 47914.94285046373, 53361.61593933296, -5909.354199094081, -7989.541648571689, -11977.763411732127, 16919.041206722406, 11342.929165712496, 0.002, 0.9500000000000001, 0.258, 192.0, 0.0, 0.0, 0.0, 0.0, 0.0, 0.0, 0.0, 0.0, 0.0, 1.687802660885224E9, 0.0, 2023-06-26 13:04:20.885
112.0, 44976.44841390233, 47881.14701284731, 55138.37845782977, -5933.851711017098, -8031.920556058951, -11999.42225210932, 16881.57968301531, 11317.582287500178, 0.002, 0.9500000000000001, 0.258, 192.0, 0.0, 0.0, 0.0, 0.0, 0.0, 0.0, 0.0, 0.0, 0.0, 1.6878026608892703E9, 0.0, 2023-06-26 13:04:20.889
113.0, 45036.507551253744, 47916.75334176461, 52631.09387530016, -5817.86850903851, -7960.506732524244, -11880.309805906989, 16949.908965815182, 11423.283687029325, 0.002, 0.9500000000000001, 0.258, 192.0, 0.0, 0.0, 0.0, 0.0, 0.0, 0.0, 0.0, 0.0, 0.0, 1.6878026608932676E9, 0.0, 2023-06-26 13:04:20.893
114.0, 45040.508513511246, 47935.10412396242, 51308.96583902429, -5787.33602611256, -7913.590420912555, -11840.68016298773, 17001.87677167377, 11475.027975443361, 0.002, 0.9500000000000001, 0.258, 192.0, 0.0, 0.0, 0.0, 0.0, 0.0, 0.0, 0.0, 0.0, 0.0, 1.6878026608993022E9, 0.0, 2023-06-26 13:04:20.899
115.0, 45031.344298284566, 47942.234330443665, 53007.519603671986, -5870.573922464124, -7975.0577181646495, -11950.538986985564, 16910.659302551663, 11347.95830821494, 0.002, 0.9500000000000001, 0.258, 192.0, 0.0, 0.0, 0.0, 0.0, 0.0, 0.0, 0.0, 0.0, 0.0, 1.6878026609023273E9, 0.0, 2023-06-26 13:04:20.902
116.0, 44989.5688878976, 47903.74462649162, 55058.225102213044, -5910.896469461497, -8021.951678031884, -11988.089917670479, 16868.72742995351, 11313.178993842483, 0.002, 0.9500000000000001, 0.258, 192.0, 0.0, 0.0, 0.0, 0.0, 0.0, 0.0, 0.0, 0.0, 0.0, 1.6878026609053557E9, 0.0, 2023-06-26 13:04:20.905
117.0, 45035.50172275326, 47924.62115581288, 53292.50434547715, -5820.729532328789, -7979.595122289076, -11888.06586123298, 16922.371616646244, 11408.218611266448, 0.002, 0.9500000000000001, 0.258, 192.0, 0.0, 0.0, 0.0, 0.0, 0.0, 0.0, 0.0, 0.0, 0.0, 1.6878026609084303E9, 0.0, 2023-06-26 13:04:20.908
118.0, 45054.36659507354, 47950.99621427014, 51215.110864056456, -5765.207799101806, -7905.18616499736, -11821.10003484488, 17005.27423683098, 11489.601312828221, 0.002, 0.9500000000000001, 0.258, 192.0, 0.0, 0.0, 0.0, 0.0, 0.0, 0.0, 0.0, 0.0, 0.0, 1.6878026609123623E9, 0.0, 2023-06-26 13:04:20.912
119.0, 45034.36178378604, 47952.04674625954, 52681.8323352137, -5847.126942530506, -7964.619453504021, -11926.667323907295, 16930.82057605035, 11378.893122541085, 0.002, 0.9500000000000001, 0.258, 192.0, 0.0, 0.0, 0.0, 0.0, 0.0, 0.0, 0.0, 0.0, 0.0, 1.6878026609173748E9, 0.0, 2023-06-26 13:04:20.917
120.0, 44999.046027546654, 47922.162463922796, 54816.02159929533, -5891.562210507657, -8005.701959812875, -11973.047193652057, 16890.09569765278, 11332.982639429885, 0.002, 0.9500000000000001, 0.258, 192.0, 0.0, 0.0, 0.0, 0.0, 0.0, 0.0, 0.0, 0.0, 0.0, 1.687802660921409E9, 0.0, 2023-06-26 13:04:20.921
121.0, 45021.420123746415, 47918.42972259876, 53924.2764025064, -5837.806265092643, -7992.916761984439, -11908.942390554237, 16917.744805543996, 11390.136050002106, 0.002, 0.9540000000000001, 0.25, 192.0, 0.0, 16.0, 29.0, 208.0, 7.0, 208.0, 0.0, 0.0, 0.0, 1.6878026609254496E9, 0.0, 2023-06-26 13:04:20.925
122.0, 45059.507496298254, 47952.44907765974, 51216.74254140169, -5756.80354318661, -7899.240600972248, -11813.075758585424, 17014.974893924584, 11500.240743188948, 0.002, 0.9540000000000001, 0.25, 192.0, 0.0, 0.0, 0.0, 0.0, 0.0, 0.0, 0.0, 0.0, 0.0, 1.6878026609284532E9, 0.0, 2023-06-26 13:04:20.928
123.0, 45028.617385461024, 47943.79895255553, 52373.579427430566, -5842.097800028062, -7948.816770174119, -11906.863678319893, 16952.099436771805, 11401.155460018572, 0.002, 0.9540000000000001, 0.25, 192.0, 0.0, 0.0, 0.0, 0.0, 0.0, 0.0, 0.0, 0.0, 0.0, 1.6878026609324503E9, 0.0, 2023-06-26 13:04:20.932
124.0, 44998.93426882437, 47923.078885445466, 54509.60153455753, -5899.899411189486, -7994.816660263141, -11973.717745985718, 16898.030566934416, 11329.965153928419, 0.002, 0.9540000000000001, 0.25, 192.0, 0.0, 0.0, 0.0, 0.0, 0.0, 0.0, 0.0, 0.0, 0.0, 1.687802660936478E9, 0.0, 2023-06-26 13:04:20.936
125.0, 44994.776844355685, 47896.077978143454, 54497.93392395186, -5876.653596955967, -8002.483308611311, -11934.781007144573, 16902.1879914031, 11361.72698279941, 0.002, 0.9540000000000001, 0.25, 192.0, 0.0, 0.0, 0.0, 0.0, 0.0, 0.0, 0.0, 0.0, 0.0, 1.6878026609405067E9, 0.0, 2023-06-26 13:04:20.940
126.0, 45046.81170544764, 47936.51228386311, 51372.26597932172, -5765.006633401708, -7893.5632578806, -11799.396490978777, 17022.66389401721, 11509.740234582452, 0.002, 0.9540000000000001, 0.25, 192.0, 0.0, 0.0, 0.0, 0.0, 0.0, 0.0, 0.0, 0.0, 0.0, 1.6878026609455204E9, 0.0, 2023-06-26 13:04:20.945
127.0, 45017.19564404436, 47928.37624888137, 52060.722060289634, -5839.303831971149, -7932.656458932932, -11877.426430872254, 16982.766030164486, 11439.801626181797, 0.002, 0.9540000000000001, 0.25, 192.0, 0.0, 0.0, 0.0, 0.0, 0.0, 0.0, 0.0, 0.0, 0.0, 1.6878026609495525E9, 0.0, 2023-06-26 13:04:20.949
128.0, 44998.39782695744, 47920.19551041073, 54102.285695348466, -5902.223992612839, -7984.244285135781, -11952.505940497631, 16915.10729969827, 11357.234282163892, 0.002, 0.9540000000000001, 0.25, 192.0, 0.0, 0.0, 0.0, 0.0, 0.0, 0.0, 0.0, 0.0, 0.0, 1.6878026609535637E9, 0.0, 2023-06-26 13:04:20.953
129.0, 44984.42798667288, 47885.55030650501, 54879.03116691484, -5901.732254234821, -8011.781634304719, -11939.430169991276, 16905.49604958249, 11370.108886970149, 0.002, 0.9540000000000001, 0.25, 192.0, 0.0, 0.0, 0.0, 0.0, 0.0, 0.0, 0.0, 0.0, 0.0, 1.687802660957579E9, 0.0, 2023-06-26 13:04:20.957
130.0, 45039.0780018661, 47920.37432436637, 51700.836622814735, -5794.153308171429, -7924.14044429546, -11816.38381676481, 17005.140126364247, 11494.563400097299, 0.002, 0.9540000000000001, 0.25, 192.0, 0.0, 0.0, 0.0, 0.0, 0.0, 0.0, 0.0, 0.0, 0.0, 1.6878026609605925E9, 0.0, 2023-06-26 13:04:20.960
131.0, 45018.00030684475, 47919.77082726608, 51737.98522209945, -5839.527349415702, -7935.42807524539, -11856.72871550664, 16996.668815215686, 11460.834617714241, 0.012, 0.9560000000000001, 0.25, 192.0, 0.0, 96.0, 29.0, 224.0, 7.0, 208.0, 0.0, 0.0, 0.0, 1.6878026609646132E9, 0.0, 2023-06-26 13:04:20.964
132.0, 45001.86234734802, 47914.83109174146, 53684.1739635675, -5910.896469461497, -7992.603837562066, -11949.734324185172, 16917.67775031063, 11356.340212385681, 0.012, 0.9560000000000001, 0.25, 192.0, 0.0, 0.0, 0.0, 0.0, 0.0, 0.0, 0.0, 0.0, 0.0, 1.687802660969654E9, 0.0, 2023-06-26 13:04:20.969
133.0, 44968.357082409515, 47871.401652264794, 55105.11906208027, -5932.421199371958, -8028.344276946102, -11958.31739405601, 16907.038319949905, 11355.312032140737, 0.012, 0.9560000000000001, 0.25, 192.0, 0.0, 0.0, 0.0, 0.0, 0.0, 0.0, 0.0, 0.0, 0.0, 1.6878026609737327E9, 0.0, 2023-06-26 13:04:20.973
134.0, 45036.3287372981, 47913.26646962958, 52169.53035229807, -5811.274744424194, -7944.257014305236, -11831.471244272143, 17004.73779496405, 11485.645054059632, 0.012, 0.9560000000000001, 0.25, 192.0, 0.0, 0.0, 0.0, 0.0, 0.0, 0.0, 0.0, 0.0, 0.0, 1.687802660976689E9, 0.0, 2023-06-26 13:04:20.976
135.0, 45032.64069946298, 47925.33641163545, 51458.56606466366, -5817.644991593957, -7928.320220508603, -11836.925069919238, 17020.36166433831, 11492.954074496518, 0.012, 0.9560000000000001, 0.25, 192.0, 0.0, 0.0, 0.0, 0.0, 0.0, 0.0, 0.0, 0.0, 0.0, 1.6878026609817247E9, 0.0, 2023-06-26 13:04:20.981
136.0, 45028.66208894993, 47935.81937978499, 53275.338205735476, -5893.238591341805, -7985.138354913993, -11949.846082907448, 16934.598020863297, 11363.045735722273, 0.012, 0.9560000000000001, 0.25, 192.0, 0.0, 0.0, 0.0, 0.0, 0.0, 0.0, 0.0, 0.0, 0.0, 1.687802660984728E9, 0.0, 2023-06-26 13:04:20.984
137.0, 44996.5202804232, 47902.60468752441, 55140.993611931044, -5919.4348358434245, -8029.68538161342, -11975.237664608678, 16897.11414541175, 11339.688162766477, 0.012, 0.9560000000000001, 0.25, 192.0, 0.0, 0.0, 0.0, 0.0, 0.0, 0.0, 0.0, 0.0, 0.0, 1.6878026609888349E9, 0.0, 2023-06-26 13:04:20.988
138.0, 45060.82624922112, 47939.46271413121, 52764.153810042604, -5813.15229095844, -7967.972215172317, -11868.955119723692, 16957.48620718553, 11430.816224910765, 0.012, 0.9560000000000001, 0.25, 192.0, 0.0, 0.0, 0.0, 0.0, 0.0, 0.0, 0.0, 0.0, 0.0, 1.6878026609927514E9, 0.0, 2023-06-26 13:04:20.992
139.0, 45073.365577860546, 47964.56372315451, 51248.81729469506, -5783.759746999711, -7917.904307592429, -11839.361410064867, 17010.035158399958, 11475.6091207992, 0.012, 0.9560000000000001, 0.25, 192.0, 0.0, 0.0, 0.0, 0.0, 0.0, 0.0, 0.0, 0.0, 0.0, 1.6878026609967775E9, 0.0, 2023-06-26 13:04:20.996
140.0, 45055.14890612947, 47963.24497023165, 52919.67724796263, -5869.3669282635365, -7984.288988624691, -11949.98019337418, 16923.980942247028, 11352.093380939172, 0.012, 0.9560000000000001, 0.25, 192.0, 0.0, 0.0, 0.0, 0.0, 0.0, 0.0, 0.0, 0.0, 0.0, 1.6878026610007958E9, 0.0, 2023-06-26 13:04:21.000
141.0, 45009.126664295996, 47918.809702254504, 55007.59840102177, -5915.3221148636485, -8032.099370014593, -11990.570961305018, 16880.77502021492, 11317.448177033446, 0.01, 0.962, 0.246, 192.0, 0.0, 80.0, 30.0, 16.0, 7.0, 176.0, 0.0, 0.0, 0.0, 1.6878026610048063E9, 0.0, 2023-06-26 13:04:21.004
142.0, 45052.62315900602, 47931.70665880521, 53406.49824219922, -5833.291212712671, -7996.157764930459, -11900.605189872407, 16927.378407404234, 11402.585971663711, 0.01, 0.962, 0.246, 192.0, 0.0, 0.0, 0.0, 0.0, 0.0, 0.0, 0.0, 0.0, 0.0, 1.687802661011856E9, 0.0, 2023-06-26 13:04:21.011
143.0, 45080.428729108426, 47959.847505074446, 51171.32379666851, -5773.947331183831, -7916.429092458379, -11829.750159949084, 17010.817469455895, 11482.046423202328, 0.01, 0.962, 0.246, 192.0, 0.0, 0.0, 0.0, 0.0, 0.0, 0.0, 0.0, 0.0, 0.0, 1.6878026610158868E9, 0.0, 2023-06-26 13:04:21.015
144.0, 45068.78347024721, 47966.19540049975, 52608.71977910039, -5853.005451322252, -7967.301662838658, -11934.64689667784, 16939.537756387923, 11369.483038125401, 0.01, 0.962, 0.246, 192.0, 0.0, 0.0, 0.0, 0.0, 0.0, 0.0, 0.0, 0.0, 0.0, 1.687802661018892E9, 0.0, 2023-06-26 13:04:21.018
145.0, 45041.11201061154, 47942.27903393257, 54756.38714508858, -5893.350350064082, -8009.702922070375, -11985.050080424558, 16893.359052343258, 11325.04777014825, 0.01, 0.962, 0.246, 192.0, 0.0, 0.0, 0.0, 0.0, 0.0, 0.0, 0.0, 0.0, 0.0, 1.6878026610218868E9, 0.0, 2023-06-26 13:04:21.021
146.0, 45059.01575792024, 47934.56768209549, 54055.05645931441, -5845.4729134408135, -7999.82345102113, -11926.130882040368, 16908.82645950633, 11373.43929689399, 0.01, 0.962, 0.246, 192.0, 0.0, 0.0, 0.0, 0.0, 0.0, 0.0, 0.0, 0.0, 0.0, 1.6878026610249095E9, 0.0, 2023-06-26 13:04:21.024
147.0, 45097.25959268327, 47970.956322068734, 51230.555919475075, -5756.6023774865125, -7908.583630154566, -11822.2399738121, 17002.92730366317, 11488.528429094367, 0.01, 0.962, 0.246, 192.0, 0.0, 0.0, 0.0, 0.0, 0.0, 0.0, 0.0, 0.0, 0.0, 1.687802661028937E9, 0.0, 2023-06-26 13:04:21.028
148.0, 45066.838868479594, 47963.91552256531, 52290.20742061227, -5838.767390104222, -7960.1491046129595, -11923.627486661373, 16939.425997665643, 11383.25171270987, 0.01, 0.962, 0.246, 192.0, 0.0, 0.0, 0.0, 0.0, 0.0, 0.0, 0.0, 0.0, 0.0, 1.6878026610329518E9, 0.0, 2023-06-26 13:04:21.032
149.0, 45044.95651065785, 47947.73285957967, 54412.28203919912, -5894.4232337979365, -8001.209259177359, -11985.318301358022, 16883.34547082728, 11319.839813690163, 0.01, 0.962, 0.246, 192.0, 0.0, 0.0, 0.0, 0.0, 0.0, 0.0, 0.0, 0.0, 0.0, 1.6878026610369713E9, 0.0, 2023-06-26 13:04:21.036
150.0, 45039.34622279957, 47920.77665576657, 54593.107651842554, -5874.753698677266, -8013.860346539062, -11946.2698037946, 16896.44359307809, 11356.608433319145, 0.01, 0.962, 0.246, 192.0, 0.0, 0.0, 0.0, 0.0, 0.0, 0.0, 0.0, 0.0, 0.0, 1.6878026610409904E9, 0.0, 2023-06-26 13:04:21.040
151.0, 45093.280982170225, 47962.46265917572, 51425.88781427, -5761.363299055493, -7909.053016788128, -11814.998008608582, 17011.264504345003, 11490.070699461783, 0.006, 0.962, 0.254, 192.0, 0.0, 48.0, 30.0, 16.0, 7.0, 240.0, 0.0, 0.0, 0.0, 1.6878026610440247E9, 0.0, 2023-06-26 13:04:21.044
152.0, 45071.57743830412, 47963.91552256531, 51950.90793978071, -5821.042456751163, -7930.086008320572, -11878.387555883832, 16986.722288933073, 11434.616021468166, 0.006, 0.962, 0.254, 192.0, 0.0, 0.0, 0.0, 0.0, 0.0, 0.0, 0.0, 0.0, 0.0, 1.6878026610480552E9, 0.0, 2023-06-26 13:04:21.048
153.0, 45042.85544667905, 47943.843656044446, 54014.21982219456, -5897.351312321582, -7988.692282282386, -11966.02874589309, 16911.19574441859, 11343.443255834969, 0.006, 0.962, 0.254, 192.0, 0.0, 0.0, 0.0, 0.0, 0.0, 0.0, 0.0, 0.0, 0.0, 1.6878026610541153E9, 0.0, 2023-06-26 13:04:21.054
154.0, 45020.83897839057, 47903.834033469444, 54966.31472901282, -5907.700170004388, -8020.275297197735, -11953.735286442672, 16900.690424524597, 11353.948575728962, 0.006, 0.962, 0.254, 192.0, 0.0, 0.0, 0.0, 0.0, 0.0, 0.0, 0.0, 0.0, 0.0, 1.6878026610570996E9, 0.0, 2023-06-26 13:04:21.057
155.0, 45080.96517097535, 47942.12257172139, 51792.43407159258, -5797.86369775101, -7925.727418151787, -11823.156395334769, 17005.564809508898, 11488.550780838821, 0.006, 0.962, 0.254, 192.0, 0.0, 0.0, 0.0, 0.0, 0.0, 0.0, 0.0, 0.0, 0.0, 1.6878026610611243E9, 0.0, 2023-06-26 13:04:21.061
156.0, 45067.710586513356, 47945.90001653433, 51661.72107001795, -5828.597346377057, -7923.514595450712, -11853.48771256062, 17010.191620611145, 11466.5566642948, 0.006, 0.962, 0.254, 192.0, 0.0, 0.0, 0.0, 0.0, 0.0, 0.0, 0.0, 0.0, 0.0, 1.687802661065122E9, 0.0, 2023-06-26 13:04:21.065
157.0, 45053.5842840176, 47944.58126361147, 53607.41807310797, -5908.88481246052, -7986.904142725962, -11957.356269044432, 16919.73411080052, 11349.165302415528, 0.006, 0.962, 0.254, 192.0, 0.0, 0.0, 0.0, 0.0, 0.0, 0.0, 0.0, 0.0, 0.0, 1.6878026610691981E9, 0.0, 2023-06-26 13:04:21.069
158.0, 45024.19174005887, 47904.59399278092, 55153.17531265919, -5931.616536571567, -8025.885585056018, -11973.807152963538, 16892.442630820588, 11334.48020630839, 0.006, 0.962, 0.254, 192.0, 0.0, 0.0, 0.0, 0.0, 0.0, 0.0, 0.0, 0.0, 0.0, 1.687802661072208E9, 0.0, 2023-06-26 13:04:21.072
159.0, 45089.54824084619, 47945.363574667404, 52291.45911830177, -5807.273782166694, -7941.66421194842, -11846.62572701284, 16983.07895458686, 11452.899748432606, 0.006, 0.962, 0.254, 192.0, 0.0, 0.0, 0.0, 0.0, 0.0, 0.0, 0.0, 0.0, 0.0, 1.6878026610762188E9, 0.0, 2023-06-26 13:04:21.076
160.0, 45085.27905765523, 47957.50057190664, 51383.17363061591, -5809.173680445395, -7917.703141892332, -11843.787055467017, 17014.974893924584, 11469.663556774087, 0.006, 0.962, 0.254, 192.0, 0.0, 0.0, 0.0, 0.0, 0.0, 0.0, 0.0, 0.0, 0.0, 1.687802661080263E9, 0.0, 2023-06-26 13:04:21.080
161.0, 45079.2887901412, 47965.793069099556, 53197.554135031, -5891.159879107461, -7982.00911069025, -11957.468027766708, 16927.91484927116, 11345.365505858124, 0.006, 0.962, 0.254, 192.0, 0.0, 0.0, 0.0, 0.0, 0.0, 0.0, 0.0, 0.0, 0.0, 1.6878026610852172E9, 0.0, 2023-06-26 13:04:21.085
162.0, 45045.09062112458, 47928.82328377048, 55137.30557409592, -5923.45814984538, -8023.650410610487, -11988.983987448692, 16887.838171462798, 11314.698912465443, 0.006, 0.96, 0.264, 192.0, 0.0, 48.0, 30.0, 0.0, 8.0, 64.0, 0.0, 0.0, 0.0, 1.687802661089218E9, 0.0, 2023-06-26 13:04:21.089
163.0, 45105.395627665, 47961.92621730879, 52887.401328969165, -5818.62846834999, -7965.111191882038, -11884.06489897548, 16949.417227437167, 11403.703558886476, 0.006, 0.96, 0.264, 192.0, 0.0, 0.0, 0.0, 0.0, 0.0, 0.0, 0.0, 0.0, 0.0, 1.6878026610932512E9, 0.0, 2023-06-26 13:04:21.093
164.0, 45115.00687778078, 47980.9252000958, 51187.14883174287, -5788.408909846415, -7914.976229068784, -11850.716096248163, 17005.765975208997, 11449.12230361966, 0.006, 0.96, 0.264, 192.0, 0.0, 0.0, 0.0, 0.0, 0.0, 0.0, 0.0, 0.0, 0.0, 1.687802661096347E9, 0.0, 2023-06-26 13:04:21.096
165.0, 45108.234299210824, 47992.413996745825, 52823.34122936025, -5865.053041583663, -7970.944997184873, -11950.248414307645, 16930.15002371669, 11346.617203547621, 0.006, 0.96, 0.264, 192.0, 0.0, 0.0, 0.0, 0.0, 0.0, 0.0, 0.0, 0.0, 0.0, 1.6878026611002953E9, 0.0, 2023-06-26 13:04:21.100
166.0, 45064.894266711985, 47953.07492650449, 54995.95314216056, -5914.808024741176, -8022.756340832275, -11998.952865475758, 16874.06949687833, 11300.505554736323, 0.006, 0.96, 0.264, 192.0, 0.0, 0.0, 0.0, 0.0, 0.0, 0.0, 0.0, 0.0, 0.0, 1.6878026611043048E9, 0.0, 2023-06-26 13:04:21.104
167.0, 45090.10703445757, 47950.884455547864, 53618.23631742434, -5852.066678055129, -8001.700997555376, -11927.159062285313, 16902.25504663647, 11366.309090412748, 0.006, 0.96, 0.264, 192.0, 0.0, 0.0, 0.0, 0.0, 0.0, 0.0, 0.0, 0.0, 0.0, 1.687802661108425E9, 0.0, 2023-06-26 13:04:21.108
168.0, 45124.77459010775, 47987.83188913249, 51191.46271842274, -5776.249560862728, -7913.724531379286, -11837.975601908636, 17003.88842867475, 11470.825847485763, 0.006, 0.96, 0.264, 192.0, 0.0, 0.0, 0.0, 0.0, 0.0, 0.0, 0.0, 0.0, 0.0, 1.687802661113354E9, 0.0, 2023-06-26 13:04:21.113
169.0, 45109.709514344875, 47993.956267113244, 52537.28360382123, -5853.899521100464, -7968.19573261687, -11940.927736869782, 16937.995486020503, 11365.079744467706, 0.006, 0.96, 0.264, 192.0, 0.0, 0.0, 0.0, 0.0, 0.0, 0.0, 0.0, 0.0, 0.0, 1.6878026611173828E9, 0.0, 2023-06-26 13:04:21.117
170.0, 45081.21104016436, 47970.889266835366, 54735.28709832276, -5902.671027501944, -8013.927401772428, -11995.108365429445, 16895.415412833147, 11316.442348532957, 0.006, 0.96, 0.264, 192.0, 0.0, 0.0, 0.0, 0.0, 0.0, 0.0, 0.0, 0.0, 0.0, 1.6878026611203952E9, 0.0, 2023-06-26 13:04:21.120
171.0, 45099.24889793979, 47961.792106842055, 54199.13580407332, -5855.151218789962, -8005.791366790697, -11929.595402430941, 16915.040244464904, 11367.001994490862, 0.006, 0.96, 0.264, 192.0, 0.0, 0.0, 0.0, 0.0, 0.0, 0.0, 0.0, 0.0, 0.0, 1.6878026611243997E9, 0.0, 2023-06-26 13:04:21.124
172.0, 45139.99612808182, 47994.246839791165, 51241.24005332471, -5766.906531680409, -7913.344551723547, -11825.637438969308, 17012.00211191203, 11478.693661534031, 0.004, 0.9540000000000001, 0.258, 192.0, 0.0, 32.0, 29.0, 208.0, 8.0, 16.0, 0.0, 0.0, 0.0, 1.68780266112842E9, 0.0, 2023-06-26 13:04:21.128
173.0, 45123.053505784694, 47994.20213630225, 52195.771300288594, -5843.39420120647, -7958.070392378616, -11914.97736155717, 16954.312259472877, 11388.72789010142, 0.004, 0.9540000000000001, 0.258, 192.0, 0.0, 0.0, 0.0, 0.0, 0.0, 0.0, 0.0, 0.0, 0.0, 1.6878026611344535E9, 0.0, 2023-06-26 13:04:21.134
174.0, 45097.57251710565, 47977.86301110542, 54344.69036396627, -5905.97908568133, -8008.317113914146, -11981.965539689725, 16891.77207848693, 11321.806767202232, 0.004, 0.9540000000000001, 0.258, 192.0, 0.0, 0.0, 0.0, 0.0, 0.0, 0.0, 0.0, 0.0, 0.0, 1.6878026611374345E9, 0.0, 2023-06-26 13:04:21.137
175.0, 45084.183822176914, 47945.25181594513, 54701.200688028424, -5896.971332665841, -8026.5337856452215, -11951.187187574767, 16895.77304074443, 11350.931090227496, 0.004, 0.9540000000000001, 0.258, 192.0, 0.0, 0.0, 0.0, 0.0, 0.0, 0.0, 0.0, 0.0, 0.0, 1.6878026611404812E9, 0.0, 2023-06-26 13:04:21.140
176.0, 45142.655985672, 47986.69195016527, 51499.067425616675, -5779.311749853105, -7922.598173928043, -11815.556802219964, 17008.336425821355, 11494.69751056403, 0.004, 0.9540000000000001, 0.258, 192.0, 0.0, 0.0, 0.0, 0.0, 0.0, 0.0, 0.0, 0.0, 0.0, 1.6878026611454897E9, 0.0, 2023-06-26 13:04:21.145
177.0, 45127.63561339803, 47990.44704323376, 51888.56892449486, -5839.102666271051, -7946.4698370063115, -11876.73352679414, 16981.201408052613, 11438.460521514478, 0.004, 0.9540000000000001, 0.258, 192.0, 0.0, 0.0, 0.0, 0.0, 0.0, 0.0, 0.0, 0.0, 0.0, 1.6878026611484978E9, 0.0, 2023-06-26 13:04:21.148
178.0, 45106.60262186559, 47984.18855478628, 53923.67290540611, -5915.277411374737, -7999.935209743406, -11968.956824416737, 16910.63695080721, 11339.039962177272, 0.004, 0.9540000000000001, 0.258, 192.0, 0.0, 0.0, 0.0, 0.0, 0.0, 0.0, 0.0, 0.0, 0.0, 1.687802661152527E9, 0.0, 2023-06-26 13:04:21.152
179.0, 45079.78052851922, 47945.58709211196, 55035.448674613086, -5927.8837952475305, -8033.082846770627, -11969.381507561387, 16896.085965166803, 11340.33636335568, 0.004, 0.9540000000000001, 0.258, 192.0, 0.0, 0.0, 0.0, 0.0, 0.0, 0.0, 0.0, 0.0, 0.0, 1.6878026611565433E9, 0.0, 2023-06-26 13:04:21.156
180.0, 45147.37220375207, 47993.50923222414, 51901.398825812204, -5802.870488508998, -7938.669078191409, -11834.667543729252, 16999.932169906162, 11468.188341640038, 0.004, 0.9540000000000001, 0.258, 192.0, 0.0, 0.0, 0.0, 0.0, 0.0, 0.0, 0.0, 0.0, 0.0, 1.6878026611605625E9, 0.0, 2023-06-26 13:04:21.160
181.0, 45138.990299581325, 48006.13796784139, 51614.7824066618, -5825.781026575688, -7932.947031610851, -11856.974584695648, 17010.035158399958, 11456.185454867536, 0.004, 0.9540000000000001, 0.258, 192.0, 0.0, 0.0, 0.0, 0.0, 0.0, 0.0, 0.0, 0.0, 0.0, 1.687802661164575E9, 0.0, 2023-06-26 13:04:21.164
182.0, 45134.385840223535, 48018.09615112498, 53504.22006895782, -5889.952884906875, -7983.283160124202, -11952.528292242087, 16937.324933686847, 11354.10503794015, 0.004, 0.9560000000000001, 0.256, 192.0, 0.0, 32.0, 29.0, 224.0, 8.0, 0.0, 0.0, 0.0, 0.0, 1.6878026611685917E9, 0.0, 2023-06-26 13:04:21.168
183.0, 45092.31985715865, 47973.191496514264, 55183.19370546266, -5916.037370686218, -8033.552233404188, -11968.50978952763, 16908.267665894946, 11344.359677357636, 0.004, 0.9560000000000001, 0.256, 192.0, 0.0, 0.0, 0.0, 0.0, 0.0, 0.0, 0.0, 0.0, 0.0, 1.6878026611736472E9, 0.0, 2023-06-26 13:04:21.173
184.0, 45161.05147135872, 48018.140854613885, 52447.78721902218, -5794.488584338258, -7951.946014397862, -11843.362372322366, 16997.205257082613, 11460.588748525233, 0.004, 0.9560000000000001, 0.256, 192.0, 0.0, 0.0, 0.0, 0.0, 0.0, 0.0, 0.0, 0.0, 0.0, 1.6878026611766372E9, 0.0, 2023-06-26 13:04:21.176
185.0, 45161.654968459006, 48035.8881397114, 51406.374741360516, -5783.916209210898, -7915.669133146898, -11829.928973904727, 17038.868908747307, 11482.784030769353, 0.004, 0.9560000000000001, 0.256, 192.0, 0.0, 0.0, 0.0, 0.0, 0.0, 0.0, 0.0, 0.0, 0.0, 1.6878026611796527E9, 0.0, 2023-06-26 13:04:21.179
186.0, 45149.96500610888, 48041.498427569684, 53153.409439731775, -5864.628358439012, -7978.276369366214, -11943.207614804223, 16948.143178003214, 11355.557901329745, 0.004, 0.9560000000000001, 0.256, 192.0, 0.0, 0.0, 0.0, 0.0, 0.0, 0.0, 0.0, 0.0, 0.0, 1.6878026611846817E9, 0.0, 2023-06-26 13:04:21.184
187.0, 45118.15847374898, 48010.518909754624, 55130.95767867061, -5898.2453820997935, -8021.951678031884, -11975.41647856432, 16902.143287914194, 11322.790243958265, 0.004, 0.9560000000000001, 0.256, 192.0, 0.0, 0.0, 0.0, 0.0, 0.0, 0.0, 0.0, 0.0, 0.0, 1.6878026611887E9, 0.0, 2023-06-26 13:04:21.188
188.0, 45166.4605935169, 48030.41196231985, 53056.98401415158, -5804.43511062087, -7974.186000130892, -11875.794753527016, 16956.68154438514, 11413.314809002259, 0.004, 0.9560000000000001, 0.256, 192.0, 0.0, 0.0, 0.0, 0.0, 0.0, 0.0, 0.0, 0.0, 0.0, 1.6878026611927254E9, 0.0, 2023-06-26 13:04:21.192
189.0, 45170.461555774404, 48038.97268044623, 51242.87173066995, -5771.645101504934, -7920.631220415977, -11833.371142550845, 17015.64544625824, 11471.876379475163, 0.004, 0.9560000000000001, 0.256, 192.0, 0.0, 0.0, 0.0, 0.0, 0.0, 0.0, 0.0, 0.0, 0.0, 1.6878026611967428E9, 0.0, 2023-06-26 13:04:21.196
190.0, 45162.70550044841, 48051.84728525249, 52808.52202278638, -5853.184265277894, -7977.248189121269, -11942.2688415371, 16935.06740749686, 11353.926223984507, 0.004, 0.9560000000000001, 0.256, 192.0, 0.0, 0.0, 0.0, 0.0, 0.0, 0.0, 0.0, 0.0, 0.0, 1.687802661200768E9, 0.0, 2023-06-26 13:04:21.200
191.0, 45127.79207560922, 48025.069895395034, 54954.691821896056, -5896.524297776735, -8025.527957144733, -11990.190981649279, 16886.944101684585, 11307.90398215103, 0.004, 0.9560000000000001, 0.256, 192.0, 0.0, 0.0, 0.0, 0.0, 0.0, 0.0, 0.0, 0.0, 0.0, 1.6878026612057981E9, 0.0, 2023-06-26 13:04:21.205
192.0, 45156.11173583409, 48024.153473872364, 53730.95616471245, -5830.743113844766, -8005.545497601688, -11912.69748362273, 16918.504764855476, 11374.15455271656, 0.002, 0.964, 0.258, 192.0, 0.0, 16.0, 30.0, 32.0, 8.0, 16.0, 0.0, 0.0, 0.0, 1.687802661208797E9, 0.0, 2023-06-26 13:04:21.208
193.0, 45187.09125364915, 48055.22239866524, 51212.22748902172, -5754.0766303630635, -7922.978153583784, -11825.77154943604, 17010.191620611145, 11476.32437662177, 0.002, 0.964, 0.258, 192.0, 0.0, 0.0, 0.0, 0.0, 0.0, 0.0, 0.0, 0.0, 0.0, 1.6878026612118256E9, 0.0, 2023-06-26 13:04:21.211
194.0, 45170.61801798559, 48058.82102952254, 52492.758928866264, -5833.3806196904925, -7978.477535066311, -11926.421454718287, 16940.476529655043, 11373.104020727162, 0.002, 0.964, 0.258, 192.0, 0.0, 0.0, 0.0, 0.0, 0.0, 0.0, 0.0, 0.0, 0.0, 1.68780266121683E9, 0.0, 2023-06-26 13:04:21.216
195.0, 45148.869770630576, 48043.733602015214, 54641.11919893255, -5881.347463291581, -8017.481329140822, -11980.535028044585, 16886.452363306566, 11314.698912465443, 0.002, 0.964, 0.258, 192.0, 0.0, 0.0, 0.0, 0.0, 0.0, 0.0, 0.0, 0.0, 0.0, 1.687802661220877E9, 0.0, 2023-06-26 13:04:21.220
196.0, 45156.80463991221, 48027.17095937383, 54293.638979630356, -5840.443770938369, -8020.722332086842, -11937.306754268022, 16903.48439258151, 11346.952479714451, 0.002, 0.964, 0.258, 192.0, 0.0, 0.0, 0.0, 0.0, 0.0, 0.0, 0.0, 0.0, 0.0, 1.6878026612248788E9, 0.0, 2023-06-26 13:04:21.224
197.0, 45194.84730897514, 48060.7432795457, 51302.86381278799, -5739.950327867309, -7925.772121640697, -11818.797805165983, 17014.483155546564, 11483.678100547564, 0.002, 0.964, 0.258, 192.0, 0.0, 0.0, 0.0, 0.0, 0.0, 0.0, 0.0, 0.0, 0.0, 1.6878026612289143E9, 0.0, 2023-06-26 13:04:21.228
198.0, 45173.747262209334, 48061.19031443481, 52156.789857958545, -5816.885032282476, -7960.774953457708, -11901.49925965062, 16961.286003742935, 11399.367320462146, 0.002, 0.964, 0.258, 192.0, 0.0, 0.0, 0.0, 0.0, 0.0, 0.0, 0.0, 0.0, 0.0, 1.6878026612319124E9, 0.0, 2023-06-26 13:04:21.231
199.0, 45158.369262024076, 48053.47896259773, 54226.62844975334, -5876.139506833495, -8002.416253377945, -11976.80228672055, 16895.415412833147, 11308.015740873307, 0.002, 0.964, 0.258, 192.0, 0.0, 0.0, 0.0, 0.0, 0.0, 0.0, 0.0, 0.0, 0.0, 1.687802661235942E9, 0.0, 2023-06-26 13:04:21.235
200.0, 45145.49465721782, 48020.55484301506, 54758.77878174529, -5863.711936916344, -8023.963335032861, -11937.194995545746, 16898.455250079067, 11358.709497297943, 0.002, 0.964, 0.258, 192.0, 0.0, 0.0, 0.0, 0.0, 0.0, 0.0, 0.0, 0.0, 0.0, 1.6878026612399588E9, 0.0, 2023-06-26 13:04:21.239
201.0, 45200.099968922135, 48058.26223591116, 51566.1226589826, -5750.299185550116, -7928.342572253057, -11807.197249793679, 17004.000187397025, 11497.022091987383, 0.002, 0.964, 0.258, 192.0, 0.0, 0.0, 0.0, 0.0, 0.0, 0.0, 0.0, 0.0, 0.0, 1.6878026612449892E9, 0.0, 2023-06-26 13:04:21.244
202.0, 45181.34685532413, 48058.53045684462, 51843.19488325058, -5807.296133911149, -7947.81094167363, -11870.54209358002, 16983.36952726478, 11440.807454682286, 0.002, 0.964, 0.258, 192.0, 0.0, 0.0, 0.0, 0.0, 0.0, 0.0, 0.0, 0.0, 0.0, 1.6878026612489977E9, 0.0, 2023-06-26 13:04:21.248
203.0, 45161.34204403663, 48048.04748869509, 53827.98508739294, -5882.330940047615, -8002.975046989328, -11969.381507561387, 16910.122860684736, 11333.697895252455, 0.004, 0.9580000000000001, 0.26, 192.0, 0.0, 32.0, 29.0, 240.0, 8.0, 32.0, 0.0, 0.0, 0.0, 1.687802661253018E9, 0.0, 2023-06-26 13:04:21.253
204.0, 45128.90966283198, 48001.287639294584, 55061.644919114704, -5897.3066088326705, -8038.06728578416, -11969.113286627924, 16901.45038383608, 11334.659020264033, 0.004, 0.9580000000000001, 0.26, 192.0, 0.0, 0.0, 0.0, 0.0, 0.0, 0.0, 0.0, 0.0, 0.0, 1.6878026612570443E9, 0.0, 2023-06-26 13:04:21.257
205.0, 45189.16996588349, 48040.29143336909, 52006.45202475214, -5779.579970786568, -7952.549511498155, -11842.781226966528, 16993.31605354739, 11459.940547936028, 0.004, 0.9580000000000001, 0.26, 192.0, 0.0, 0.0, 0.0, 0.0, 0.0, 0.0, 0.0, 0.0, 0.0, 1.687802661260054E9, 0.0, 2023-06-26 13:04:21.260
206.0, 45174.68603547645, 48046.393459605395, 51596.76690063082, -5802.4458053643475, -7938.534967724678, -11862.62957604284, 17012.42679505668, 11456.498379289911, 0.004, 0.9580000000000001, 0.26, 192.0, 0.0, 0.0, 0.0, 0.0, 0.0, 0.0, 0.0, 0.0, 0.0, 1.687802661264084E9, 0.0, 2023-06-26 13:04:21.264
207.0, 45164.3595295381, 48051.19908466328, 53442.864530428, -5875.357195777559, -7993.877886996018, -11966.118152870913, 16926.707855070574, 11337.989430187874, 0.004, 0.9580000000000001, 0.26, 192.0, 0.0, 0.0, 0.0, 0.0, 0.0, 0.0, 0.0, 0.0, 0.0, 1.687802661271126E9, 0.0, 2023-06-26 13:04:21.271
208.0, 45134.43054371244, 48015.570404001526, 55171.81666753491, -5895.563172765157, -8026.377323434034, -11978.322205343511, 16903.01500594795, 11317.470528777902, 0.004, 0.9580000000000001, 0.26, 192.0, 0.0, 0.0, 0.0, 0.0, 0.0, 0.0, 0.0, 0.0, 0.0, 1.6878026612741292E9, 0.0, 2023-06-26 13:04:21.274
209.0, 45190.37696008408, 48044.0912299265, 52543.96677541337, -5789.928828469376, -7960.730249968798, -11859.612090541374, 16980.93318711915, 11431.30796328878, 0.004, 0.9580000000000001, 0.26, 192.0, 0.0, 0.0, 0.0, 0.0, 0.0, 0.0, 0.0, 0.0, 0.0, 1.6878026612771451E9, 0.0, 2023-06-26 13:04:21.277
210.0, 45186.42070131549, 48052.98722421971, 51341.53233069567, -5783.33506385506, -7931.0918368210605, -11841.194253110201, 17017.478289303577, 11468.300100362314, 0.004, 0.9580000000000001, 0.26, 192.0, 0.0, 0.0, 0.0, 0.0, 0.0, 0.0, 0.0, 0.0, 0.0, 1.687802661281212E9, 0.0, 2023-06-26 13:04:21.281
211.0, 45178.10585237812, 48059.536285345115, 53054.748839706044, -5865.522428217224, -7986.702977025864, -11949.51080674062, 16934.285096440923, 11347.108941925639, 0.004, 0.9580000000000001, 0.26, 192.0, 0.0, 0.0, 0.0, 0.0, 0.0, 0.0, 0.0, 0.0, 0.0, 1.687802661285233E9, 0.0, 2023-06-26 13:04:21.285
212.0, 45144.28766301724, 48024.04171515009, 55090.99275958452, -5902.894544946497, -8026.377323434034, -11977.092859398468, 16895.303654110867, 11319.437482289968, 0.004, 0.9580000000000001, 0.26, 192.0, 0.0, 0.0, 0.0, 0.0, 0.0, 0.0, 0.0, 0.0, 0.0, 1.6878026612882216E9, 0.0, 2023-06-26 13:04:21.288
213.0, 45187.247715860336, 48038.52564555713, 53176.72230919866, -5818.427302649892, -7984.467802580333, -11884.511933864587, 16941.72822734454, 11400.663721640554, 0.002, 0.9540000000000001, 0.26, 192.0, 0.0, 16.0, 29.0, 208.0, 8.0, 32.0, 0.0, 0.0, 0.0, 1.6878026612923305E9, 0.0, 2023-06-26 13:04:21.292
214.0, 45202.960992212415, 48064.02898598063, 51211.80280587707, -5767.465325291792, -7916.607906414021, -11823.134043590313, 17012.069167145393, 11474.133905665149, 0.002, 0.9540000000000001, 0.26, 192.0, 0.0, 0.0, 0.0, 0.0, 0.0, 0.0, 0.0, 0.0, 0.0, 1.6878026612962363E9, 0.0, 2023-06-26 13:04:21.296
215.0, 45188.432358316466, 48067.024119737645, 52716.32107690824, -5848.803323364655, -7973.940130941884, -11927.159062285313, 16925.21028819207, 11357.658965308543, 0.002, 0.9540000000000001, 0.26, 192.0, 0.0, 0.0, 0.0, 0.0, 0.0, 0.0, 0.0, 0.0, 0.0, 1.6878026613002634E9, 0.0, 2023-06-26 13:04:21.300
216.0, 45158.81629691319, 48039.12914265742, 54855.94181489251, -5880.587503980101, -8009.747625559286, -11963.346536558454, 16893.694328510086, 11319.437482289968, 0.002, 0.9540000000000001, 0.26, 192.0, 0.0, 0.0, 0.0, 0.0, 0.0, 0.0, 0.0, 0.0, 0.0, 1.6878026613042674E9, 0.0, 2023-06-26 13:04:21.304
217.0, 45181.23509660186, 48035.977546689224, 53806.84033713822, -5826.116302742517, -7999.4881748543, -11906.30488470851, 16925.366750403256, 11372.478171882412, 0.002, 0.9540000000000001, 0.26, 192.0, 0.0, 0.0, 0.0, 0.0, 0.0, 0.0, 0.0, 0.0, 0.0, 1.687802661309277E9, 0.0, 2023-06-26 13:04:21.309
218.0, 45214.0698092067, 48068.052299982584, 51204.15850927336, -5745.47120874777, -7926.934412352373, -11809.186555050203, 17011.17509736718, 11481.88996099114, 0.002, 0.9540000000000001, 0.26, 192.0, 0.0, 0.0, 0.0, 0.0, 0.0, 0.0, 0.0, 0.0, 0.0, 1.6878026613133204E9, 0.0, 2023-06-26 13:04:21.313
219.0, 45203.85506199063, 48074.75782331918, 52391.99726486174, -5828.016201021219, -7966.117020382527, -11909.747053354627, 16945.5503756464, 11373.998090505373, 0.002, 0.9540000000000001, 0.26, 192.0, 0.0, 0.0, 0.0, 0.0, 0.0, 0.0, 0.0, 0.0, 0.0, 1.6878026613163378E9, 0.0, 2023-06-26 13:04:21.316
220.0, 45180.7657099683, 48059.804506278575, 54511.74730202524, -5889.885829673509, -8015.000285506283, -11977.070507654013, 16881.28911033739, 11304.864144905108, 0.002, 0.9540000000000001, 0.26, 192.0, 0.0, 0.0, 0.0, 0.0, 0.0, 0.0, 0.0, 0.0, 0.0, 1.6878026613203464E9, 0.0, 2023-06-26 13:04:21.320
221.0, 45178.6646459895, 48038.95032870178, 54369.18787588929, -5852.804285622155, -8019.247116952792, -11924.78977737305, 16900.891590224695, 11358.396572875568, 0.002, 0.9540000000000001, 0.26, 192.0, 0.0, 0.0, 0.0, 0.0, 0.0, 0.0, 0.0, 0.0, 0.0, 1.6878026613243728E9, 0.0, 2023-06-26 13:04:21.324
222.0, 45204.23504164637, 48056.42939286583, 51323.7626938537, -5744.532435480647, -7917.5913831700545, -11804.559743947953, 17010.661007244707, 11486.852048260218, 0.002, 0.9540000000000001, 0.26, 192.0, 0.0, 0.0, 0.0, 0.0, 0.0, 0.0, 0.0, 0.0, 0.0, 1.687802661328392E9, 0.0, 2023-06-26 13:04:21.328
223.0, 45190.175794383984, 48063.64900632489, 52099.07765377494, -5815.096892726051, -7957.645709233965, -11890.435146145242, 16963.92350958866, 11399.568486162245, 0.004, 0.9540000000000001, 0.264, 192.0, 0.0, 32.0, 29.0, 208.0, 8.0, 64.0, 0.0, 0.0, 0.0, 1.6878026613324313E9, 0.0, 2023-06-26 13:04:21.332
224.0, 45175.982436654864, 48062.55377084658, 54131.61118407383, -5876.854762656065, -8008.518279614244, -11968.152161616346, 16899.01404369045, 11312.19551708645, 0.004, 0.9540000000000001, 0.264, 192.0, 0.0, 0.0, 0.0, 0.0, 0.0, 0.0, 0.0, 0.0, 0.0, 1.687802661337433E9, 0.0, 2023-06-26 13:04:21.337
225.0, 45144.98056709535, 48016.55388075756, 54828.024486067836, -5874.708995188355, -8037.508492172778, -11949.60021371844, 16889.06751740784, 11337.341229598669, 0.004, 0.9540000000000001, 0.264, 192.0, 0.0, 0.0, 0.0, 0.0, 0.0, 0.0, 0.0, 0.0, 0.0, 1.6878026613404388E9, 0.0, 2023-06-26 13:04:21.340
226.0, 45204.05622769073, 48058.843381267, 51636.84357843919, -5754.769534441178, -7937.730304924286, -11816.115595831347, 16997.40642278271, 11479.69949003452, 0.004, 0.9540000000000001, 0.264, 192.0, 0.0, 0.0, 0.0, 0.0, 0.0, 0.0, 0.0, 0.0, 0.0, 1.6878026613434632E9, 0.0, 2023-06-26 13:04:21.343
227.0, 45179.73752972335, 48056.42939286583, 51827.21338596504, -5803.429282120381, -7950.76137194173, -11867.748125523107, 16986.632881955255, 11436.135940091126, 0.004, 0.9540000000000001, 0.264, 192.0, 0.0, 0.0, 0.0, 0.0, 0.0, 0.0, 0.0, 0.0, 0.0, 1.6878026613474674E9, 0.0, 2023-06-26 13:04:21.347
228.0, 45165.70063420542, 48057.23405566622, 53757.01829874734, -5873.636111454501, -8003.824413278629, -11963.324184813999, 16917.409529377168, 11331.865052207118, 0.004, 0.9540000000000001, 0.264, 192.0, 0.0, 0.0, 0.0, 0.0, 0.0, 0.0, 0.0, 0.0, 0.0, 1.687802661352491E9, 0.0, 2023-06-26 13:04:21.352
229.0, 45133.93880533443, 48015.86097667945, 55102.88388763474, -5891.629265741023, -8043.2081870088805, -11970.65555699534, 16894.83426747731, 11323.080816636184, 0.004, 0.9540000000000001, 0.264, 192.0, 0.0, 0.0, 0.0, 0.0, 0.0, 0.0, 0.0, 0.0, 0.0, 1.6878026613565023E9, 0.0, 2023-06-26 13:04:21.356
230.0, 45199.205899143926, 48056.541151588106, 52104.97851431114, -5770.169886370884, -7952.437752775879, -11836.031000141025, 16984.732983676553, 11451.379829809646, 0.004, 0.9540000000000001, 0.264, 192.0, 0.0, 0.0, 0.0, 0.0, 0.0, 0.0, 0.0, 0.0, 0.0, 1.6878026613605623E9, 0.0, 2023-06-26 13:04:21.360
231.0, 45183.44791930293, 48059.29041615611, 51566.79321131625, -5787.693654023845, -7937.23856654627, -11849.77732298104, 17004.424870541676, 11452.229196098948, 0.004, 0.9540000000000001, 0.264, 192.0, 0.0, 0.0, 0.0, 0.0, 0.0, 0.0, 0.0, 0.0, 0.0, 1.6878026613645663E9, 0.0, 2023-06-26 13:04:21.364
232.0, 45176.205954099416, 48066.33121565953, 53376.25633195118, -5858.3251665026155, -7988.222895648825, -11948.974364873691, 16930.261782438967, 11344.605546546645, 0.004, 0.9540000000000001, 0.264, 192.0, 0.0, 0.0, 0.0, 0.0, 0.0, 0.0, 0.0, 0.0, 0.0, 1.6878026613685687E9, 0.0, 2023-06-26 13:04:21.368
233.0, 45142.67833741645, 48028.57911927452, 55168.44155412216, -5884.655521470967, -8023.851576310584, -11963.70416446974, 16902.478564081022, 11326.701799237944, 0.008, 0.9580000000000001, 0.266, 192.0, 0.0, 64.0, 29.0, 240.0, 8.0, 80.0, 0.0, 0.0, 0.0, 1.6878026613716056E9, 0.0, 2023-06-26 13:04:21.371
234.0, 45199.89880322204, 48060.05037546759, 52682.636998014095, -5782.999787688231, -7963.367755814524, -11854.672355016752, 16963.588233421833, 11428.290477787314, 0.008, 0.9580000000000001, 0.266, 192.0, 0.0, 0.0, 0.0, 0.0, 0.0, 0.0, 0.0, 0.0, 0.0, 1.6878026613756292E9, 0.0, 2023-06-26 13:04:21.375
235.0, 45204.927945724485, 48079.809317566076, 51345.84621737555, -5762.078554878063, -7911.243487744748, -11824.788072680007, 17016.763033481006, 11478.671309789575, 0.008, 0.9580000000000001, 0.266, 192.0, 0.0, 0.0, 0.0, 0.0, 0.0, 0.0, 0.0, 0.0, 0.0, 1.6878026613806398E9, 0.0, 2023-06-26 13:04:21.380
236.0, 45185.70544549292, 48075.38367216393, 53020.55067068943, -5853.6313001670005, -7978.276369366214, -11943.922870626793, 16920.44936662309, 11343.130331412594, 0.008, 0.9580000000000001, 0.266, 192.0, 0.0, 0.0, 0.0, 0.0, 0.0, 0.0, 0.0, 0.0, 0.0, 1.6878026613846653E9, 0.0, 2023-06-26 13:04:21.384
237.0, 45153.183657310445, 48043.75595375967, 55064.84121857181, -5887.807117439165, -8019.515337886255, -11973.427173307799, 16882.63021500471, 11311.435557774968, 0.008, 0.9580000000000001, 0.266, 192.0, 0.0, 0.0, 0.0, 0.0, 0.0, 0.0, 0.0, 0.0, 0.0, 1.6878026613886845E9, 0.0, 2023-06-26 13:04:21.388
238.0, 45193.528556052275, 48059.58098883402, 53331.99987792968, -5809.1960321898505, -7977.069375165627, -11880.667433818273, 16931.133500472726, 11397.579180905723, 0.008, 0.9580000000000001, 0.266, 192.0, 0.0, 0.0, 0.0, 0.0, 0.0, 0.0, 0.0, 0.0, 0.0, 1.687802661392704E9, 0.0, 2023-06-26 13:04:21.392
239.0, 45203.452730590434, 48075.92011403086, 51267.36924259296, -5765.945406668831, -7910.416473199902, -11817.367293520843, 17003.262579830003, 11479.878303990163, 0.008, 0.9580000000000001, 0.266, 192.0, 0.0, 0.0, 0.0, 0.0, 0.0, 0.0, 0.0, 0.0, 0.0, 1.6878026613957326E9, 0.0, 2023-06-26 13:04:21.395
240.0, 45191.24867811784, 48084.03379726813, 52712.18600418401, -5849.272709998216, -7967.435773305389, -11922.286381994056, 16925.277343425434, 11367.29256716878, 0.008, 0.9580000000000001, 0.266, 192.0, 0.0, 0.0, 0.0, 0.0, 0.0, 0.0, 0.0, 0.0, 0.0, 1.687802661399722E9, 0.0, 2023-06-26 13:04:21.399
241.0, 45156.53641897874, 48056.675262054836, 54840.34029726271, -5900.212335611861, -8011.759282560263, -11976.958748931736, 16879.545674269877, 11310.005046129829, 0.008, 0.9580000000000001, 0.266, 192.0, 0.0, 0.0, 0.0, 0.0, 0.0, 0.0, 0.0, 0.0, 0.0, 1.687802661403762E9, 0.0, 2023-06-26 13:04:21.403
242.0, 45185.347817581634, 48058.73162254472, 53963.32490006983, -5840.48847442728, -7992.827355006619, -11905.656684119307, 16908.82645950633, 11370.801791048265, 0.008, 0.9580000000000001, 0.266, 192.0, 0.0, 0.0, 0.0, 0.0, 0.0, 0.0, 0.0, 0.0, 0.0, 1.6878026614077914E9, 0.0, 2023-06-26 13:04:21.407
243.0, 45212.5722423282, 48084.503183901696, 51261.75895473468, -5762.61499674499, -7908.829499343575, -11812.807537651961, 17000.759184451006, 11483.164010425093, 0.008, 0.9540000000000001, 0.26, 192.0, 0.0, 64.0, 29.0, 208.0, 8.0, 32.0, 0.0, 0.0, 0.0, 1.6878026614128113E9, 0.0, 2023-06-26 13:04:21.412
244.0, 45191.56160254021, 48085.46430891327, 52395.08180559657, -5842.410724450437, -7951.409572530934, -11911.490489422142, 16950.78068384894, 11383.810506321253, 0.008, 0.9540000000000001, 0.26, 192.0, 0.0, 0.0, 0.0, 0.0, 0.0, 0.0, 0.0, 0.0, 0.0, 1.6878026614168167E9, 0.0, 2023-06-26 13:04:21.416
245.0, 45171.53443950826, 48074.46725064126, 54470.01659512718, -5892.031597141218, -7994.4366806074, -11970.856722695438, 16893.24729362098, 11323.90783118103, 0.008, 0.9540000000000001, 0.26, 192.0, 0.0, 0.0, 0.0, 0.0, 0.0, 0.0, 0.0, 0.0, 0.0, 1.6878026614208367E9, 0.0, 2023-06-26 13:04:21.420
246.0, 45169.16515459599, 48053.031927708624, 54509.847403746535, -5868.2493410407715, -8010.328770915124, -11935.004524589125, 16891.95089244257, 11351.892215239075, 0.008, 0.9540000000000001, 0.26, 192.0, 0.0, 0.0, 0.0, 0.0, 0.0, 0.0, 0.0, 0.0, 0.0, 1.6878026614238532E9, 0.0, 2023-06-26 13:04:21.423
247.0, 45222.38465814408, 48097.02016079667, 51417.52826184372, -5756.445915275325, -7899.352359694524, -11809.09714807238, 17008.291722332444, 11487.209676171504, 0.008, 0.9540000000000001, 0.26, 192.0, 0.0, 0.0, 0.0, 0.0, 0.0, 0.0, 0.0, 0.0, 0.0, 1.6878026614278517E9, 0.0, 2023-06-26 13:04:21.427
248.0, 45195.94254445345, 48094.09208227302, 52086.78419432452, -5827.5691661321125, -7936.344496768057, -11890.368090911878, 16961.107189787293, 11408.911515344564, 0.008, 0.9540000000000001, 0.26, 192.0, 0.0, 0.0, 0.0, 0.0, 0.0, 0.0, 0.0, 0.0, 0.0, 1.687802661431873E9, 0.0, 2023-06-26 13:04:21.431
249.0, 45183.44791930293, 48092.41570143887, 54083.30906430591, -5881.526277247224, -7976.622340276521, -11960.329051056988, 16905.093718182292, 11330.859223706631, 0.008, 0.9540000000000001, 0.26, 192.0, 0.0, 0.0, 0.0, 0.0, 0.0, 0.0, 0.0, 0.0, 0.0, 1.6878026614359276E9, 0.0, 2023-06-26 13:04:21.435
250.0, 45164.448936515924, 48059.536285345115, 54908.758987040404, -5878.218219067839, -8003.86911676754, -11944.74988517164, 16897.20355238957, 11343.465607579423, 0.008, 0.9540000000000001, 0.26, 192.0, 0.0, 0.0, 0.0, 0.0, 0.0, 0.0, 0.0, 0.0, 0.0, 1.68780266144094E9, 0.0, 2023-06-26 13:04:21.440
251.0, 45217.936660997475, 48098.13774801943, 51744.69074543605, -5765.09604037953, -7909.298885977136, -11818.507232488064, 16995.819448926384, 11470.17764689656, 0.008, 0.9540000000000001, 0.26, 192.0, 0.0, 0.0, 0.0, 0.0, 0.0, 0.0, 0.0, 0.0, 0.0, 1.6878026614449587E9, 0.0, 2023-06-26 13:04:21.444
252.0, 45201.642239289555, 48103.7033323888, 51804.54871708736, -5801.194107674851, -7915.289153491159, -11857.242805629112, 16986.230550555058, 11437.477044758445, 0.008, 0.9540000000000001, 0.26, 192.0, 0.0, 0.0, 0.0, 0.0, 0.0, 0.0, 0.0, 0.0, 0.0, 1.6878026614489844E9, 0.0, 2023-06-26 13:04:21.448
253.0, 45192.52272755179, 48107.41372196838, 53698.143803852065, -5867.042346840185, -7969.402726817457, -11948.929661384782, 16904.847848993286, 11335.731903997887, 0.008, 0.9540000000000001, 0.26, 192.0, 0.0, 0.0, 0.0, 0.0, 0.0, 0.0, 0.0, 0.0, 0.0, 1.6878026614519897E9, 0.0, 2023-06-26 13:04:21.451
254.0, 45159.419794013476, 48067.225285437744, 55146.9168242117, -5883.225009825827, -8003.86911676754, -11954.31643179851, 16885.424183061623, 11327.953496927441, 0.002, 0.9580000000000001, 0.26, 192.0, 0.0, 16.0, 29.0, 240.0, 8.0, 32.0, 0.0, 0.0, 0.0, 1.6878026614560027E9, 0.0, 2023-06-26 13:04:21.456
255.0, 45220.730629054386, 48105.02208531166, 52238.68664964279, -5767.018290402686, -7921.547641938644, -11834.756950707073, 16972.841855626328, 11441.79093143832, 0.002, 0.9580000000000001, 0.26, 192.0, 0.0, 0.0, 0.0, 0.0, 0.0, 0.0, 0.0, 0.0, 0.0, 1.6878026614600115E9, 0.0, 2023-06-26 13:04:21.460
0.0, 45203.36332361261, 48103.94920157781, 51550.789362286254, -5787.917171468398, -7910.215307499803, -11851.945442193204, 16986.83404765535, 11438.237004069926, 0.002, 0.9580000000000001, 0.26, 192.0, 0.0, 0.0, 0.0, 0.0, 0.0, 0.0, 0.0, 0.0, 0.0, 1.6878026614640572E9, 0.0, 2023-06-26 13:04:21.464
1.0, 45200.7705212558, 48116.66734417288, 53316.7336364667, -5864.002509594263, -7962.630148247498, -11947.990888117658, 16905.361939115755, 11338.90585171054, 0.002, 0.9580000000000001, 0.26, 192.0, 0.0, 0.0, 0.0, 0.0, 0.0, 0.0, 0.0, 0.0, 0.0, 1.6878026614680676E9, 0.0, 2023-06-26 13:04:21.468
2.0, 45167.377015039565, 48080.45751815528, 55170.38615588977, -5885.795460438188, -7999.890506254495, -11958.98794638967, 16882.47375279352, 11327.99820041635, 0.002, 0.9580000000000001, 0.26, 192.0, 0.0, 0.0, 0.0, 0.0, 0.0, 0.0, 0.0, 0.0, 0.0, 1.6878026614730697E9, 0.0, 2023-06-26 13:04:21.473
3.0, 45210.96291672742, 48096.28255322964, 52830.89611898615, -5799.093043696052, -7945.5310637391885, -11863.68010803224, 16939.917736043662, 11412.890125857608, 0.002, 0.9580000000000001, 0.26, 192.0, 0.0, 0.0, 0.0, 0.0, 0.0, 0.0, 0.0, 0.0, 0.0, 1.687802661477103E9, 0.0, 2023-06-26 13:04:21.477
4.0, 45221.11060871013, 48118.34372500703, 51347.94728135435, -5768.649967747923, -7894.70319684782, -11826.86678491435, 16996.17707683767, 11463.405068326601, 0.002, 0.9580000000000001, 0.26, 192.0, 0.0, 0.0, 0.0, 0.0, 0.0, 0.0, 0.0, 0.0, 0.0, 1.6878026614801097E9, 0.0, 2023-06-26 13:04:21.480
5.0, 45202.42455034549, 48116.1085505615, 52970.19219043162, -5853.385430977993, -7954.0470783766605, -11938.98313510217, 16905.205476904568, 11340.157549400039, 0.002, 0.9580000000000001, 0.26, 192.0, 0.0, 0.0, 0.0, 0.0, 0.0, 0.0, 0.0, 0.0, 0.0, 1.6878026614842057E9, 0.0, 2023-06-26 13:04:21.484
6.0, 45177.36824481109, 48089.06293977058, 55031.872395500235, -5889.058815128662, -7990.77099451673, -11975.058850653035, 16870.20264508756, 11298.829173902175, 0.002, 0.9580000000000001, 0.26, 192.0, 0.0, 0.0, 0.0, 0.0, 0.0, 0.0, 0.0, 0.0, 0.0, 1.6878026614882238E9, 0.0, 2023-06-26 13:04:21.488
7.0, 45206.20199515844, 48090.918134560365, 53470.088955174564, -5817.823805549599, -7957.757467956241, -11893.609093857896, 16934.419206907656, 11381.307110942258, 0.002, 0.9580000000000001, 0.26, 192.0, 0.0, 0.0, 0.0, 0.0, 0.0, 0.0, 0.0, 0.0, 0.0, 1.687802661492232E9, 0.0, 2023-06-26 13:04:21.492
8.0, 45215.209748173926, 48102.742207377225, 51282.68018754485, -5766.928883424865, -7891.775118324175, -11818.462528999155, 17012.158574123212, 11481.241760401936, 0.002, 0.9540000000000001, 0.256, 192.0, 0.0, 16.0, 29.0, 208.0, 8.0, 0.0, 0.0, 0.0, 0.0, 1.687802661496246E9, 0.0, 2023-06-26 13:04:21.496
9.0, 45206.78314051427, 48113.13576854894, 52655.4796285009, -5843.885939584487, -7944.838159661074, -11916.027893546569, 16939.716570343564, 11379.92130278603, 0.002, 0.9540000000000001, 0.256, 192.0, 0.0, 0.0, 0.0, 0.0, 0.0, 0.0, 0.0, 0.0, 0.0, 1.6878026615002155E9, 0.0, 2023-06-26 13:04:21.500
10.0, 45176.407119799514, 48095.00850379569, 54759.94107245697, -5893.439757041902, -7991.799174761674, -11966.609891248929, 16884.619520261233, 11324.600735259144, 0.002, 0.9540000000000001, 0.256, 192.0, 0.0, 0.0, 0.0, 0.0, 0.0, 0.0, 0.0, 0.0, 0.0, 1.6878026615052412E9, 0.0, 2023-06-26 13:04:21.505
11.0, 45191.427492073475, 48094.94144856232, 54100.676369747685, -5847.01518380823, -7986.568866559132, -11907.98126554266, 16909.25114265098, 11374.48982888339, 0.002, 0.9540000000000001, 0.256, 192.0, 0.0, 0.0, 0.0, 0.0, 0.0, 0.0, 0.0, 0.0, 0.0, 1.6878026615084188E9, 0.0, 2023-06-26 13:04:21.508
12.0, 45222.33995465517, 48128.02203035617, 51318.62179262898, -5759.731621710256, -7894.27851370317, -11807.733691660607, 17004.60368449732, 11484.818039514785, 0.002, 0.9540000000000001, 0.256, 192.0, 0.0, 0.0, 0.0, 0.0, 0.0, 0.0, 0.0, 0.0, 0.0, 1.687802661512298E9, 0.0, 2023-06-26 13:04:21.512
13.0, 45196.255468875825, 48127.418533255885, 52356.234473733246, -5840.644936638468, -7944.86051140553, -11903.063881762491, 16942.152910489192, 11386.045680766783, 0.002, 0.9540000000000001, 0.256, 192.0, 0.0, 0.0, 0.0, 0.0, 0.0, 0.0, 0.0, 0.0, 0.0, 1.6878026615162988E9, 0.0, 2023-06-26 13:04:21.516
14.0, 45172.80848894221, 48115.84032962803, 54409.66688509785, -5900.346446078593, -7990.882753239007, -11977.048155909557, 16880.05976439235, 11309.937990896464, 0.002, 0.9540000000000001, 0.256, 192.0, 0.0, 0.0, 0.0, 0.0, 0.0, 0.0, 0.0, 0.0, 0.0, 1.6878026615203316E9, 0.0, 2023-06-26 13:04:21.520
15.0, 45178.441128544946, 48102.22811725475, 54613.313628830154, -5875.334844033104, -8002.304494655668, -11938.98313510217, 16886.877046451216, 11340.917508711518, 0.002, 0.9540000000000001, 0.256, 192.0, 0.0, 0.0, 0.0, 0.0, 0.0, 0.0, 0.0, 0.0, 0.0, 1.6878026615243475E9, 0.0, 2023-06-26 13:04:21.524
16.0, 45234.923986783506, 48147.423344543386, 51499.067425616675, -5768.4040985589145, -7906.124938264483, -11814.618028952842, 16993.94190239214, 11469.417687585079, 0.002, 0.9540000000000001, 0.256, 192.0, 0.0, 0.0, 0.0, 0.0, 0.0, 0.0, 0.0, 0.0, 0.0, 1.6878026615283272E9, 0.0, 2023-06-26 13:04:21.528
17.0, 45192.38861708506, 48126.90444313341, 52069.68510981621, -5827.368000432015, -7936.746828168253, -11885.473058876165, 16957.97794556355, 11405.894029843097, 0.002, 0.9540000000000001, 0.256, 192.0, 0.0, 0.0, 0.0, 0.0, 0.0, 0.0, 0.0, 0.0, 0.0, 1.687802661532382E9, 0.0, 2023-06-26 13:04:21.532
18.0, 45158.81629691319, 48102.29517248812, 54014.57745010584, -5881.123945847028, -7982.232628134803, -11961.916024913315, 16894.096659910283, 11322.85729919163, 0.008, 0.96, 0.26, 192.0, 0.0, 64.0, 30.0, 0.0, 8.0, 32.0, 0.0, 0.0, 0.0, 1.6878026615363934E9, 0.0, 2023-06-26 13:04:21.536
19.0, 45146.902817118505, 48076.05422449759, 54984.79962167736, -5885.817812182643, -8006.081939468616, -11954.070562609502, 16886.80999121785, 11330.300430095247, 0.008, 0.96, 0.26, 192.0, 0.0, 0.0, 0.0, 0.0, 0.0, 0.0, 0.0, 0.0, 0.0, 1.6878026615394137E9, 0.0, 2023-06-26 13:04:21.539
20.0, 45212.43813186147, 48123.68579193184, 51849.69924088708, -5770.348700326526, -7919.2901157486585, -11830.755988449573, 16980.97789060806, 11450.977498409451, 0.008, 0.96, 0.26, 192.0, 0.0, 0.0, 0.0, 0.0, 0.0, 0.0, 0.0, 0.0, 0.0, 1.6878026615454514E9, 0.0, 2023-06-26 13:04:21.545
21.0, 45189.70640775042, 48124.15517856541, 51784.499202310944, -5803.183412931373, -7927.403798985934, -11864.127142921347, 16977.960405106594, 11428.916326632063, 0.008, 0.96, 0.26, 192.0, 0.0, 0.0, 0.0, 0.0, 0.0, 0.0, 0.0, 0.0, 0.0, 1.6878026615484653E9, 0.0, 2023-06-26 13:04:21.548
22.0, 45183.98436116986, 48126.792684411135, 53612.24604991032, -5866.237684039794, -7975.325939098113, -11944.906347382826, 16905.16077341566, 11342.795055245764, 0.008, 0.96, 0.26, 192.0, 0.0, 0.0, 0.0, 0.0, 0.0, 0.0, 0.0, 0.0, 0.0, 1.6878026615524695E9, 0.0, 2023-06-26 13:04:21.552
23.0, 45152.40134625451, 48084.771404835155, 55157.95858597262, -5893.909143675464, -8018.3753989190345, -11959.636146978874, 16876.595244001775, 11327.729979482887, 0.008, 0.96, 0.26, 192.0, 0.0, 0.0, 0.0, 0.0, 0.0, 0.0, 0.0, 0.0, 0.0, 1.6878026615564933E9, 0.0, 2023-06-26 13:04:21.556
24.0, 45217.80255053074, 48129.318431534586, 52362.60472090301, -5781.099889409529, -7934.869281634007, -11839.115540875859, 16959.98960256453, 11443.355553550191, 0.008, 0.96, 0.26, 192.0, 0.0, 0.0, 0.0, 0.0, 0.0, 0.0, 0.0, 0.0, 0.0, 1.6878026615595095E9, 0.0, 2023-06-26 13:04:21.559
25.0, 45202.78217825678, 48133.90053914792, 51536.327783623674, -5782.999787688231, -7904.806185341619, -11834.287564073511, 16997.875809416273, 11467.026050928362, 0.008, 0.96, 0.26, 192.0, 0.0, 0.0, 0.0, 0.0, 0.0, 0.0, 0.0, 0.0, 0.0, 1.6878026615635264E9, 0.0, 2023-06-26 13:04:21.563
26.0, 45182.12916638007, 48123.372867509475, 53235.127417460375, -5867.645843940479, -7971.548494285166, -11944.07933283798, 16911.30750314087, 11341.677468023, 0.008, 0.96, 0.26, 192.0, 0.0, 0.0, 0.0, 0.0, 0.0, 0.0, 0.0, 0.0, 0.0, 1.6878026615675576E9, 0.0, 2023-06-26 13:04:21.567
27.0, 45143.483000216846, 48084.9502187908, 55140.18894913065, -5901.374626323536, -8013.636829094509, -11971.504923284641, 16882.205531860058, 11317.33641831117, 0.008, 0.96, 0.26, 192.0, 0.0, 0.0, 0.0, 0.0, 0.0, 0.0, 0.0, 0.0, 0.0, 1.6878026615715804E9, 0.0, 2023-06-26 13:04:21.571
28.0, 45192.61213452961, 48105.603230667504, 52956.28940538042, -5807.38554088897, -7960.931415668895, -11869.312747634978, 16937.72726508704, 11406.83280311022, 0.014, 0.9580000000000001, 0.254, 192.0, 0.0, 112.0, 29.0, 240.0, 7.0, 240.0, 0.0, 0.0, 0.0, 1.6878026615765924E9, 0.0, 2023-06-26 13:04:21.576
29.0, 45202.11162592311, 48118.813111640586, 51339.610080672515, -5772.785040472155, -7904.2697434746915, -11822.172918578735, 17000.02157688398, 11470.043536429828, 0.014, 0.9580000000000001, 0.254, 192.0, 0.0, 0.0, 0.0, 0.0, 0.0, 0.0, 0.0, 0.0, 0.0, 1.6878026615806084E9, 0.0, 2023-06-26 13:04:21.580
30.0, 45189.03585541676, 48119.461312229796, 52891.804622626856, -5857.364041491037, -7964.284177337191, -11931.472948965187, 16917.43188112162, 11358.575386831211, 0.014, 0.9580000000000001, 0.254, 192.0, 0.0, 0.0, 0.0, 0.0, 0.0, 0.0, 0.0, 0.0, 0.0, 1.6878026615846395E9, 0.0, 2023-06-26 13:04:21.584
31.0, 45152.37899451006, 48090.09112001552, 54971.187409304075, -5899.966466422852, -8011.401654648978, -11971.929606429292, 16876.371726557223, 11324.53368002578, 0.014, 0.9580000000000001, 0.254, 192.0, 0.0, 0.0, 0.0, 0.0, 0.0, 0.0, 0.0, 0.0, 0.0, 1.6878026615876455E9, 0.0, 2023-06-26 13:04:21.587
32.0, 45186.75597748232, 48098.4506724418, 53591.61538977807, -5827.792683576666, -7980.735061256298, -11889.49637287812, 16922.01398873496, 11397.10979427216, 0.014, 0.9580000000000001, 0.254, 192.0, 0.0, 0.0, 0.0, 0.0, 0.0, 0.0, 0.0, 0.0, 0.0, 1.6878026615917268E9, 0.0, 2023-06-26 13:04:21.591
33.0, 45212.5722423282, 48126.74798092222, 51272.62190253996, -5762.324424067071, -7901.364016695502, -11812.762834163052, 17007.17413510968, 11485.354481381713, 0.014, 0.9580000000000001, 0.254, 192.0, 0.0, 0.0, 0.0, 0.0, 0.0, 0.0, 0.0, 0.0, 0.0, 1.6878026615956855E9, 0.0, 2023-06-26 13:04:21.595
34.0, 45188.99115192785, 48123.99871635422, 52590.81603179169, -5848.49039894228, -7962.4960377807665, -11917.592515658442, 16922.10339571278, 11368.521913113824, 0.014, 0.9580000000000001, 0.254, 192.0, 0.0, 0.0, 0.0, 0.0, 0.0, 0.0, 0.0, 0.0, 0.0, 1.6878026615997186E9, 0.0, 2023-06-26 13:04:21.599
35.0, 45150.36733750908, 48095.99198055172, 54692.55056292422, -5901.240515856804, -8005.3443319015905, -11977.294025098567, 16873.19777884457, 11316.129424110582, 0.014, 0.9580000000000001, 0.254, 192.0, 0.0, 0.0, 0.0, 0.0, 0.0, 0.0, 0.0, 0.0, 0.0, 1.6878026616047242E9, 0.0, 2023-06-26 13:04:21.604
36.0, 45166.974683639375, 48089.93465780433, 54199.58283896242, -5851.2843669991935, -7994.995474218783, -11911.401082444321, 16911.083985696314, 11380.72596558642, 0.014, 0.9580000000000001, 0.254, 192.0, 0.0, 0.0, 0.0, 0.0, 0.0, 0.0, 0.0, 0.0, 0.0, 1.6878026616087599E9, 0.0, 2023-06-26 13:04:21.608
37.0, 45207.11841668111, 48121.607079697504, 51346.42736273138, -5760.804505444111, -7905.007351041717, -11806.750214904574, 17005.296588575435, 11490.338920395247, 0.014, 0.9580000000000001, 0.254, 192.0, 0.0, 0.0, 0.0, 0.0, 0.0, 0.0, 0.0, 0.0, 0.0, 1.6878026616127677E9, 0.0, 2023-06-26 13:04:21.612
38.0, 45194.0649979192, 48122.031762842154, 52296.4435573153, -5834.006468535241, -7945.5310637391885, -11896.44776540372, 16952.144140260716, 11395.433413438013, 0.014, 0.9580000000000001, 0.254, 192.0, 0.0, 0.0, 0.0, 0.0, 0.0, 0.0, 0.0, 0.0, 0.0, 1.6878026616157787E9, 0.0, 2023-06-26 13:04:21.615
39.0, 45177.36824481109, 48113.73926564924, 54307.89939259284, -5886.577771494123, -7985.808907247652, -11961.51369351312, 16896.600055289276, 11324.868956192608, 0.008, 0.9540000000000001, 0.252, 192.0, 0.0, 64.0, 29.0, 208.0, 7.0, 224.0, 0.0, 0.0, 0.0, 1.6878026616198015E9, 0.0, 2023-06-26 13:04:21.619
40.0, 45168.7628231958, 48088.01240778118, 54656.85482702909, -5869.813963152643, -8002.863288267052, -11930.511823953608, 16892.53203779841, 11348.67356403751, 0.008, 0.9540000000000001, 0.252, 192.0, 0.0, 0.0, 0.0, 0.0, 0.0, 0.0, 0.0, 0.0, 0.0, 1.6878026616238258E9, 0.0, 2023-06-26 13:04:21.623
41.0, 45208.99596321535, 48112.28640225964, 51556.37729840008, -5774.126145139474, -7914.506842435222, -11815.646209197785, 16989.3597947788, 11472.79280099783, 0.008, 0.9540000000000001, 0.252, 192.0, 0.0, 0.0, 0.0, 0.0, 0.0, 0.0, 0.0, 0.0, 0.0, 1.6878026616278374E9, 0.0, 2023-06-26 13:04:21.627
42.0, 45188.58882052766, 48111.14646329242, 52007.68137069719, -5828.887919054976, -7943.407648015935, -11884.73545130914, 16952.948803061106, 11405.290532742803, 0.008, 0.9540000000000001, 0.252, 192.0, 0.0, 0.0, 0.0, 0.0, 0.0, 0.0, 0.0, 0.0, 0.0, 1.6878026616338608E9, 0.0, 2023-06-26 13:04:21.633
43.0, 45187.247715860336, 48118.79075989613, 53908.0266842874, -5877.234742311805, -7978.9916251887835, -11953.288251553566, 16903.909075726162, 11329.115787639117, 0.008, 0.9540000000000001, 0.252, 192.0, 0.0, 0.0, 0.0, 0.0, 0.0, 0.0, 0.0, 0.0, 0.0, 1.687802661636877E9, 0.0, 2023-06-26 13:04:21.636
44.0, 45154.18948581094, 48073.14849771839, 55018.84132848279, -5893.640922742, -8023.404541421479, -11958.049173122547, 16880.99853765947, 11323.729017225387, 0.008, 0.9540000000000001, 0.252, 192.0, 0.0, 0.0, 0.0, 0.0, 0.0, 0.0, 0.0, 0.0, 0.0, 1.6878026616409004E9, 0.0, 2023-06-26 13:04:21.640
45.0, 45214.650954562545, 48113.94043134933, 51952.20434095911, -5774.148496883929, -7931.672982176899, -11831.873575672338, 16977.580425450855, 11447.244757085415, 0.008, 0.9540000000000001, 0.252, 192.0, 0.0, 0.0, 0.0, 0.0, 0.0, 0.0, 0.0, 0.0, 0.0, 1.6878026616439116E9, 0.0, 2023-06-26 13:04:21.643
46.0, 45200.301134622234, 48119.08133257405, 51747.08238209276, -5799.025988462686, -7913.389255212457, -11859.366221352366, 16987.415193011188, 11423.97659110744, 0.008, 0.9540000000000001, 0.252, 192.0, 0.0, 0.0, 0.0, 0.0, 0.0, 0.0, 0.0, 0.0, 0.0, 1.6878026616479099E9, 0.0, 2023-06-26 13:04:21.647
47.0, 45192.18745138496, 48122.27763203116, 53551.337546269606, -5870.708032930856, -7973.224875119314, -11955.635184721374, 16906.3901193607, 11325.897136437552, 0.008, 0.9540000000000001, 0.252, 192.0, 0.0, 0.0, 0.0, 0.0, 0.0, 0.0, 0.0, 0.0, 0.0, 1.687802661651944E9, 0.0, 2023-06-26 13:04:21.651
48.0, 45159.53155273575, 48079.742262332715, 55178.76806006051, -5894.155012864472, -8010.462881381855, -11965.60406274844, 16878.5845492583, 11326.76885447131, 0.008, 0.9540000000000001, 0.252, 192.0, 0.0, 0.0, 0.0, 0.0, 0.0, 0.0, 0.0, 0.0, 0.0, 1.687802661655972E9, 0.0, 2023-06-26 13:04:21.655
49.0, 45220.68592556548, 48111.615849925984, 52491.507231176765, -5783.893857466443, -7938.825540402597, -11847.363334579866, 16953.41818969467, 11434.727780190442, 0.006, 0.9560000000000001, 0.252, 192.0, 0.0, 48.0, 29.0, 224.0, 7.0, 224.0, 0.0, 0.0, 0.0, 1.6878026616599915E9, 0.0, 2023-06-26 13:04:21.659
50.0, 45212.169910928, 48118.90251861841, 51520.748617738325, -5784.43029933337, -7909.768272610698, -11839.24965134259, 16991.50556224651, 11453.726762977454, 0.006, 0.9560000000000001, 0.252, 192.0, 0.0, 0.0, 0.0, 0.0, 0.0, 0.0, 0.0, 0.0, 0.0, 1.6878026616640728E9, 0.0, 2023-06-26 13:04:21.664
51.0, 45203.385675357065, 48126.77033266668, 53191.2062396057, -5861.007375837252, -7967.212255860836, -11945.353382271933, 16915.263761909457, 11338.458816821434, 0.006, 0.9560000000000001, 0.252, 192.0, 0.0, 0.0, 0.0, 0.0, 0.0, 0.0, 0.0, 0.0, 0.0, 1.6878026616690128E9, 0.0, 2023-06-26 13:04:21.669
52.0, 45171.89206741954, 48093.645047383914, 55125.749722212524, -5891.942190163397, -8002.170384188937, -11977.271673354111, 16881.758496970953, 11311.52496475279, 0.006, 0.9560000000000001, 0.252, 192.0, 0.0, 0.0, 0.0, 0.0, 0.0, 0.0, 0.0, 0.0, 0.0, 1.687802661672018E9, 0.0, 2023-06-26 13:04:21.672
53.0, 45213.51101559532, 48110.6547249144, 53083.157906908746, -5803.138709442462, -7957.019860389217, -11876.73352679414, 16936.34145693081, 11402.273047241337, 0.006, 0.9560000000000001, 0.252, 192.0, 0.0, 0.0, 0.0, 0.0, 0.0, 0.0, 0.0, 0.0, 0.0, 1.687802661675109E9, 0.0, 2023-06-26 13:04:21.675
54.0, 45217.04259121926, 48124.84808264352, 51358.564359970616, -5769.4546305483145, -7904.292095219147, -11826.57621223643, 17002.435565285155, 11466.735478250443, 0.006, 0.9560000000000001, 0.252, 192.0, 0.0, 0.0, 0.0, 0.0, 0.0, 0.0, 0.0, 0.0, 0.0, 1.687802661680082E9, 0.0, 2023-06-26 13:04:21.680
55.0, 45202.357495112126, 48128.33495477855, 52874.34791020727, -5847.842198353076, -7958.919758667917, -11929.327181497478, 16928.004256248983, 11362.77751478881, 0.006, 0.9560000000000001, 0.252, 192.0, 0.0, 0.0, 0.0, 0.0, 0.0, 0.0, 0.0, 0.0, 0.0, 1.6878026616840844E9, 0.0, 2023-06-26 13:04:21.684
56.0, 45163.77838418226, 48092.99684679471, 54961.66556616611, -5891.673969229933, -7996.001302719272, -11973.203655863244, 16883.367822571734, 11319.124557867593, 0.006, 0.9560000000000001, 0.252, 192.0, 0.0, 0.0, 0.0, 0.0, 0.0, 0.0, 0.0, 0.0, 0.0, 1.6878026616881096E9, 0.0, 2023-06-26 13:04:21.688
57.0, 45191.94158219595, 48096.52842241865, 53745.12717069712, -5825.132825986484, -7975.772973987219, -11894.659625847296, 16915.375520631733, 11386.626826122621, 0.006, 0.9560000000000001, 0.252, 192.0, 0.0, 0.0, 0.0, 0.0, 0.0, 0.0, 0.0, 0.0, 0.0, 1.6878026616921425E9, 0.0, 2023-06-26 13:04:21.692
58.0, 45213.600422573145, 48117.85198662901, 51322.98038279777, -5759.910435665898, -7895.552563137122, -11811.868764384839, 17001.89912341823, 11483.007548213905, 0.006, 0.9560000000000001, 0.252, 192.0, 0.0, 0.0, 0.0, 0.0, 0.0, 0.0, 0.0, 0.0, 0.0, 1.6878026616962209E9, 0.0, 2023-06-26 13:04:21.696
59.0, 45195.74137875335, 48117.24848952872, 52567.97254895837, -5841.494302927769, -7946.112209095027, -11912.183393500256, 16933.815709807364, 11374.86980853913, 0.008, 0.9560000000000001, 0.256, 192.0, 0.0, 64.0, 29.0, 224.0, 8.0, 0.0, 0.0, 0.0, 0.0, 1.6878026617002265E9, 0.0, 2023-06-26 13:04:21.700
60.0, 45169.14280285154, 48103.47981494425, 54627.171710392446, -5889.349387806581, -7988.044081693182, -11968.59919650545, 16883.032546404906, 11315.369464799103, 0.008, 0.9560000000000001, 0.256, 192.0, 0.0, 0.0, 0.0, 0.0, 0.0, 0.0, 0.0, 0.0, 0.0, 1.6878026617032156E9, 0.0, 2023-06-26 13:04:21.703
61.0, 45178.709349478406, 48093.84621308401, 54302.60202915693, -5846.4116867079365, -7987.194715403881, -11913.2115737452, 16898.321139612333, 11367.538436357789, 0.008, 0.9560000000000001, 0.256, 192.0, 0.0, 0.0, 0.0, 0.0, 0.0, 0.0, 0.0, 0.0, 0.0, 1.6878026617072003E9, 0.0, 2023-06-26 13:04:21.707
62.0, 45219.054248220236, 48126.59151871104, 51391.30966559764, -5751.908511150898, -7894.725548592276, -11802.771604391528, 16999.932169906162, 11488.595484327732, 0.008, 0.9560000000000001, 0.256, 192.0, 0.0, 0.0, 0.0, 0.0, 0.0, 0.0, 0.0, 0.0, 0.0, 1.687802661712253E9, 0.0, 2023-06-26 13:04:21.712
63.0, 45194.62379153059, 48120.15421630791, 52273.77888843762, -5829.424360921903, -7938.825540402597, -11893.609093857896, 16945.63978262422, 11395.008730293363, 0.008, 0.9560000000000001, 0.256, 192.0, 0.0, 0.0, 0.0, 0.0, 0.0, 0.0, 0.0, 0.0, 0.0, 1.6878026617162492E9, 0.0, 2023-06-26 13:04:21.716
64.0, 45168.3604917956, 48105.402064967406, 54273.701223576216, -5893.462108786358, -7988.0887851820935, -11975.528237286597, 16878.76336321394, 11310.675598463487, 0.008, 0.9560000000000001, 0.256, 192.0, 0.0, 0.0, 0.0, 0.0, 0.0, 0.0, 0.0, 0.0, 0.0, 1.6878026617212808E9, 0.0, 2023-06-26 13:04:21.721
65.0, 45160.09034634714, 48077.507087887185, 54786.27142742532, -5880.319283046638, -8006.77484354673, -11950.516635241109, 16880.730316726007, 11335.061351664228, 0.008, 0.9560000000000001, 0.256, 192.0, 0.0, 0.0, 0.0, 0.0, 0.0, 0.0, 0.0, 0.0, 0.0, 1.687802661725281E9, 0.0, 2023-06-26 13:04:21.725
66.0, 45224.44101863397, 48125.183358810355, 51630.54038650279, -5757.608205987001, -7903.845060330041, -11817.233183054112, 16990.74560293503, 11468.881245718152, 0.008, 0.9560000000000001, 0.256, 192.0, 0.0, 0.0, 0.0, 0.0, 0.0, 0.0, 0.0, 0.0, 0.0, 1.687802661728318E9, 0.0, 2023-06-26 13:04:21.728
67.0, 45203.47508233489, 48126.166835566386, 51976.076004037386, -5809.3748461454925, -7923.1122640505155, -11875.39242212682, 16970.919605603172, 11418.768634649354, 0.008, 0.9560000000000001, 0.256, 192.0, 0.0, 0.0, 0.0, 0.0, 0.0, 0.0, 0.0, 0.0, 0.0, 1.6878026617313094E9, 0.0, 2023-06-26 13:04:21.731
68.0, 45194.08734966366, 48126.032725099656, 53861.26683488689, -5871.937378875898, -7975.683567009398, -11955.635184721374, 16896.19772388908, 11331.127444640095, 0.008, 0.9560000000000001, 0.256, 192.0, 0.0, 0.0, 0.0, 0.0, 0.0, 0.0, 0.0, 0.0, 0.0, 1.6878026617353373E9, 0.0, 2023-06-26 13:04:21.735
69.0, 45162.99607312633, 48082.35741643398, 55075.771221610456, -5891.3163413186485, -8010.507584870767, -11958.183283589278, 16875.34354631228, 11337.609450532133, 0.006, 0.9580000000000001, 0.252, 192.0, 0.0, 48.0, 29.0, 240.0, 7.0, 224.0, 0.0, 0.0, 0.0, 1.6878026617403543E9, 0.0, 2023-06-26 13:04:21.740
70.0, 45213.84629176215, 48111.77231213717, 52074.37897615183, -5776.316616096094, -7934.042267089161, -11834.667543729252, 16974.49588471602, 11458.733553735443, 0.006, 0.9580000000000001, 0.252, 192.0, 0.0, 0.0, 0.0, 0.0, 0.0, 0.0, 0.0, 0.0, 0.0, 1.6878026617443907E9, 0.0, 2023-06-26 13:04:21.744
71.0, 45197.95420145443, 48113.53809994914, 51745.3165942808, -5798.444843106848, -7924.229851273281, -11854.940575950215, 16988.577483722864, 11441.433303527034, 0.006, 0.9580000000000001, 0.252, 192.0, 0.0, 0.0, 0.0, 0.0, 0.0, 0.0, 0.0, 0.0, 0.0, 1.6878026617484064E9, 0.0, 2023-06-26 13:04:21.748
72.0, 45194.40027408604, 48124.15517856541, 53508.31043819314, -5863.980157849808, -7970.117982640027, -11946.493321239153, 16912.045110707895, 11339.643459277566, 0.006, 0.9580000000000001, 0.252, 192.0, 0.0, 0.0, 0.0, 0.0, 0.0, 0.0, 0.0, 0.0, 0.0, 1.687802661752422E9, 0.0, 2023-06-26 13:04:21.752
73.0, 45163.48781150435, 48090.73932060472, 55187.66405435372, -5885.303722060171, -8008.272410425236, -11958.093876611458, 16886.34060458429, 11332.021514418306, 0.006, 0.9580000000000001, 0.252, 192.0, 0.0, 0.0, 0.0, 0.0, 0.0, 0.0, 0.0, 0.0, 0.0, 1.6878026617554412E9, 0.0, 2023-06-26 13:04:21.755
74.0, 45218.40604763103, 48116.3544197505, 52589.45257537992, -5785.234962133761, -7944.502883494245, -11850.246709614601, 16955.228680995548, 11432.000867366894, 0.006, 0.9580000000000001, 0.252, 192.0, 0.0, 0.0, 0.0, 0.0, 0.0, 0.0, 0.0, 0.0, 0.0, 1.6878026617594626E9, 0.0, 2023-06-26 13:04:21.759
75.0, 45212.66164930602, 48124.66926868788, 51514.1101496351, -5778.596494030535, -7909.097720277038, -11839.651982742786, 16996.624111726775, 11451.424533298557, 0.006, 0.9580000000000001, 0.252, 192.0, 0.0, 0.0, 0.0, 0.0, 0.0, 0.0, 0.0, 0.0, 0.0, 1.687802661763466E9, 0.0, 2023-06-26 13:04:21.763
76.0, 45202.78217825678, 48131.37479202447, 53166.50756198258, -5854.368907734026, -7966.362889571535, -11935.988001345158, 16918.05772996637, 11342.348020356658, 0.006, 0.9580000000000001, 0.252, 192.0, 0.0, 0.0, 0.0, 0.0, 0.0, 0.0, 0.0, 0.0, 0.0, 1.687802661767519E9, 0.0, 2023-06-26 13:04:21.767
77.0, 45161.56556148119, 48093.46623342827, 55140.52422529748, -5892.92566691943, -8010.842861037596, -11965.358193559432, 16887.56995052933, 11324.511328281324, 0.006, 0.9580000000000001, 0.252, 192.0, 0.0, 0.0, 0.0, 0.0, 0.0, 0.0, 0.0, 0.0, 0.0, 1.687802661772498E9, 0.0, 2023-06-26 13:04:21.772
78.0, 45199.42941658848, 48102.809262610586, 53243.71048733121, -5813.621677592001, -7967.1899041163815, -11873.201951170202, 16933.07810224034, 11407.011617065862, 0.006, 0.9580000000000001, 0.252, 192.0, 0.0, 0.0, 0.0, 0.0, 0.0, 0.0, 0.0, 0.0, 0.0, 1.6878026617765408E9, 0.0, 2023-06-26 13:04:21.776
79.0, 45209.80062601574, 48118.32137326257, 51386.0793573951, -5772.42741256087, -7902.727473107276, -11820.205965066669, 17003.32963506337, 11475.475010332468, 0.006, 0.9580000000000001, 0.252, 192.0, 0.0, 0.0, 0.0, 0.0, 0.0, 0.0, 0.0, 0.0, 0.0, 1.68780266177956E9, 0.0, 2023-06-26 13:04:21.779
80.0, 45205.93377422497, 48130.19014956834, 52846.60939533823, -5846.366983219026, -7951.834255675585, -11924.476852950675, 16933.525137129443, 11356.451971107957, 0.006, 0.9560000000000001, 0.254, 192.0, 0.0, 48.0, 29.0, 224.0, 7.0, 240.0, 0.0, 0.0, 0.0, 1.6878026617835884E9, 0.0, 2023-06-26 13:04:21.783
81.0, 45172.920247664486, 48100.12705327595, 54888.62006528617, -5886.6895302164, -7988.2675991377355, -11962.854798180439, 16899.639892535197, 11323.706665480931, 0.006, 0.9560000000000001, 0.254, 192.0, 0.0, 0.0, 0.0, 0.0, 0.0, 0.0, 0.0, 0.0, 0.0, 1.6878026617875893E9, 0.0, 2023-06-26 13:04:21.787
82.0, 45190.77929148427, 48089.97936129324, 53850.1580178926, -5834.900538313454, -7979.43866007789, -11901.454556161709, 16922.751596301987, 11377.663776596044, 0.006, 0.9560000000000001, 0.254, 192.0, 0.0, 0.0, 0.0, 0.0, 0.0, 0.0, 0.0, 0.0, 0.0, 1.6878026617918177E9, 0.0, 2023-06-26 13:04:21.791
83.0, 45222.02703023279, 48120.93652736385, 51340.794723128645, -5753.6072437295015, -7896.737205593254, -11804.358578247855, 17015.60074276933, 11479.721841778975, 0.006, 0.9560000000000001, 0.254, 192.0, 0.0, 0.0, 0.0, 0.0, 0.0, 0.0, 0.0, 0.0, 0.0, 1.6878026617956333E9, 0.0, 2023-06-26 13:04:21.795
84.0, 45202.73747476786, 48121.38356225295, 52564.776249501265, -5831.7265906008, -7951.633089975488, -11898.884105549349, 16952.12178851626, 11383.765802832342, 0.006, 0.9560000000000001, 0.254, 192.0, 0.0, 0.0, 0.0, 0.0, 0.0, 0.0, 0.0, 0.0, 0.0, 1.687802661799656E9, 0.0, 2023-06-26 13:04:21.799
85.0, 45173.85902093161, 48099.0541695421, 54595.767509432735, -5886.376605794026, -8000.538706843699, -11964.50882727013, 16898.567008801343, 11318.945743911952, 0.006, 0.9560000000000001, 0.254, 192.0, 0.0, 0.0, 0.0, 0.0, 0.0, 0.0, 0.0, 0.0, 0.0, 1.6878026618046792E9, 0.0, 2023-06-26 13:04:21.804
86.0, 45167.98051213986, 48070.91332327286, 54450.59292919552, -5866.058870084152, -8010.2170121928475, -11930.064789064501, 16898.432898334613, 11343.331497112691, 0.006, 0.9560000000000001, 0.254, 192.0, 0.0, 0.0, 0.0, 0.0, 0.0, 0.0, 0.0, 0.0, 0.0, 1.6878026618076866E9, 0.0, 2023-06-26 13:04:21.807
87.0, 45219.56833834271, 48113.38163773795, 51490.01496911228, -5762.011499644697, -7901.140499250949, -11818.2390115546, 17002.390861796244, 11462.823922970763, 0.006, 0.9560000000000001, 0.254, 192.0, 0.0, 0.0, 0.0, 0.0, 0.0, 0.0, 0.0, 0.0, 0.0, 1.6878026618117137E9, 0.0, 2023-06-26 13:04:21.811
88.0, 45200.3681898556, 48115.16977729437, 52319.465854104266, -5829.804340577643, -7939.406685758435, -11892.938541524238, 16957.10622752979, 11385.15161098857, 0.006, 0.9560000000000001, 0.254, 192.0, 0.0, 0.0, 0.0, 0.0, 0.0, 0.0, 0.0, 0.0, 0.0, 1.6878026618157156E9, 0.0, 2023-06-26 13:04:21.815
89.0, 45182.88912569155, 48105.603230667504, 54245.605080795896, -5880.766317935743, -7987.10530842606, -11950.628393963385, 16901.137459413705, 11333.407322574536, 0.006, 0.9560000000000001, 0.254, 192.0, 0.0, 0.0, 0.0, 0.0, 0.0, 0.0, 0.0, 0.0, 0.0, 1.6878026618197465E9, 0.0, 2023-06-26 13:04:21.819
90.0, 45170.77448019678, 48075.87541054194, 54875.49959129091, -5873.792573665688, -8006.081939468616, -11931.294135009544, 16895.77304074443, 11352.115732683627, 0.004, 0.9540000000000001, 0.254, 192.0, 0.0, 32.0, 29.0, 208.0, 7.0, 240.0, 0.0, 0.0, 0.0, 1.68780266182377E9, 0.0, 2023-06-26 13:04:21.823
91.0, 45224.48572212288, 48111.74996039271, 51764.04735613434, -5765.543075268635, -7921.391179727457, -11815.936781875704, 16993.360757036302, 11471.406992841601, 0.004, 0.9540000000000001, 0.254, 192.0, 0.0, 0.0, 0.0, 0.0, 0.0, 0.0, 0.0, 0.0, 0.0, 1.6878026618278053E9, 0.0, 2023-06-26 13:04:21.827
92.0, 45196.188413642456, 48103.2562974997, 52049.52383631752, -5814.783968303677, -7942.200653815348, -11872.643157558818, 16983.101306331315, 11423.440149240512, 0.004, 0.9540000000000001, 0.254, 192.0, 0.0, 0.0, 0.0, 0.0, 0.0, 0.0, 0.0, 0.0, 0.0, 1.6878026618328125E9, 0.0, 2023-06-26 13:04:21.832
93.0, 45186.398349571034, 48105.82674811206, 53875.39313738265, -5875.357195777559, -7986.5018113257665, -11955.41166727682, 16914.77202353144, 11332.714418496422, 0.004, 0.9540000000000001, 0.254, 192.0, 0.0, 0.0, 0.0, 0.0, 0.0, 0.0, 0.0, 0.0, 0.0, 1.687802661835821E9, 0.0, 2023-06-26 13:04:21.835
94.0, 45161.096174847626, 48070.26512268366, 55151.901263225234, -5885.638998227, -8019.15770997497, -11957.2221585777, 16890.207456375058, 11325.584212015177, 0.004, 0.9540000000000001, 0.254, 192.0, 0.0, 0.0, 0.0, 0.0, 0.0, 0.0, 0.0, 0.0, 0.0, 1.687802661838848E9, 0.0, 2023-06-26 13:04:21.838
95.0, 45226.2738616793, 48112.733437148745, 52193.04438746505, -5767.7558979697105, -7930.890671120963, -11831.806520438973, 16984.107134831804, 11452.676230988054, 0.004, 0.9540000000000001, 0.254, 192.0, 0.0, 0.0, 0.0, 0.0, 0.0, 0.0, 0.0, 0.0, 0.0, 1.687802661843863E9, 0.0, 2023-06-26 13:04:21.843
96.0, 45208.32541088169, 48113.06871331557, 51783.26985636591, -5790.688787780856, -7922.419359972401, -11849.240881114112, 16999.4627832726, 11450.888091431629, 0.004, 0.9540000000000001, 0.254, 192.0, 0.0, 0.0, 0.0, 0.0, 0.0, 0.0, 0.0, 0.0, 0.0, 1.687802661847875E9, 0.0, 2023-06-26 13:04:21.847
97.0, 45203.251564890335, 48119.52836746316, 53487.97035073881, -5857.699317657866, -7972.397860574468, -11944.571071215996, 16917.275418910434, 11336.357752842636, 0.004, 0.9540000000000001, 0.254, 192.0, 0.0, 0.0, 0.0, 0.0, 0.0, 0.0, 0.0, 0.0, 0.0, 1.687802661851921E9, 0.0, 2023-06-26 13:04:21.851
98.0, 45163.24194231533, 48077.75295707619, 55201.27626672701, -5884.342597048592, -8011.960448260361, -11966.207559848734, 16896.734165756006, 11312.083758364173, 0.004, 0.9540000000000001, 0.254, 192.0, 0.0, 0.0, 0.0, 0.0, 0.0, 0.0, 0.0, 0.0, 0.0, 1.6878026618559277E9, 0.0, 2023-06-26 13:04:21.855
99.0, 45214.09216095116, 48100.26116374268, 52745.73597261143, -5784.340892355549, -7956.57282550011, -11856.706363762185, 16961.911852587684, 11419.081559071727, 0.004, 0.9540000000000001, 0.254, 192.0, 0.0, 0.0, 0.0, 0.0, 0.0, 0.0, 0.0, 0.0, 0.0, 1.687802661859958E9, 0.0, 2023-06-26 13:04:21.859
100.0, 45215.701486551945, 48112.84519587102, 51531.90213822152, -5763.598473501024, -7912.875165089985, -11828.409055281765, 17015.01959741349, 11471.675213775065, 0.004, 0.9540000000000001, 0.254, 192.0, 0.0, 0.0, 29.0, 208.0, 7.0, 224.0, 0.0, 0.0, 0.0, 1.687802661863983E9, 0.0, 2023-06-26 13:04:21.863
101.0, 45206.80549225873, 48118.410780240396, 53145.496922194594, -5844.422381451414, -7970.877941951507, -11939.899556624838, 16929.278305682936, 11344.404380846547, 0.004, 0.9540000000000001, 0.254, 192.0, 0.0, 0.0, 0.0, 0.0, 0.0, 0.0, 0.0, 0.0, 0.0, 1.6878026618669791E9, 0.0, 2023-06-26 13:04:21.866
102.0, 45169.32161680718, 48080.301055944095, 55090.23280027304, -5885.057852871162, -8015.961410517862, -11970.409687806332, 16888.173447629626, 11315.637685732567, 0.004, 0.9540000000000001, 0.254, 192.0, 0.0, 0.0, 0.0, 0.0, 0.0, 0.0, 0.0, 0.0, 0.0, 1.687802661872003E9, 0.0, 2023-06-26 13:04:21.872
103.0, 45201.95516371193, 48085.7995850801, 53349.07661069353, -5807.854927522532, -7979.9303984559065, -11879.415736128776, 16935.380331919234, 11394.49464017089, 0.004, 0.9540000000000001, 0.254, 192.0, 0.0, 0.0, 0.0, 0.0, 0.0, 0.0, 0.0, 0.0, 0.0, 1.6878026618760116E9, 0.0, 2023-06-26 13:04:21.876
104.0, 45208.88420449307, 48101.51286143218, 51391.84610746457, -5764.514895023692, -7916.965534325306, -11825.615087224853, 17009.45401304412, 11466.98134743945, 0.004, 0.9540000000000001, 0.254, 192.0, 0.0, 0.0, 0.0, 0.0, 0.0, 0.0, 0.0, 0.0, 0.0, 1.6878026618800433E9, 0.0, 2023-06-26 13:04:21.880
105.0, 45196.23311713137, 48105.245602756215, 52846.02824998239, -5846.389334963481, -7978.633997277499, -11933.059922821514, 16929.390064405212, 11350.126427427105, 0.004, 0.9540000000000001, 0.254, 192.0, 0.0, 0.0, 0.0, 0.0, 0.0, 0.0, 0.0, 0.0, 0.0, 1.6878026618840635E9, 0.0, 2023-06-26 13:04:21.884
106.0, 45170.103927863114, 48084.43612866833, 54860.322756805755, -5887.315379061149, -8021.616401865054, -11977.741059987673, 16879.970357414528, 11309.647418218545, 0.004, 0.9540000000000001, 0.254, 192.0, 0.0, 0.0, 0.0, 0.0, 0.0, 0.0, 0.0, 0.0, 0.0, 1.6878026618880813E9, 0.0, 2023-06-26 13:04:21.888
107.0, 45197.149538654034, 48085.86664031346, 53955.747658699474, -5826.3398201870705, -7995.397805618979, -11907.869506820382, 16923.913887013663, 11372.209950948949, 0.004, 0.9540000000000001, 0.254, 192.0, 0.0, 0.0, 0.0, 0.0, 0.0, 0.0, 0.0, 0.0, 0.0, 1.6878026618910875E9, 0.0, 2023-06-26 13:04:21.891
108.0, 45230.453637892446, 48117.24848952872, 51321.19224324134, -5740.866749389977, -7902.101624262527, -11808.247781783079, 17030.64346678775, 11484.4604116035, 0.004, 0.9540000000000001, 0.254, 192.0, 0.0, 0.0, 0.0, 0.0, 0.0, 0.0, 0.0, 0.0, 0.0, 1.687802661895112E9, 0.0, 2023-06-26 13:04:21.895
109.0, 45201.351666611634, 48107.95016383531, 52490.23318174281, -5830.005506277741, -7967.212255860836, -11914.97736155717, 16954.289907728424, 11374.601587605666, 0.004, 0.9540000000000001, 0.254, 192.0, 0.0, 0.0, 0.0, 0.0, 0.0, 0.0, 0.0, 0.0, 0.0, 1.6878026618992207E9, 0.0, 2023-06-26 13:04:21.899
110.0, 45181.503317535324, 48095.679056129346, 54488.83676395855, -5877.860591156554, -8003.4891371118, -11970.2755773396, 16903.596151303787, 11315.391816543559, 0.006, 0.9560000000000001, 0.246, 192.0, 0.0, 48.0, 29.0, 224.0, 7.0, 176.0, 0.0, 0.0, 0.0, 1.687802661904199E9, 0.0, 2023-06-26 13:04:21.904
111.0, 45175.53540176575, 48068.7452040607, 54501.800775742624, -5857.609910680046, -8019.135358230515, -11937.843196134949, 16902.657378036663, 11340.33636335568, 0.006, 0.9560000000000001, 0.246, 192.0, 0.0, 0.0, 0.0, 0.0, 0.0, 0.0, 0.0, 0.0, 0.0, 1.6878026619082088E9, 0.0, 2023-06-26 13:04:21.908
112.0, 45217.37786738609, 48099.2553352422, 51489.366768523076, -5756.781191442155, -7929.594269942555, -11823.178747079224, 16994.813620425895, 11460.991079925428, 0.006, 0.9560000000000001, 0.246, 192.0, 0.0, 0.0, 0.0, 0.0, 0.0, 0.0, 0.0, 0.0, 0.0, 1.687802661912214E9, 0.0, 2023-06-26 13:04:21.912
113.0, 45190.600477528635, 48095.7014078738, 52201.89567826935, -5826.205709720339, -7965.357061071046, -11902.21451547319, 16954.982811806538, 11386.068032511239, 0.006, 0.9560000000000001, 0.246, 192.0, 0.0, 0.0, 0.0, 0.0, 0.0, 0.0, 0.0, 0.0, 0.0, 1.6878026619162333E9, 0.0, 2023-06-26 13:04:21.916
114.0, 45174.864849432095, 48095.880221829444, 54129.53247183949, -5882.643864469989, -8003.131509200515, -11978.456315810243, 16900.690424524597, 11297.197496556939, 0.006, 0.9560000000000001, 0.246, 192.0, 0.0, 0.0, 0.0, 0.0, 0.0, 0.0, 0.0, 0.0, 0.0, 1.687802661919243E9, 0.0, 2023-06-26 13:04:21.919
115.0, 45161.654968459006, 48068.27581742714, 54927.24387970494, -5868.763431163244, -8029.975954291339, -11949.51080674062, 16894.946026199585, 11329.719284739409, 0.006, 0.9560000000000001, 0.246, 192.0, 0.0, 0.0, 0.0, 0.0, 0.0, 0.0, 0.0, 0.0, 0.0, 1.6878026619232733E9, 0.0, 2023-06-26 13:04:21.923
116.0, 45229.894844281065, 48122.47879773126, 51767.06484163581, -5745.113580836485, -7928.588441442066, -11817.277886543023, 16994.83597217035, 11467.204864884003, 0.006, 0.9560000000000001, 0.246, 192.0, 0.0, 0.0, 0.0, 0.0, 0.0, 0.0, 0.0, 0.0, 0.0, 1.6878026619272904E9, 0.0, 2023-06-26 13:04:21.927
