%OpenBCI Raw EEG Data
%Number of channels = 8
%Sample Rate = 250 Hz
%Board = OpenBCI_GUI$BoardCytonSerial
Sample Index, EXG Channel 0, EXG Channel 1, EXG Channel 2, EXG Channel 3, EXG Channel 4, EXG Channel 5, EXG Channel 6, EXG Channel 7, Accel Channel 0, Accel Channel 1, Accel Channel 2, Other, Other, Other, Other, Other, Other, Other, Analog Channel 0, Analog Channel 1, Analog Channel 2, Timestamp, Other, Timestamp (Formatted)
191.0, 45359.49025863293, 48378.5180304668, 53415.39423649243, -5733.021287086164, -7915.2444500022475, -11731.558946556921, 17178.20968368169, 11427.865794642663, 0.0, 0.0, 0.0, 192.0, 0.0, 0.0, 0.0, 0.0, 0.0, 0.0, 0.0, 0.0, 0.0, 1.6878027391065073E9, 0.0, 2023-06-26 13:05:39.106
192.0, 45334.478656587446, 48350.37718419757, 55176.53288561498, -5759.239883332239, -7939.652554947443, -11755.743534057563, 17151.834625224426, 11403.770614119841, 0.0, 0.0, 0.0, 192.0, 0.0, 0.0, 0.0, 0.0, 0.0, 0.0, 0.0, 0.0, 0.0, 1.6878027391065357E9, 0.0, 2023-06-26 13:05:39.106
193.0, 45366.57576162527, 48348.52198940778, 53605.87580274056, -5689.904772031877, -7911.489356933756, -11677.713594164086, 17189.050279742514, 11471.228178885958, 0.0, 0.0, 0.0, 192.0, 0.0, 0.0, 0.0, 0.0, 0.0, 0.0, 0.0, 0.0, 0.0, 1.6878027391065524E9, 0.0, 2023-06-26 13:05:39.106
0.0, 0.0, 0.0, 0.0, 0.0, 0.0, 0.0, 0.0, 0.0, 0.106, 0.928, 0.32, 192.0, 3.0, 80.0, 29.0, 0.0, 10.0, 0.0, 0.0, 0.0, 0.0, 1.6878027391997006E9, 0.0, 2023-06-26 13:05:39.199
1.0, 45665.82091639291, 48591.03841674786, 49894.30158070345, -4779.294702922667, -7423.506071985492, -10682.792744969458, 18159.31715480294, 12439.818673112235, 0.106, 0.928, 0.32, 192.0, 0.0, 0.0, 0.0, 0.0, 0.0, 0.0, 0.0, 0.0, 0.0, 1.6878027392167792E9, 0.0, 2023-06-26 13:05:39.216
2.0, 45661.931712857695, 48602.34839944225, 51860.02574682543, -4867.852314454593, -7477.23966565605, -10790.32698754394, 18059.494264065535, 12311.586715172138, 0.106, 0.928, 0.32, 192.0, 0.0, 0.0, 0.0, 0.0, 0.0, 0.0, 0.0, 0.0, 0.0, 1.6878027392198105E9, 0.0, 2023-06-26 13:05:39.219
3.0, 45620.49157863755, 48557.17552389807, 53871.19100942505, -4911.214698697889, -7522.34548596686, -10822.133519903842, 18027.19599332762, 12290.173743983954, 0.106, 0.928, 0.32, 192.0, 0.0, 0.0, 0.0, 0.0, 0.0, 0.0, 0.0, 0.0, 0.0, 1.687802739222791E9, 0.0, 2023-06-26 13:05:39.222
4.0, 45678.65081771026, 48587.059806234814, 50916.22333720009, -4801.959371800348, -7451.669269999179, -10692.113422407321, 18107.639921622267, 12427.033475283799, 0.106, 0.928, 0.32, 192.0, 0.0, 0.0, 0.0, 0.0, 0.0, 0.0, 0.0, 0.0, 0.0, 1.6878027392268395E9, 0.0, 2023-06-26 13:05:39.226
5.0, 45677.66734095423, 48598.23567846247, 49265.547009175665, -4774.712595309329, -7397.712158884068, -10639.855043870813, 18173.622271254335, 12477.257845074875, 0.106, 0.928, 0.32, 192.0, 0.0, 0.0, 0.0, 0.0, 0.0, 0.0, 0.0, 0.0, 0.0, 1.6878027392298458E9, 0.0, 2023-06-26 13:05:39.229
6.0, 45669.84423039487, 48613.23369899198, 51063.320167460464, -4849.367421790054, -7452.09395314383, -10740.728466597613, 18085.869322522798, 12361.386401818563, 0.106, 0.928, 0.32, 192.0, 0.0, 0.0, 0.0, 0.0, 0.0, 0.0, 0.0, 0.0, 0.0, 1.6878027392328546E9, 0.0, 2023-06-26 13:05:39.232
7.0, 45636.629538134286, 48578.23086717497, 53428.24648955423, -4897.758948535794, -7502.7206543351, -10776.200685048187, 18048.117226137787, 12327.501157224317, 0.106, 0.928, 0.32, 192.0, 0.0, 0.0, 0.0, 0.0, 0.0, 0.0, 0.0, 0.0, 0.0, 1.6878027392378983E9, 0.0, 2023-06-26 13:05:39.237
8.0, 45675.61098046434, 48584.6681695781, 51309.0105425132, -4827.328601757122, -7467.650767284724, -10693.029843929988, 18087.63511033477, 12407.386291907584, 0.146, 0.886, 0.384, 192.0, 4.0, 144.0, 27.0, 176.0, 12.0, 0.0, 0.0, 0.0, 0.0, 1.6878027392419107E9, 0.0, 2023-06-26 13:05:39.241
9.0, 45688.70910271515, 48607.64576287816, 48841.556768602946, -4774.243208675767, -7391.27485648094, -10622.755959362503, 18181.087753902408, 12501.621246531158, 0.146, 0.886, 0.384, 192.0, 0.0, 0.0, 0.0, 0.0, 0.0, 0.0, 0.0, 0.0, 0.0, 1.6878027392459316E9, 0.0, 2023-06-26 13:05:39.245
10.0, 45670.93946587318, 48613.837196092274, 50383.0895284521, -4867.159410376479, -7451.311642087894, -10740.281431708507, 18095.547627871947, 12380.765364261313, 0.146, 0.886, 0.384, 192.0, 0.0, 0.0, 0.0, 0.0, 0.0, 0.0, 0.0, 0.0, 0.0, 1.687802739249944E9, 0.0, 2023-06-26 13:05:39.249
11.0, 45623.57611937239, 48571.99473047194, 52941.246681362, -4930.727771607372, -7499.636113600268, -10793.925618401245, 18030.347589295816, 12321.82381413267, 0.146, 0.886, 0.384, 192.0, 0.0, 0.0, 0.0, 0.0, 0.0, 0.0, 0.0, 0.0, 0.0, 1.6878027392539482E9, 0.0, 2023-06-26 13:05:39.253
12.0, 45649.16886677371, 48567.74789902543, 51815.72458931501, -4875.295445358211, -7471.204694653117, -10707.469070848116, 18068.546720569935, 12377.25614038183, 0.146, 0.886, 0.384, 192.0, 0.0, 0.0, 0.0, 0.0, 0.0, 0.0, 0.0, 0.0, 0.0, 1.6878027392579892E9, 0.0, 2023-06-26 13:05:39.257
13.0, 45678.51670724353, 48595.218192961, 48661.40170829317, -4792.817508318128, -7370.7559550709675, -10605.52276438746, 18190.430783084725, 12514.071168192766, 0.146, 0.886, 0.384, 192.0, 0.0, 0.0, 0.0, 0.0, 0.0, 0.0, 0.0, 0.0, 0.0, 1.6878027392609985E9, 0.0, 2023-06-26 13:05:39.260
14.0, 45663.07165182491, 48605.23177447698, 49820.47376876757, -4871.562704034174, -7416.577031204347, -10693.812154985924, 18132.763282390035, 12428.665152629037, 0.146, 0.886, 0.384, 192.0, 0.0, 0.0, 0.0, 0.0, 0.0, 0.0, 0.0, 0.0, 0.0, 1.687802739265014E9, 0.0, 2023-06-26 13:05:39.265
15.0, 45638.8200090909, 48589.49614638044, 52344.32099393857, -4923.888137804048, -7454.440886311637, -10746.875196322822, 18082.583616087868, 12371.802314734736, 0.146, 0.886, 0.384, 192.0, 0.0, 0.0, 0.0, 0.0, 0.0, 0.0, 0.0, 0.0, 0.0, 1.6878027392700148E9, 0.0, 2023-06-26 13:05:39.270
16.0, 45636.13779975627, 48559.455401832514, 52259.87610338642, -4903.838623027637, -7463.5603980494025, -10708.765472026524, 18088.506828368525, 12409.576762864204, 0.146, 0.886, 0.384, 192.0, 0.0, 0.0, 0.0, 0.0, 0.0, 0.0, 0.0, 0.0, 0.0, 1.6878027392740571E9, 0.0, 2023-06-26 13:05:39.274
17.0, 45676.99678862057, 48592.96066677102, 48683.261714370456, -4799.3442176990775, -7360.205931688062, -10589.00482523499, 18199.349129122395, 12547.44232266454, 0.146, 0.886, 0.384, 192.0, 0.0, 0.0, 0.0, 0.0, 0.0, 0.0, 0.0, 0.0, 0.0, 1.6878027392780843E9, 0.0, 2023-06-26 13:05:39.278
18.0, 45656.29907325495, 48598.01216101792, 49329.651812273485, -4871.942683689915, -7399.343836229305, -10669.96284365211, 18150.756436676555, 12469.032403115321, 0.148, 0.858, 0.4, 192.0, 4.0, 160.0, 26.0, 208.0, 12.0, 128.0, 0.0, 0.0, 0.0, 1.687802739282104E9, 0.0, 2023-06-26 13:05:39.282
19.0, 45638.08240152388, 48591.127823725685, 51758.05708862032, -4933.164111753001, -7452.116304888285, -10745.131760255308, 18084.259996922017, 12385.59334106366, 0.148, 0.858, 0.4, 192.0, 0.0, 0.0, 0.0, 0.0, 0.0, 0.0, 0.0, 0.0, 0.0, 1.6878027392851148E9, 0.0, 2023-06-26 13:05:39.285
20.0, 45616.132988468766, 48550.87233196168, 52627.85287235414, -4935.6451553875395, -7478.089031945352, -10733.575908371915, 18076.749810785033, 12401.418376138017, 0.148, 0.858, 0.4, 192.0, 0.0, 0.0, 0.0, 0.0, 0.0, 0.0, 0.0, 0.0, 0.0, 1.6878027392891371E9, 0.0, 2023-06-26 13:05:39.289
21.0, 45673.599323463364, 48588.736187068964, 48925.085237632426, -4819.349028986577, -7377.617940618747, -10603.131127730743, 18187.234483627617, 12547.844654064735, 0.148, 0.858, 0.4, 192.0, 0.0, 0.0, 0.0, 0.0, 0.0, 0.0, 0.0, 0.0, 0.0, 1.6878027392932284E9, 0.0, 2023-06-26 13:05:39.293
22.0, 45656.679052910695, 48591.57485861479, 48875.06203354145, -4873.708471501884, -7403.121281042252, -10661.491532503549, 18162.669916471234, 12493.954598182989, 0.148, 0.858, 0.4, 192.0, 0.0, 0.0, 0.0, 0.0, 0.0, 0.0, 0.0, 0.0, 0.0, 1.6878027392972162E9, 0.0, 2023-06-26 13:05:39.297
23.0, 45653.28158775349, 48604.561222143326, 51161.84665701946, -4937.187425754956, -7445.813112951889, -10755.190045260197, 18078.046211963443, 12387.40383236454, 0.148, 0.858, 0.4, 192.0, 0.0, 0.0, 0.0, 0.0, 0.0, 0.0, 0.0, 0.0, 0.0, 1.6878027393022232E9, 0.0, 2023-06-26 13:05:39.302
24.0, 45613.07079947839, 48554.58272154126, 52795.535659257854, -4954.286510263266, -7488.840221028355, -10773.026737335533, 18061.57297629988, 12384.766326518813, 0.148, 0.858, 0.4, 192.0, 0.0, 0.0, 0.0, 0.0, 0.0, 0.0, 0.0, 0.0, 0.0, 1.6878027393062136E9, 0.0, 2023-06-26 13:05:39.306
25.0, 45676.23682930909, 48587.14921321264, 49372.433051160944, -4834.056476838169, -7398.047435050898, -10648.281651530464, 18158.624250724824, 12505.488098321926, 0.148, 0.858, 0.4, 192.0, 0.0, 0.0, 0.0, 0.0, 0.0, 0.0, 0.0, 0.0, 0.0, 1.6878027393102643E9, 0.0, 2023-06-26 13:05:39.310
26.0, 45674.918076386224, 48595.888745294666, 48531.761590452385, -4847.57928223363, -7381.216571476051, -10662.430305770673, 18176.058611399963, 12505.555153555293, 0.148, 0.858, 0.4, 192.0, 0.0, 0.0, 0.0, 0.0, 0.0, 0.0, 0.0, 0.0, 0.0, 1.6878027393132465E9, 0.0, 2023-06-26 13:05:39.313
27.0, 45672.52643972951, 48612.56314665832, 50647.46596186948, -4916.959097022903, -7447.467142041582, -10777.675900182236, 18080.415496875703, 12378.709003771426, 0.148, 0.858, 0.4, 192.0, 0.0, 0.0, 0.0, 0.0, 0.0, 0.0, 0.0, 0.0, 0.0, 1.687802739317266E9, 0.0, 2023-06-26 13:05:39.317
28.0, 45631.734506098575, 48569.49133509294, 52812.098301899234, -4937.8132745997045, -7485.442755871148, -10787.957702631677, 18058.220214631583, 12364.225073364387, 0.138, 0.87, 0.402, 192.0, 4.0, 80.0, 27.0, 48.0, 12.0, 144.0, 0.0, 0.0, 0.0, 1.6878027393212895E9, 0.0, 2023-06-26 13:05:39.321
29.0, 45674.04635835247, 48582.65651257712, 50024.053457266506, -4834.056476838169, -7415.0124090924755, -10674.075564631888, 18143.24625053957, 12481.594083499203, 0.138, 0.87, 0.402, 192.0, 0.0, 0.0, 0.0, 0.0, 0.0, 0.0, 0.0, 0.0, 0.0, 1.687802739325313E9, 0.0, 2023-06-26 13:05:39.325
30.0, 45680.77423343351, 48600.828480819284, 48280.12565137454, -4807.547307914175, -7368.118449225241, -10644.68302067316, 18203.640664057813, 12539.798026060824, 0.138, 0.87, 0.402, 192.0, 0.0, 0.0, 0.0, 0.0, 0.0, 0.0, 0.0, 0.0, 0.0, 1.6878027393303356E9, 0.0, 2023-06-26 13:05:39.330
31.0, 45673.75578567455, 48615.96061181553, 50171.46321194926, -4884.772585007261, -7430.189243577629, -10741.644888120281, 18110.143317001264, 12420.015027524832, 0.138, 0.87, 0.402, 192.0, 0.0, 0.0, 0.0, 0.0, 0.0, 0.0, 0.0, 0.0, 0.0, 1.6878027393343537E9, 0.0, 2023-06-26 13:05:39.334
32.0, 45638.283567223974, 48581.04718697634, 52611.58080239067, -4918.814291812693, -7468.254264385017, -10776.75947865957, 18080.19197943115, 12382.709966028926, 0.138, 0.87, 0.402, 192.0, 0.0, 0.0, 0.0, 0.0, 0.0, 0.0, 0.0, 0.0, 0.0, 1.6878027393383691E9, 0.0, 2023-06-26 13:05:39.338
33.0, 45680.32719854441, 48588.825594046786, 50679.04897678483, -4837.275128039733, -7424.04251385242, -10684.379718825785, 18126.169517775717, 12464.226778057431, 0.138, 0.87, 0.402, 192.0, 0.0, 0.0, 0.0, 0.0, 0.0, 0.0, 0.0, 0.0, 0.0, 1.6878027393413851E9, 0.0, 2023-06-26 13:05:39.341
34.0, 45690.60900099385, 48603.980076787484, 48132.26886180268, -4776.947769754859, -7338.681201777602, -10609.791947578424, 18236.94476329622, 12558.573491403282, 0.138, 0.87, 0.402, 192.0, 0.0, 0.0, 0.0, 0.0, 0.0, 0.0, 0.0, 0.0, 0.0, 1.6878027393454092E9, 0.0, 2023-06-26 13:05:39.345
35.0, 45677.55558223195, 48613.54662341435, 49716.40404658366, -4865.192456864412, -7398.852097851289, -10724.702265823158, 18170.716544475144, 12432.532004419805, 0.138, 0.87, 0.402, 192.0, 0.0, 0.0, 0.0, 0.0, 0.0, 0.0, 0.0, 0.0, 0.0, 1.6878027393494146E9, 0.0, 2023-06-26 13:05:39.349
36.0, 45643.0221370485, 48583.88585852216, 52268.570931979535, -4920.02128601328, -7444.516711773481, -10785.141382830308, 18116.87119208231, 12365.700288498438, 0.138, 0.87, 0.402, 192.0, 0.0, 0.0, 0.0, 0.0, 0.0, 0.0, 0.0, 0.0, 0.0, 1.6878027393534436E9, 0.0, 2023-06-26 13:05:39.353
37.0, 45651.158172030235, 48564.93157922406, 51389.230953363294, -4875.518962802764, -7439.644031482224, -10716.74504479707, 18140.16170980474, 12444.84781561468, 0.138, 0.87, 0.402, 192.0, 0.0, 0.0, 0.0, 0.0, 0.0, 0.0, 0.0, 0.0, 0.0, 1.6878027393575149E9, 0.0, 2023-06-26 13:05:39.357
38.0, 45687.47975677011, 48596.62635286169, 48181.55445832664, -4779.18294420039, -7336.177806398608, -10602.013540507978, 18264.593871187433, 12582.758078903924, 0.138, 0.87, 0.402, 192.0, 0.0, 0.0, 0.0, 0.0, 0.0, 0.0, 0.0, 0.0, 0.0, 1.6878027393624694E9, 0.0, 2023-06-26 13:05:39.362
39.0, 45658.89187561177, 48591.15017547014, 49359.37963239904, -4864.231331852833, -7389.196144246596, -10706.060910947432, 18200.26555064506, 12464.539702479804, 0.126, 0.898, 0.392, 192.0, 3.0, 240.0, 28.0, 16.0, 12.0, 64.0, 0.0, 0.0, 0.0, 1.6878027393665528E9, 0.0, 2023-06-26 13:05:39.366
40.0, 45634.57317764439, 48576.509782851914, 51862.41738348215, -4917.652001101017, -7435.285441313439, -10769.9421966007, 18139.468805726625, 12393.371748134106, 0.126, 0.898, 0.392, 192.0, 0.0, 0.0, 0.0, 0.0, 0.0, 0.0, 0.0, 0.0, 0.0, 1.6878027393695247E9, 0.0, 2023-06-26 13:05:39.369
41.0, 45632.04743052095, 48550.31353835029, 51969.01285278951, -4891.902791488504, -7439.264051826483, -10729.731408325602, 18150.555270976456, 12432.21907999743, 0.126, 0.898, 0.392, 192.0, 0.0, 0.0, 0.0, 0.0, 0.0, 0.0, 0.0, 0.0, 0.0, 1.6878027393735383E9, 0.0, 2023-06-26 13:05:39.373
42.0, 45682.1823933342, 48585.83046028978, 48381.71432992391, -4782.580409357597, -7335.7084197650465, -10608.428491166651, 18263.14100779784, 12564.608462406215, 0.126, 0.898, 0.392, 192.0, 0.0, 0.0, 0.0, 0.0, 0.0, 0.0, 0.0, 0.0, 0.0, 1.6878027393775663E9, 0.0, 2023-06-26 13:05:39.377
43.0, 45664.54686695896, 48593.89944003814, 49000.567078657994, -4843.95829963187, -7372.857019049767, -10682.278654846985, 18219.488050876625, 12493.731080738437, 0.126, 0.898, 0.392, 192.0, 0.0, 0.0, 0.0, 0.0, 0.0, 0.0, 0.0, 0.0, 0.0, 1.687802739381598E9, 0.0, 2023-06-26 13:05:39.381
44.0, 45648.788887117975, 48593.67592259359, 51345.913272608916, -4905.269134672777, -7425.18245281964, -10764.756591887068, 18144.49794822907, 12401.664245327025, 0.126, 0.898, 0.392, 192.0, 0.0, 0.0, 0.0, 0.0, 0.0, 0.0, 0.0, 0.0, 0.0, 1.6878027393856142E9, 0.0, 2023-06-26 13:05:39.385
45.0, 45622.97262227209, 48551.09584940623, 52370.60664541801, -4916.534413878252, -7456.720764246079, -10764.063687808954, 18127.130642787295, 12401.239562182374, 0.126, 0.898, 0.392, 192.0, 0.0, 0.0, 0.0, 0.0, 0.0, 0.0, 0.0, 0.0, 0.0, 1.6878027393896153E9, 0.0, 2023-06-26 13:05:39.389
46.0, 45686.89861141427, 48593.94414352705, 48749.065250046886, -4792.459880406843, -7348.337155382294, -10631.093160044333, 18239.179937741752, 12535.148863214119, 0.126, 0.898, 0.392, 192.0, 0.0, 0.0, 0.0, 0.0, 0.0, 0.0, 0.0, 0.0, 0.0, 1.6878027393946545E9, 0.0, 2023-06-26 13:05:39.394
47.0, 45665.195067548164, 48596.514594139415, 48641.329841772305, -4831.307212270166, -7358.618957831736, -10672.198018097642, 18232.854394060898, 12507.097423922709, 0.126, 0.898, 0.392, 192.0, 0.0, 0.0, 0.0, 0.0, 0.0, 0.0, 0.0, 0.0, 0.0, 1.6878027393976722E9, 0.0, 2023-06-26 13:05:39.397
48.0, 45646.66547139472, 48590.144346969646, 50877.39835708122, -4908.01839924078, -7418.99101960552, -10768.735202400114, 18145.056741840453, 12401.21721043792, 0.126, 0.898, 0.392, 192.0, 0.0, 0.0, 0.0, 0.0, 0.0, 0.0, 0.0, 0.0, 0.0, 1.6878027394016724E9, 0.0, 2023-06-26 13:05:39.401
49.0, 45613.56253785641, 48543.94329118053, 52601.053130752225, -4923.664620359495, -7447.131865874751, -10775.41837399225, 18125.901296842254, 12390.376614377095, 0.10200000000000001, 0.914, 0.378, 192.0, 3.0, 48.0, 28.0, 144.0, 11.0, 208.0, 0.0, 0.0, 0.0, 1.6878027394067097E9, 0.0, 2023-06-26 13:05:39.406
50.0, 45670.35832051734, 48575.950989240526, 49321.04639065819, -4811.369456216033, -7360.854132277266, -10653.802532410924, 18210.346187394403, 12506.560982055782, 0.10200000000000001, 0.914, 0.378, 192.0, 0.0, 0.0, 0.0, 0.0, 0.0, 0.0, 0.0, 0.0, 0.0, 1.6878027394097147E9, 0.0, 2023-06-26 13:05:39.409
51.0, 45662.53520995798, 48587.10450972373, 48384.73181542538, -4819.997229575781, -7341.363411112239, -10661.245663314541, 18236.721245851666, 12513.28885713683, 0.10200000000000001, 0.914, 0.378, 192.0, 0.0, 0.0, 0.0, 0.0, 0.0, 0.0, 0.0, 0.0, 0.0, 1.6878027394137473E9, 0.0, 2023-06-26 13:05:39.413
52.0, 45671.27474204001, 48614.127768770195, 50418.53939515822, -4895.657884556996, -7402.8083566198775, -10768.288167511007, 18138.910012115244, 12383.715794529415, 0.10200000000000001, 0.914, 0.378, 192.0, 0.0, 0.0, 0.0, 0.0, 0.0, 0.0, 0.0, 0.0, 0.0, 1.6878027394177666E9, 0.0, 2023-06-26 13:05:39.417
53.0, 45637.83653233487, 48578.94612299754, 52594.057034737714, -4923.329344192665, -7435.6207174802685, -10785.431955508227, 18109.115136756318, 12370.394154834052, 0.10200000000000001, 0.914, 0.378, 192.0, 0.0, 0.0, 0.0, 0.0, 0.0, 0.0, 0.0, 0.0, 0.0, 1.68780273942193E9, 0.0, 2023-06-26 13:05:39.421
54.0, 45693.15709986175, 48606.17054774411, 49943.60952897186, -4816.733874885306, -7367.671414336135, -10666.341861050352, 18179.098448645884, 12477.391955541607, 0.10200000000000001, 0.914, 0.378, 192.0, 0.0, 0.0, 0.0, 0.0, 0.0, 0.0, 0.0, 0.0, 0.0, 1.687802739424807E9, 0.0, 2023-06-26 13:05:39.424
55.0, 45689.55846900445, 48614.23952749247, 48134.43698101485, -4787.162516970935, -7306.427634528593, -10631.62960191126, 18246.600716900914, 12534.746531813924, 0.10200000000000001, 0.914, 0.378, 192.0, 0.0, 0.0, 0.0, 0.0, 0.0, 0.0, 0.0, 0.0, 0.0, 1.6878027394288251E9, 0.0, 2023-06-26 13:05:39.428
56.0, 45682.92000090123, 48625.75067588696, 49943.7883429275, -4872.389718579021, -7381.417737176149, -10745.958774800156, 18143.134491817294, 12401.731300560392, 0.10200000000000001, 0.914, 0.378, 192.0, 0.0, 0.0, 0.0, 0.0, 0.0, 0.0, 0.0, 0.0, 0.0, 1.6878027394338496E9, 0.0, 2023-06-26 13:05:39.433
57.0, 45636.24955847854, 48583.170602699596, 52372.2606745077, -4921.004762769314, -7435.352496546805, -10787.8459439094, 18106.187058232674, 12359.754724473325, 0.10200000000000001, 0.914, 0.378, 192.0, 0.0, 0.0, 0.0, 0.0, 0.0, 0.0, 0.0, 0.0, 0.0, 1.6878027394378688E9, 0.0, 2023-06-26 13:05:39.437
58.0, 45673.666378696726, 48590.09964348074, 50652.98684274994, -4842.5501397311855, -7378.690824352601, -10695.309721864429, 18167.5873002514, 12457.007164598366, 0.10200000000000001, 0.914, 0.378, 192.0, 0.0, 0.0, 0.0, 0.0, 0.0, 0.0, 0.0, 0.0, 0.0, 1.6878027394418955E9, 0.0, 2023-06-26 13:05:39.441
59.0, 45691.52542251652, 48614.99948680395, 48038.30212811258, -4784.860287292038, -7306.5393932508705, -10622.57714540686, 18251.383990214348, 12551.935023300055, 0.08600000000000001, 0.91, 0.368, 192.0, 2.0, 176.0, 28.0, 112.0, 11.0, 128.0, 0.0, 0.0, 0.0, 1.6878027394458933E9, 0.0, 2023-06-26 13:05:39.445
60.0, 45683.322332301424, 48627.762332887934, 49568.65901573408, -4866.91354118747, -7364.251597434473, -10728.658524591747, 18174.11400963235, 12429.626277640615, 0.08600000000000001, 0.91, 0.368, 192.0, 0.0, 0.0, 0.0, 0.0, 0.0, 0.0, 0.0, 0.0, 0.0, 1.687802739448907E9, 0.0, 2023-06-26 13:05:39.448
61.0, 45647.40307896174, 48597.1180912397, 52041.76778099153, -4915.349771422121, -7403.367150231261, -10780.22399905014, 18125.722482886613, 12378.396079349051, 0.08600000000000001, 0.91, 0.368, 192.0, 0.0, 0.0, 0.0, 0.0, 0.0, 0.0, 0.0, 0.0, 0.0, 1.6878027394549563E9, 0.0, 2023-06-26 13:05:39.454
62.0, 45655.04737556546, 48576.48743110746, 51330.40116195693, -4872.613236023573, -7393.8229553488445, -10715.515698852027, 18146.688419185688, 12434.901289332067, 0.08600000000000001, 0.91, 0.368, 192.0, 0.0, 0.0, 0.0, 0.0, 0.0, 0.0, 0.0, 0.0, 0.0, 1.6878027394580133E9, 0.0, 2023-06-26 13:05:39.458
63.0, 45692.37478880582, 48610.350323957246, 48078.624675109946, -4778.043005233169, -7295.408224512127, -10594.838630537824, 18261.486978708148, 12571.604558420726, 0.08600000000000001, 0.91, 0.368, 192.0, 0.0, 0.0, 0.0, 0.0, 0.0, 0.0, 0.0, 0.0, 0.0, 1.687802739460977E9, 0.0, 2023-06-26 13:05:39.460
64.0, 45678.02496886552, 48621.83912060728, 49178.12933661096, -4854.86595092606, -7348.717135038035, -10693.275713118997, 18198.097431432896, 12467.937167637012, 0.08600000000000001, 0.91, 0.368, 192.0, 0.0, 0.0, 0.0, 0.0, 0.0, 0.0, 0.0, 0.0, 0.0, 1.687802739465998E9, 0.0, 2023-06-26 13:05:39.465
65.0, 45654.62269242081, 48610.93146931309, 51570.74947008485, -4909.515966119286, -7382.3788621877275, -10758.811027861957, 18138.21710803713, 12395.897495257557, 0.08600000000000001, 0.91, 0.368, 192.0, 0.0, 0.0, 0.0, 0.0, 0.0, 0.0, 0.0, 0.0, 0.0, 1.687802739470024E9, 0.0, 2023-06-26 13:05:39.470
66.0, 45634.729639855585, 48566.49620133593, 51867.982967851516, -4900.687027059439, -7391.699539625591, -10728.658524591747, 18144.74381741808, 12431.392065452585, 0.08600000000000001, 0.91, 0.368, 192.0, 0.0, 0.0, 0.0, 0.0, 0.0, 0.0, 0.0, 0.0, 0.0, 1.687802739474073E9, 0.0, 2023-06-26 13:05:39.474
67.0, 45688.95497190416, 48601.00729477493, 48313.720323290865, -4794.896220552471, -7292.167221566108, -10611.535383645938, 18259.98941182964, 12563.893206583645, 0.08600000000000001, 0.91, 0.368, 192.0, 0.0, 0.0, 0.0, 0.0, 0.0, 0.0, 0.0, 0.0, 0.0, 1.687802739477069E9, 0.0, 2023-06-26 13:05:39.477
68.0, 45672.30292228496, 48608.450425678544, 48864.71317585864, -4864.007814408281, -7328.622916772714, -10690.861724717823, 18222.147908466806, 12488.366662069162, 0.08600000000000001, 0.91, 0.368, 192.0, 0.0, 0.0, 0.0, 0.0, 0.0, 0.0, 0.0, 0.0, 0.0, 1.6878027394810665E9, 0.0, 2023-06-26 13:05:39.481
69.0, 45657.50606745554, 48604.49416690996, 51131.87296770489, -4922.345867436632, -7374.175771972629, -10769.718679156147, 18150.465863998637, 12396.568047591216, 0.068, 0.912, 0.368, 192.0, 2.0, 32.0, 28.0, 128.0, 11.0, 128.0, 0.0, 0.0, 0.0, 1.6878027394850829E9, 0.0, 2023-06-26 13:05:39.485
70.0, 45631.153360742734, 48557.89077972064, 52266.96160637875, -4920.110692991101, -7394.091176282308, -10753.670126637237, 18143.69328542868, 12407.676864585503, 0.068, 0.912, 0.368, 192.0, 0.0, 0.0, 0.0, 0.0, 0.0, 0.0, 0.0, 0.0, 0.0, 1.6878027394891117E9, 0.0, 2023-06-26 13:05:39.489
71.0, 45686.83155618091, 48593.89944003814, 48725.64062185772, -4800.081825266102, -7295.050596600842, -10627.650991398215, 18245.125501766863, 12534.321848669273, 0.068, 0.912, 0.368, 192.0, 0.0, 0.0, 0.0, 0.0, 0.0, 0.0, 0.0, 0.0, 0.0, 1.6878027394932184E9, 0.0, 2023-06-26 13:05:39.493
72.0, 45664.12218381431, 48597.60982961772, 48544.144456880626, -4839.085619340613, -7309.109843863231, -10668.420573284695, 18234.888402806333, 12502.470612820462, 0.068, 0.912, 0.368, 192.0, 0.0, 0.0, 0.0, 0.0, 0.0, 0.0, 0.0, 0.0, 0.0, 1.6878027394982E9, 0.0, 2023-06-26 13:05:39.498
73.0, 45672.0794048404, 48620.94505082906, 50636.245386152914, -4901.268172415277, -7364.676280579124, -10754.966527815644, 18145.72729417411, 12392.075346955698, 0.068, 0.912, 0.368, 192.0, 0.0, 0.0, 0.0, 0.0, 0.0, 0.0, 0.0, 0.0, 0.0, 1.6878027395022092E9, 0.0, 2023-06-26 13:05:39.502
74.0, 45641.591625403365, 48579.214343931, 52432.14099790347, -4924.804559326716, -7403.65772290918, -10770.948025101188, 18114.703072870147, 12371.39998333454, 0.068, 0.912, 0.368, 192.0, 0.0, 0.0, 0.0, 0.0, 0.0, 0.0, 0.0, 0.0, 0.0, 1.6878027395052743E9, 0.0, 2023-06-26 13:05:39.505
75.0, 45684.37286429082, 48591.820727803795, 49298.20290782487, -4812.576450416619, -7319.503405034949, -10656.998831868033, 18201.204323912185, 12485.885618434622, 0.068, 0.912, 0.368, 192.0, 0.0, 0.0, 0.0, 0.0, 0.0, 0.0, 0.0, 0.0, 0.0, 1.6878027395092158E9, 0.0, 2023-06-26 13:05:39.509
76.0, 45662.73637565808, 48585.80810854532, 48276.236447839314, -4818.611421419552, -7300.325608292295, -10663.704355204625, 18229.65809460379, 12500.458955819484, 0.068, 0.912, 0.368, 192.0, 0.0, 0.0, 0.0, 0.0, 0.0, 0.0, 0.0, 0.0, 0.0, 1.6878027395132508E9, 0.0, 2023-06-26 13:05:39.513
77.0, 45664.926846614704, 48609.25508847894, 50234.204558635305, -4889.8017275097045, -7364.139838712197, -10764.644833164792, 18131.82450912291, 12374.506875813828, 0.068, 0.912, 0.368, 192.0, 0.0, 0.0, 0.0, 0.0, 0.0, 0.0, 0.0, 0.0, 0.0, 1.6878027395172455E9, 0.0, 2023-06-26 13:05:39.517
78.0, 45625.38661067327, 48570.38540487116, 52422.52974778769, -4921.541204636241, -7408.776272389445, -10788.51649624306, 18096.24053195006, 12351.529282513773, 0.068, 0.912, 0.368, 192.0, 0.0, 0.0, 0.0, 0.0, 0.0, 0.0, 0.0, 0.0, 0.0, 1.6878027395212817E9, 0.0, 2023-06-26 13:05:39.521
79.0, 45683.2329253236, 48594.346474927246, 49971.3927473298, -4821.070113309635, -7341.519873323426, -10676.288387332963, 18167.31907931794, 12456.56012970926, 0.068, 0.912, 0.368, 192.0, 0.0, 0.0, 0.0, 0.0, 0.0, 0.0, 0.0, 0.0, 0.0, 1.6878027395253E9, 0.0, 2023-06-26 13:05:39.525
80.0, 45681.93652414519, 48604.963553543515, 48067.60526509348, -4794.315075196633, -7290.580247709781, -10639.519767703983, 18238.88936506383, 12510.964275713477, 0.06, 0.918, 0.356, 192.0, 1.0, 224.0, 28.0, 176.0, 11.0, 32.0, 0.0, 0.0, 0.0, 1.6878027395303164E9, 0.0, 2023-06-26 13:05:39.530
81.0, 45668.65958793874, 48614.91007982613, 49812.6059547193, -4883.543239062219, -7361.032946232909, -10756.151170271776, 18138.30651501495, 12380.318329372209, 0.06, 0.918, 0.356, 192.0, 0.0, 0.0, 0.0, 0.0, 0.0, 0.0, 0.0, 0.0, 0.0, 1.6878027395343337E9, 0.0, 2023-06-26 13:05:39.534
82.0, 45637.16598000121, 48585.76340505641, 52174.872419222884, -4925.028076771268, -7403.903592098188, -10787.376557275838, 18095.234703449572, 12348.377686545575, 0.06, 0.918, 0.356, 192.0, 0.0, 0.0, 0.0, 0.0, 0.0, 0.0, 0.0, 0.0, 0.0, 1.6878027395373588E9, 0.0, 2023-06-26 13:05:39.537
83.0, 45678.5837624769, 48595.32995168328, 50658.753592819405, -4850.283843312722, -7360.965890999543, -10694.125079408299, 18164.346297305383, 12437.494091688883, 0.06, 0.918, 0.356, 192.0, 0.0, 0.0, 0.0, 0.0, 0.0, 0.0, 0.0, 0.0, 0.0, 1.68780273954237E9, 0.0, 2023-06-26 13:05:39.542
84.0, 45691.61482949434, 48610.417379190614, 47996.482014236695, -4781.418118645921, -7273.347052734739, -10609.970761534067, 18268.99716484513, 12545.877700552666, 0.06, 0.918, 0.356, 192.0, 0.0, 0.0, 0.0, 0.0, 0.0, 0.0, 0.0, 0.0, 0.0, 1.6878027395463972E9, 0.0, 2023-06-26 13:05:39.546
85.0, 45664.05512858095, 48605.41058843263, 49441.87992118358, -4868.120535388057, -7337.161283154641, -10718.935515753688, 18185.736916749112, 12428.374579951118, 0.06, 0.918, 0.356, 192.0, 0.0, 0.0, 0.0, 0.0, 0.0, 0.0, 0.0, 0.0, 0.0, 1.6878027395494215E9, 0.0, 2023-06-26 13:05:39.549
86.0, 45639.8705410803, 48590.32316092529, 51819.680848083604, -4913.11459697659, -7375.293359195395, -10769.673975667236, 18140.765206905035, 12376.384422348074, 0.06, 0.918, 0.356, 192.0, 0.0, 0.0, 0.0, 0.0, 0.0, 0.0, 0.0, 0.0, 0.0, 1.6878027395534265E9, 0.0, 2023-06-26 13:05:39.553
87.0, 45647.04545105046, 48571.99473047194, 51333.48570269176, -4879.095241915613, -7371.068879493342, -10719.270791920519, 18160.457093770157, 12419.992675780377, 0.06, 0.918, 0.356, 192.0, 0.0, 0.0, 0.0, 0.0, 0.0, 0.0, 0.0, 0.0, 0.0, 1.6878027395574648E9, 0.0, 2023-06-26 13:05:39.557
88.0, 45685.71396895814, 48604.561222143326, 48088.72766360374, -4783.89916228046, -7272.475334700983, -10604.919267287169, 18268.572481700478, 12549.901014554622, 0.06, 0.918, 0.356, 192.0, 0.0, 0.0, 0.0, 0.0, 0.0, 0.0, 0.0, 0.0, 0.0, 1.687802739563498E9, 0.0, 2023-06-26 13:05:39.563
89.0, 45661.305864012946, 48606.371713444205, 49130.274251732146, -4864.767773719761, -7330.321649351317, -10697.969579454611, 18206.45698385918, 12454.660231430558, 0.06, 0.918, 0.356, 192.0, 0.0, 0.0, 0.0, 0.0, 0.0, 0.0, 0.0, 0.0, 0.0, 1.687802739567516E9, 0.0, 2023-06-26 13:05:39.567
90.0, 45645.36907021631, 48600.917887797106, 51412.11913968553, -4911.058236486702, -7360.74237355499, -10761.627347663325, 18159.40656178076, 12386.241541652864, 0.052000000000000005, 0.924, 0.34400000000000003, 192.0, 1.0, 160.0, 28.0, 224.0, 10.0, 192.0, 0.0, 0.0, 0.0, 1.6878027395705051E9, 0.0, 2023-06-26 13:05:39.570
91.0, 45627.97941303008, 48558.404869843114, 51882.399843025196, -4905.1797276949565, -7372.544094627392, -10742.829530576413, 18161.082942614907, 12406.291056429274, 0.052000000000000005, 0.924, 0.34400000000000003, 192.0, 0.0, 0.0, 0.0, 0.0, 0.0, 0.0, 0.0, 0.0, 0.0, 1.687802739576551E9, 0.0, 2023-06-26 13:05:39.576
92.0, 45685.93748640269, 48598.01216101792, 48376.506373465825, -4798.606610132052, -7273.7270323904795, -10624.43234019665, 18273.266348036093, 12529.851499778211, 0.052000000000000005, 0.924, 0.34400000000000003, 192.0, 0.0, 0.0, 0.0, 0.0, 0.0, 0.0, 0.0, 0.0, 0.0, 1.6878027395795472E9, 0.0, 2023-06-26 13:05:39.579
93.0, 45664.12218381431, 48601.49903315295, 48828.61510856332, -4865.7288987313395, -7313.602544498747, -10700.338864366873, 18234.240202217126, 12454.727286663925, 0.052000000000000005, 0.924, 0.34400000000000003, 192.0, 0.0, 0.0, 0.0, 0.0, 0.0, 0.0, 0.0, 0.0, 0.0, 1.6878027395835688E9, 0.0, 2023-06-26 13:05:39.583
94.0, 45661.015291335025, 48608.472777423, 50983.770308944026, -4914.098073732624, -7357.7248880535235, -10770.165714045253, 18158.177215835716, 12371.44468682345, 0.052000000000000005, 0.924, 0.34400000000000003, 192.0, 0.0, 0.0, 0.0, 0.0, 0.0, 0.0, 0.0, 0.0, 0.0, 1.6878027395865846E9, 0.0, 2023-06-26 13:05:39.586
95.0, 45626.23597696257, 48559.63421578815, 52254.5340364616, -4916.35559992261, -7389.46436518006, -10762.32025174144, 18143.648581939768, 12380.20657064993, 0.052000000000000005, 0.924, 0.34400000000000003, 192.0, 0.0, 0.0, 0.0, 0.0, 0.0, 0.0, 0.0, 0.0, 0.0, 1.6878027395895972E9, 0.0, 2023-06-26 13:05:39.589
96.0, 45688.55264050396, 48598.86152730722, 48842.160265703234, -4791.454051906354, -7296.011721612421, -10627.29336348693, 18243.672638377266, 12507.790328000823, 0.052000000000000005, 0.924, 0.34400000000000003, 192.0, 0.0, 0.0, 0.0, 0.0, 0.0, 0.0, 0.0, 0.0, 0.0, 1.6878027395926237E9, 0.0, 2023-06-26 13:05:39.592
97.0, 45670.42537575071, 48602.05782676433, 48543.6080150137, -4820.5336714427085, -7286.400471496639, -10654.271919044486, 18244.90198432231, 12493.082880149232, 0.052000000000000005, 0.924, 0.34400000000000003, 192.0, 0.0, 0.0, 0.0, 0.0, 0.0, 0.0, 0.0, 0.0, 0.0, 1.68780273959665E9, 0.0, 2023-06-26 13:05:39.596
98.0, 45669.93363737269, 48620.542719428864, 50554.63916714659, -4889.175878664956, -7347.64425130418, -10748.484521923605, 18157.774884435523, 12379.267797382809, 0.052000000000000005, 0.924, 0.34400000000000003, 192.0, 0.0, 0.0, 0.0, 0.0, 0.0, 0.0, 0.0, 0.0, 0.0, 1.687802739601652E9, 0.0, 2023-06-26 13:05:39.601
99.0, 45635.75782010053, 48578.00734973042, 52401.29559055514, -4917.294373189732, -7389.8443448358, -10769.293996011496, 18127.175346276206, 12361.788733218758, 0.052000000000000005, 0.924, 0.34400000000000003, 192.0, 0.0, 0.0, 0.0, 0.0, 0.0, 0.0, 0.0, 0.0, 0.0, 1.687802739605678E9, 0.0, 2023-06-26 13:05:39.605
100.0, 45693.40296905077, 48607.846928578256, 49441.701107227935, -4810.341275971088, -7314.317800321317, -10650.136846320254, 18206.345225136905, 12474.240359573409, 0.048, 0.9380000000000001, 0.336, 192.0, 1.0, 128.0, 29.0, 80.0, 10.0, 128.0, 0.0, 0.0, 0.0, 1.6878027396097057E9, 0.0, 2023-06-26 13:05:39.609
101.0, 45682.65177996776, 48614.9771350595, 48301.136291162526, -4805.468595679831, -7284.500573217938, -10640.235023526553, 18249.059408790996, 12496.14506913961, 0.048, 0.9380000000000001, 0.336, 192.0, 0.0, 0.0, 0.0, 0.0, 0.0, 0.0, 0.0, 0.0, 0.0, 1.6878027396137328E9, 0.0, 2023-06-26 13:05:39.613
102.0, 45680.77423343351, 48628.85756836624, 50165.65175839088, -4881.889209972526, -7345.945518725577, -10743.768303843535, 18156.478483257113, 12372.986957190868, 0.048, 0.9380000000000001, 0.336, 192.0, 0.0, 0.0, 0.0, 0.0, 0.0, 0.0, 0.0, 0.0, 0.0, 1.6878027396177468E9, 0.0, 2023-06-26 13:05:39.617
103.0, 45649.615901662815, 48601.36492268621, 52328.42890363085, -4905.693817817428, -7376.656815607169, -10754.251271993075, 18136.607782436346, 12376.965567703912, 0.048, 0.9380000000000001, 0.336, 192.0, 0.0, 0.0, 0.0, 0.0, 0.0, 0.0, 0.0, 0.0, 0.0, 1.6878027396207588E9, 0.0, 2023-06-26 13:05:39.620
104.0, 45684.26110556854, 48610.1715100016, 50108.8783274744, -4818.969049330837, -7327.706495250046, -10654.406029511218, 18194.49880057559, 12471.334632794218, 0.048, 0.9380000000000001, 0.336, 192.0, 0.0, 0.0, 0.0, 0.0, 0.0, 0.0, 0.0, 0.0, 0.0, 1.68780273962477E9, 0.0, 2023-06-26 13:05:39.624
105.0, 45687.591515492386, 48621.79441711836, 48123.66344018739, -4784.99439775877, -7276.811573125312, -10612.09417725732, 18255.586118171945, 12531.393770145629, 0.048, 0.9380000000000001, 0.336, 192.0, 0.0, 0.0, 0.0, 0.0, 0.0, 0.0, 0.0, 0.0, 0.0, 1.687802739629783E9, 0.0, 2023-06-26 13:05:39.629
106.0, 45685.02106488003, 48639.362888260235, 49790.500079453006, -4862.1526196184905, -7339.865844233733, -10719.561364598438, 18175.07513464393, 12408.481527385895, 0.048, 0.9380000000000001, 0.336, 192.0, 0.0, 0.0, 0.0, 0.0, 0.0, 0.0, 0.0, 0.0, 0.0, 1.6878027396338117E9, 0.0, 2023-06-26 13:05:39.633
107.0, 45646.754878372536, 48604.404759932135, 52095.12139500635, -4903.7715677942715, -7381.708309854068, -10761.9402720857, 18145.883756385298, 12366.683765254471, 0.048, 0.9380000000000001, 0.336, 192.0, 0.0, 0.0, 0.0, 0.0, 0.0, 0.0, 0.0, 0.0, 0.0, 1.687802739637843E9, 0.0, 2023-06-26 13:05:39.637
108.0, 45674.35928277484, 48599.8226523188, 50804.464614923556, -4845.76879093275, -7350.639385061191, -10687.26309386052, 18178.539655034503, 12437.315277733242, 0.048, 0.9380000000000001, 0.336, 192.0, 0.0, 0.0, 0.0, 0.0, 0.0, 0.0, 0.0, 0.0, 0.0, 1.6878027396408553E9, 0.0, 2023-06-26 13:05:39.640
109.0, 45698.43211155321, 48625.19188227557, 48053.92599748683, -4775.986644743281, -7262.841732840745, -10601.342988174318, 18281.067106850995, 12547.665840109092, 0.048, 0.9380000000000001, 0.336, 192.0, 0.0, 0.0, 0.0, 0.0, 0.0, 0.0, 0.0, 0.0, 0.0, 1.6878027396448624E9, 0.0, 2023-06-26 13:05:39.644
110.0, 45680.32719854441, 48627.29294625437, 49447.40080206404, -4862.778468463239, -7316.552974766848, -10708.653713304248, 18211.664940317267, 12437.672905644526, 0.046, 0.934, 0.328, 192.0, 1.0, 112.0, 29.0, 48.0, 10.0, 64.0, 0.0, 0.0, 0.0, 1.6878027396488943E9, 0.0, 2023-06-26 13:05:39.648
111.0, 45654.98032033209, 48610.64089663517, 51756.715983953, -4907.906640518504, -7355.757934541457, -10761.98497557461, 18169.375439807827, 12382.888779984569, 0.046, 0.934, 0.328, 192.0, 0.0, 0.0, 0.0, 0.0, 0.0, 0.0, 0.0, 0.0, 0.0, 1.6878027396529207E9, 0.0, 2023-06-26 13:05:39.652
112.0, 45652.052241808444, 48578.90141950863, 51447.412544180464, -4879.162297148979, -7357.054335719864, -10719.539012853982, 18180.05957365746, 12418.718626346425, 0.046, 0.934, 0.328, 192.0, 0.0, 0.0, 0.0, 0.0, 0.0, 0.0, 0.0, 0.0, 0.0, 1.687802739656932E9, 0.0, 2023-06-26 13:05:39.656
113.0, 45685.490451513586, 48604.15889074313, 48171.98791169976, -4785.061452992136, -7256.4714856709825, -10612.742377846525, 18287.19148483175, 12543.798988318324, 0.046, 0.934, 0.328, 192.0, 0.0, 0.0, 0.0, 0.0, 0.0, 0.0, 0.0, 0.0, 0.0, 1.6878027396619513E9, 0.0, 2023-06-26 13:05:39.661
114.0, 45670.380672261796, 48613.85954783673, 49113.421036412845, -4856.140000360012, -7302.91841064911, -10697.790765498969, 18231.625048115857, 12457.096571576187, 0.046, 0.934, 0.328, 192.0, 0.0, 0.0, 0.0, 0.0, 0.0, 0.0, 0.0, 0.0, 0.0, 1.6878027396659667E9, 0.0, 2023-06-26 13:05:39.665
115.0, 45662.46815472462, 48615.37946645969, 51320.72285660778, -4912.131120220557, -7352.204007173063, -10771.41741173475, 18157.73018094661, 12371.847018223647, 0.046, 0.934, 0.328, 192.0, 0.0, 0.0, 0.0, 0.0, 0.0, 0.0, 0.0, 0.0, 0.0, 1.6878027396689813E9, 0.0, 2023-06-26 13:05:39.668
116.0, 45648.31950048441, 48582.00831198792, 51937.36278264079, -4905.962038750892, -7373.7510888279785, -10749.691516124192, 18144.006209851053, 12384.632216052081, 0.046, 0.934, 0.328, 192.0, 0.0, 0.0, 0.0, 0.0, 0.0, 0.0, 0.0, 0.0, 0.0, 1.6878027396730037E9, 0.0, 2023-06-26 13:05:39.673
117.0, 45692.9335824172, 48611.28909722437, 48487.08045328623, -4790.604685617052, -7283.517096461904, -10619.559659905393, 18246.33249596745, 12519.949676984512, 0.046, 0.934, 0.328, 192.0, 0.0, 0.0, 0.0, 0.0, 0.0, 0.0, 0.0, 0.0, 0.0, 1.6878027396770208E9, 0.0, 2023-06-26 13:05:39.677
118.0, 45665.41858499272, 48605.14236749916, 48857.24769321057, -4840.583186219119, -7315.457739288538, -10680.579922268382, 18218.7504433096, 12460.024650099833, 0.046, 0.934, 0.328, 192.0, 0.0, 0.0, 0.0, 0.0, 0.0, 0.0, 0.0, 0.0, 0.0, 1.6878027396810555E9, 0.0, 2023-06-26 13:05:39.681
119.0, 45664.233942536586, 48618.24048974997, 50924.02409601499, -4885.979579207848, -7354.640347318691, -10751.770228358535, 18147.738951175088, 12362.101657641133, 0.046, 0.934, 0.328, 192.0, 0.0, 0.0, 0.0, 0.0, 0.0, 0.0, 0.0, 0.0, 0.0, 1.6878027396850748E9, 0.0, 2023-06-26 13:05:39.685
120.0, 45633.90262531074, 48575.99569272944, 52279.322121062534, -4898.2059834249, -7388.324426212839, -10754.698306882181, 18126.7283113871, 12356.267852338297, 0.046, 0.934, 0.328, 192.0, 0.0, 0.0, 0.0, 0.0, 0.0, 0.0, 0.0, 0.0, 0.0, 1.6878027396890936E9, 0.0, 2023-06-26 13:05:39.689
121.0, 45696.71102723015, 48612.63020189169, 48949.04630768851, -4779.026481989203, -7290.669654687603, -10621.571316906371, 18229.83690855943, 12492.412327815573, 0.05, 0.9420000000000001, 0.32, 192.0, 1.0, 144.0, 29.0, 112.0, 10.0, 0.0, 0.0, 0.0, 0.0, 1.6878027396941364E9, 0.0, 2023-06-26 13:05:39.694
122.0, 45672.23586705159, 48609.61271639022, 48536.76838121038, -4809.5589649151525, -7293.821250655801, -10647.611099196803, 18240.051655775507, 12480.677661976537, 0.05, 0.9420000000000001, 0.32, 192.0, 0.0, 0.0, 0.0, 0.0, 0.0, 0.0, 0.0, 0.0, 0.0, 1.687802739697139E9, 0.0, 2023-06-26 13:05:39.697
123.0, 45662.51285821353, 48613.90425132564, 50520.552756852245, -4887.723015275361, -7355.266196163439, -10746.22699573362, 18150.152939576263, 12361.92284368549, 0.05, 0.9420000000000001, 0.32, 192.0, 0.0, 0.0, 0.0, 0.0, 0.0, 0.0, 0.0, 0.0, 0.0, 1.6878027397022262E9, 0.0, 2023-06-26 13:05:39.702
124.0, 45633.38853518826, 48579.32610265328, 52400.64738996594, -4906.990218995836, -7378.757879585967, -10754.161865015252, 18136.07134056942, 12358.033640150266, 0.05, 0.9420000000000001, 0.32, 192.0, 0.0, 0.0, 0.0, 0.0, 0.0, 0.0, 0.0, 0.0, 0.0, 1.6878027397052336E9, 0.0, 2023-06-26 13:05:39.705
125.0, 45686.02689338051, 48602.54956514235, 49573.218771602966, -4806.787348602695, -7304.348922294251, -10644.48185497306, 18214.861239774375, 12458.370621010139, 0.05, 0.9420000000000001, 0.32, 192.0, 0.0, 0.0, 0.0, 0.0, 0.0, 0.0, 0.0, 0.0, 0.0, 1.687802739709214E9, 0.0, 2023-06-26 13:05:39.709
126.0, 45667.452593738155, 48596.022855761395, 48307.61829705457, -4816.130377785013, -7290.736709920969, -10644.347744506329, 18238.33057145245, 12473.793324684302, 0.05, 0.9420000000000001, 0.32, 192.0, 0.0, 0.0, 0.0, 0.0, 0.0, 0.0, 0.0, 0.0, 0.0, 1.687802739713215E9, 0.0, 2023-06-26 13:05:39.713
127.0, 45669.50895422804, 48611.91494606912, 50125.30685964905, -4897.423672368965, -7360.205931688062, -10750.02679229102, 18134.05968356844, 12352.87038718109, 0.05, 0.9420000000000001, 0.32, 192.0, 0.0, 0.0, 0.0, 0.0, 0.0, 0.0, 0.0, 0.0, 0.0, 1.6878027397172265E9, 0.0, 2023-06-26 13:05:39.717
128.0, 45629.07464850839, 48570.81008801581, 52305.80893824207, -4931.957117552414, -7389.196144246596, -10780.581626961426, 18122.30266598495, 12329.177538058466, 0.05, 0.9420000000000001, 0.32, 192.0, 0.0, 0.0, 0.0, 0.0, 0.0, 0.0, 0.0, 0.0, 0.0, 1.6878027397222745E9, 0.0, 2023-06-26 13:05:39.722
129.0, 45669.48660248359, 48583.55058235533, 50284.406576681926, -4842.751305431283, -7334.12144590872, -10673.78499195397, 18199.08090818893, 12423.993638037879, 0.05, 0.9420000000000001, 0.32, 192.0, 0.0, 0.0, 0.0, 0.0, 0.0, 0.0, 0.0, 0.0, 0.0, 1.6878027397252693E9, 0.0, 2023-06-26 13:05:39.725
130.0, 45680.39425377778, 48605.14236749916, 48143.44473403034, -4792.146955984468, -7266.552122420326, -10611.960066790589, 18282.631728962868, 12511.031330946844, 0.05, 0.9420000000000001, 0.32, 192.0, 0.0, 0.0, 0.0, 0.0, 0.0, 0.0, 0.0, 0.0, 0.0, 1.6878027397282932E9, 0.0, 2023-06-26 13:05:39.728
131.0, 45666.08913732638, 48609.21038499002, 49759.56526512686, -4880.034015182736, -7336.401323843161, -10723.629382089304, 18198.298597132994, 12392.03064346679, 0.046, 0.9460000000000001, 0.308, 192.0, 1.0, 112.0, 29.0, 144.0, 9.0, 160.0, 0.0, 0.0, 0.0, 1.6878027397333088E9, 0.0, 2023-06-26 13:05:39.733
132.0, 45648.34185222886, 48593.988847015964, 52022.99231564908, -4915.081550488657, -7364.050431734376, -10754.228920248619, 18163.184006593707, 12369.745954244847, 0.046, 0.9460000000000001, 0.308, 192.0, 0.0, 0.0, 0.0, 0.0, 0.0, 0.0, 0.0, 0.0, 0.0, 1.6878027397373254E9, 0.0, 2023-06-26 13:05:39.737
133.0, 45670.96181761764, 48588.467966135504, 50936.89870082125, -4867.695852243406, -7345.252614647462, -10696.44966083165, 18187.994442939096, 12419.769158335825, 0.046, 0.9460000000000001, 0.308, 192.0, 0.0, 0.0, 0.0, 0.0, 0.0, 0.0, 0.0, 0.0, 0.0, 1.68780273974133E9, 0.0, 2023-06-26 13:05:39.741
134.0, 45691.97245740562, 48609.724475112496, 48097.489547430225, -4795.611476375041, -7261.4559246845165, -10616.63158138175, 18285.313938297502, 12519.167365928575, 0.046, 0.9460000000000001, 0.308, 192.0, 0.0, 0.0, 0.0, 0.0, 0.0, 0.0, 0.0, 0.0, 0.0, 1.6878027397453618E9, 0.0, 2023-06-26 13:05:39.745
135.0, 45668.83840189438, 48607.31048671132, 49398.226964262365, -4882.291541372721, -7325.717189993524, -10728.144434469275, 18209.385062382826, 12407.386291907584, 0.046, 0.9460000000000001, 0.308, 192.0, 0.0, 0.0, 0.0, 0.0, 0.0, 0.0, 0.0, 0.0, 0.0, 1.6878027397493658E9, 0.0, 2023-06-26 13:05:39.749
136.0, 45646.86663709481, 48592.2677626929, 51642.61032850866, -4923.932841292959, -7364.251597434473, -10783.621464207348, 18157.797236179977, 12348.10946561211, 0.046, 0.9460000000000001, 0.308, 192.0, 0.0, 0.0, 0.0, 0.0, 0.0, 0.0, 0.0, 0.0, 0.0, 1.6878027397533944E9, 0.0, 2023-06-26 13:05:39.753
137.0, 45648.922997584705, 48572.08413744976, 51525.48718756285, -4884.996102451814, -7367.067917235842, -10731.787768815491, 18169.129570618818, 12394.578742334694, 0.046, 0.9460000000000001, 0.308, 192.0, 0.0, 0.0, 0.0, 0.0, 0.0, 0.0, 0.0, 0.0, 0.0, 1.6878027397564225E9, 0.0, 2023-06-26 13:05:39.756
138.0, 45690.1843178492, 48605.56705064381, 48231.80117986217, -4781.865153535027, -7272.408279467617, -10619.023218038466, 18272.79696140253, 12517.938019983534, 0.046, 0.9460000000000001, 0.308, 192.0, 0.0, 0.0, 0.0, 0.0, 0.0, 0.0, 0.0, 0.0, 0.0, 1.6878027397604263E9, 0.0, 2023-06-26 13:05:39.760
139.0, 45671.61001820684, 48609.43390243458, 49073.70198651576, -4850.350898546088, -7313.915468921122, -10700.808251000435, 18222.550239867003, 12429.670981129526, 0.046, 0.9460000000000001, 0.308, 192.0, 0.0, 0.0, 0.0, 0.0, 0.0, 0.0, 0.0, 0.0, 0.0, 1.6878027397654548E9, 0.0, 2023-06-26 13:05:39.765
140.0, 45657.19314303317, 48605.321181454805, 51198.30235222606, -4904.77739629476, -7361.859960777755, -10774.636062936313, 18145.615535451834, 12338.25234630732, 0.046, 0.9460000000000001, 0.308, 192.0, 0.0, 0.0, 0.0, 0.0, 0.0, 0.0, 0.0, 0.0, 0.0, 1.6878027397694728E9, 0.0, 2023-06-26 13:05:39.769
141.0, 45646.79958186145, 48580.354282898224, 51979.361710472316, -4894.182669422945, -7375.9192080401435, -10750.22795799112, 18138.507680715047, 12360.715849484903, 0.046, 0.9420000000000001, 0.312, 192.0, 1.0, 112.0, 29.0, 112.0, 9.0, 192.0, 0.0, 0.0, 0.0, 1.6878027397734888E9, 0.0, 2023-06-26 13:05:39.773
142.0, 45704.82471046742, 48621.325030484804, 48524.20670082649, -4784.927342525404, -7277.303311503329, -10628.634468154249, 18243.270306977072, 12490.132449881132, 0.046, 0.9420000000000001, 0.312, 192.0, 0.0, 0.0, 0.0, 0.0, 0.0, 0.0, 0.0, 0.0, 0.0, 1.687802739777522E9, 0.0, 2023-06-26 13:05:39.777
143.0, 45681.7353584451, 48622.12969328519, 48749.199360513616, -4836.425761750432, -7300.504422247937, -10679.372928067796, 18225.612428857377, 12443.260841758352, 0.046, 0.9420000000000001, 0.312, 192.0, 0.0, 0.0, 0.0, 0.0, 0.0, 0.0, 0.0, 0.0, 0.0, 1.6878027397815392E9, 0.0, 2023-06-26 13:05:39.781
144.0, 45673.241695552075, 48628.43288522159, 50749.434620074586, -4894.696759545417, -7343.352716368761, -10761.98497557461, 18157.21609082414, 12345.382552788562, 0.046, 0.9420000000000001, 0.312, 192.0, 0.0, 0.0, 0.0, 0.0, 0.0, 0.0, 0.0, 0.0, 0.0, 1.6878027397855356E9, 0.0, 2023-06-26 13:05:39.785
145.0, 45639.98229980258, 48584.08702422226, 52220.4252744228, -4911.773492309272, -7376.098021995786, -10762.566120930449, 18143.11214007284, 12345.717828955392, 0.046, 0.9420000000000001, 0.312, 192.0, 0.0, 0.0, 0.0, 0.0, 0.0, 0.0, 0.0, 0.0, 0.0, 1.6878027397905788E9, 0.0, 2023-06-26 13:05:39.790
146.0, 45686.16100384724, 48600.2696872079, 49035.86048315293, -4808.1508050144685, -7297.978675124487, -10646.62762244077, 18234.821347572964, 12463.690336190502, 0.046, 0.9420000000000001, 0.312, 192.0, 0.0, 0.0, 0.0, 0.0, 0.0, 0.0, 0.0, 0.0, 0.0, 1.687802739793586E9, 0.0, 2023-06-26 13:05:39.793
147.0, 45670.22421005061, 48602.5719168868, 48475.97163629194, -4829.04968608018, -7280.67842491608, -10664.39725928274, 18256.18961527224, 12460.784609411314, 0.046, 0.9420000000000001, 0.312, 192.0, 0.0, 0.0, 0.0, 0.0, 0.0, 0.0, 0.0, 0.0, 0.0, 1.6878027397975972E9, 0.0, 2023-06-26 13:05:39.797
148.0, 45672.50408798505, 48621.03445780688, 50344.309251822146, -4898.809480525194, -7329.807559228845, -10757.872254594833, 18167.49789327358, 12346.254270822319, 0.046, 0.9420000000000001, 0.312, 192.0, 0.0, 0.0, 0.0, 0.0, 0.0, 0.0, 0.0, 0.0, 0.0, 1.68780273980162E9, 0.0, 2023-06-26 13:05:39.801
149.0, 45635.62370963379, 48581.09189046525, 52264.03352785511, -4926.570347138685, -7370.979472515521, -10770.456286723173, 18138.95471560415, 12339.235823063353, 0.046, 0.9420000000000001, 0.312, 192.0, 0.0, 0.0, 0.0, 0.0, 0.0, 0.0, 0.0, 0.0, 0.0, 1.687802739805653E9, 0.0, 2023-06-26 13:05:39.805
150.0, 45687.300942814465, 48605.18707098807, 49612.9601732445, -4827.328601757122, -7304.0136461274205, -10652.684945188159, 18219.823327043454, 12452.492112218395, 0.046, 0.9420000000000001, 0.312, 192.0, 0.0, 0.0, 0.0, 0.0, 0.0, 0.0, 0.0, 0.0, 0.0, 1.6878027398086517E9, 0.0, 2023-06-26 13:05:39.808
151.0, 45677.600285720866, 48608.40572218964, 48211.43874066338, -4812.889374838994, -7267.379136965173, -10628.567412920882, 18284.799848175033, 12500.190734886019, 0.04, 0.9500000000000001, 0.308, 192.0, 1.0, 64.0, 29.0, 176.0, 9.0, 160.0, 0.0, 0.0, 0.0, 1.687802739812668E9, 0.0, 2023-06-26 13:05:39.812
152.0, 45668.32431177191, 48615.58063215979, 49970.431622318225, -4892.305122888699, -7333.674411019613, -10734.626440361315, 18190.02845168453, 12377.189085148464, 0.04, 0.9500000000000001, 0.308, 192.0, 0.0, 0.0, 0.0, 0.0, 0.0, 0.0, 0.0, 0.0, 0.0, 1.6878027398167129E9, 0.0, 2023-06-26 13:05:39.816
153.0, 45633.947328799644, 48579.594323586745, 52131.93471812424, -4926.682105860961, -7370.979472515521, -10768.265815766552, 18154.60093672287, 12341.046314364234, 0.04, 0.9500000000000001, 0.308, 192.0, 0.0, 0.0, 0.0, 0.0, 0.0, 0.0, 0.0, 0.0, 0.0, 1.687802739820709E9, 0.0, 2023-06-26 13:05:39.820
154.0, 45668.99486410557, 48586.07632947878, 50301.90799259043, -4850.596767735096, -7336.781303498901, -10678.009471656022, 18201.47254484565, 12425.513556660839, 0.04, 0.9500000000000001, 0.308, 192.0, 0.0, 0.0, 0.0, 0.0, 0.0, 0.0, 0.0, 0.0, 0.0, 1.6878027398247418E9, 0.0, 2023-06-26 13:05:39.824
155.0, 45677.019140365024, 48600.18028023008, 48077.26121869817, -4801.266467722234, -7275.9175033471, -10615.245773225519, 18281.84941790693, 12518.072130450266, 0.04, 0.9500000000000001, 0.308, 192.0, 0.0, 0.0, 0.0, 0.0, 0.0, 0.0, 0.0, 0.0, 0.0, 1.6878027398297791E9, 0.0, 2023-06-26 13:05:39.829
156.0, 45669.17367806121, 48612.585498402776, 49610.881461010154, -4879.229352382345, -7334.054390675354, -10721.841242532879, 18206.904018748286, 12403.83236453919, 0.04, 0.9500000000000001, 0.308, 192.0, 0.0, 0.0, 0.0, 0.0, 0.0, 0.0, 0.0, 0.0, 0.0, 1.687802739833809E9, 0.0, 2023-06-26 13:05:39.833
157.0, 45635.69076486716, 48584.064672477805, 51840.89265357169, -4920.043637757735, -7372.432335905116, -10768.087001810909, 18163.005192638062, 12353.607994748116, 0.04, 0.9500000000000001, 0.308, 192.0, 0.0, 0.0, 0.0, 0.0, 0.0, 0.0, 0.0, 0.0, 0.0, 1.6878027398368285E9, 0.0, 2023-06-26 13:05:39.836
158.0, 45664.2786460255, 48586.90334402363, 50960.68095692169, -4868.075831899147, -7363.8269142898225, -10707.35731212584, 18192.375384852337, 12413.22009721042, 0.04, 0.9500000000000001, 0.308, 192.0, 0.0, 0.0, 0.0, 0.0, 0.0, 0.0, 0.0, 0.0, 0.0, 1.687802739840826E9, 0.0, 2023-06-26 13:05:39.840
159.0, 45698.767387720036, 48620.43096070659, 48056.49644809919, -4774.936112753882, -7269.01081431041, -10606.685055099137, 18297.182714603274, 12530.119720711675, 0.04, 0.9500000000000001, 0.308, 192.0, 0.0, 0.0, 0.0, 0.0, 0.0, 0.0, 0.0, 0.0, 0.0, 1.687802739844854E9, 0.0, 2023-06-26 13:05:39.844
160.0, 45673.01817810752, 48616.787626360376, 49300.214564825845, -4859.179837605934, -7329.7852074843895, -10720.50013786556, 18215.755309552587, 12406.358111662641, 0.04, 0.9500000000000001, 0.308, 192.0, 0.0, 0.0, 0.0, 0.0, 0.0, 0.0, 0.0, 0.0, 0.0, 1.6878027398488667E9, 0.0, 2023-06-26 13:05:39.848
161.0, 45668.54782921646, 48620.989754317976, 51445.35618369057, -4895.210849667889, -7363.446934634082, -10773.026737335533, 18161.284108315005, 12348.243576078841, 0.04, 0.9500000000000001, 0.308, 192.0, 0.0, 0.0, 0.0, 0.0, 0.0, 0.0, 0.0, 0.0, 0.0, 1.6878027398528938E9, 0.0, 2023-06-26 13:05:39.852
162.0, 45673.532268229996, 48606.014085532915, 51533.5114638223, -4868.947549932904, -7370.4653823930485, -10739.946155541678, 18161.753494948567, 12369.768305989302, 0.044, 0.9480000000000001, 0.31, 192.0, 1.0, 96.0, 29.0, 160.0, 9.0, 176.0, 0.0, 0.0, 0.0, 1.687802739857911E9, 0.0, 2023-06-26 13:05:39.857
163.0, 45724.293079888, 48641.68746968359, 48235.153941530465, -4768.454106861843, -7274.956378335522, -10634.9600118351, 18265.107961309906, 12485.304473078784, 0.044, 0.9480000000000001, 0.31, 192.0, 0.0, 0.0, 0.0, 0.0, 0.0, 0.0, 0.0, 0.0, 0.0, 1.687802739861941E9, 0.0, 2023-06-26 13:05:39.861
164.0, 45702.90246044427, 48638.96055686004, 48993.034540776556, -4840.471427496842, -7323.549070781359, -10720.880117521301, 18209.40741412728, 12396.568047591216, 0.044, 0.9480000000000001, 0.31, 192.0, 0.0, 0.0, 0.0, 0.0, 0.0, 0.0, 0.0, 0.0, 0.0, 1.6878027398651266E9, 0.0, 2023-06-26 13:05:39.865
165.0, 45694.40879755125, 48648.929434887104, 51023.6458210523, -4896.194326423923, -7366.129143968719, -10796.876048669345, 18135.26667776903, 12298.600351643605, 0.044, 0.9480000000000001, 0.31, 192.0, 0.0, 0.0, 0.0, 0.0, 0.0, 0.0, 0.0, 0.0, 0.0, 1.6878027398689494E9, 0.0, 2023-06-26 13:05:39.868
166.0, 45671.297093784466, 48614.99948680395, 51942.637794332244, -4894.182669422945, -7382.602379632281, -10773.965510602655, 18139.35704700435, 12338.095884096132, 0.044, 0.9480000000000001, 0.31, 192.0, 0.0, 0.0, 0.0, 0.0, 0.0, 0.0, 0.0, 0.0, 0.0, 1.6878027398729987E9, 0.0, 2023-06-26 13:05:39.872
167.0, 45725.92475723324, 48644.190865062585, 48568.84313450374, -4792.2810664512, -7291.004930854432, -10656.663555701203, 18241.19159474273, 12459.577615210726, 0.044, 0.9480000000000001, 0.31, 192.0, 0.0, 0.0, 0.0, 0.0, 0.0, 0.0, 0.0, 0.0, 0.0, 1.6878027398790207E9, 0.0, 2023-06-26 13:05:39.879
168.0, 45702.20955636616, 48640.88280688319, 48685.295723115894, -4840.762000174761, -7306.584096739781, -10703.177535912697, 18222.863164289378, 12423.837175826691, 0.044, 0.9480000000000001, 0.31, 192.0, 0.0, 0.0, 0.0, 0.0, 0.0, 0.0, 0.0, 0.0, 0.0, 1.6878027398820093E9, 0.0, 2023-06-26 13:05:39.882
169.0, 45697.04630339698, 48649.62233896522, 50581.505963981865, -4887.588904808629, -7334.635536031192, -10764.957757587166, 18179.590187023903, 12353.384477303563, 0.044, 0.9480000000000001, 0.31, 192.0, 0.0, 0.0, 0.0, 0.0, 0.0, 0.0, 0.0, 0.0, 0.0, 1.6878027398860536E9, 0.0, 2023-06-26 13:05:39.886
170.0, 45650.12999178529, 48590.85960279222, 52167.58575053045, -4914.098073732624, -7364.810391045856, -10768.981071589122, 18161.708791459656, 12346.38838128905, 0.044, 0.9480000000000001, 0.31, 192.0, 0.0, 0.0, 0.0, 0.0, 0.0, 0.0, 0.0, 0.0, 0.0, 1.6878027398890693E9, 0.0, 2023-06-26 13:05:39.889
171.0, 45703.48360580011, 48614.552451914846, 49083.31323663155, -4819.281973753211, -7290.379082009684, -10656.440038256651, 18245.08079827795, 12449.944013350489, 0.044, 0.9480000000000001, 0.31, 192.0, 0.0, 0.0, 0.0, 0.0, 0.0, 0.0, 0.0, 0.0, 0.0, 1.687802739892075E9, 0.0, 2023-06-26 13:05:39.892
172.0, 45692.531251017004, 48620.341553728766, 48381.58021945718, -4839.934985629915, -7280.834887127267, -10666.118343605798, 18266.493769466135, 12459.599966955182, 0.05, 0.9480000000000001, 0.31, 192.0, 1.0, 144.0, 29.0, 160.0, 9.0, 176.0, 0.0, 0.0, 0.0, 1.6878027398970935E9, 0.0, 2023-06-26 13:05:39.897
173.0, 45688.99967539307, 48636.52421671441, 50192.83147964853, -4913.293410932232, -7339.396457600172, -10756.777019116524, 18177.131495133817, 12353.965622659402, 0.05, 0.9480000000000001, 0.31, 192.0, 0.0, 0.0, 0.0, 0.0, 0.0, 0.0, 0.0, 0.0, 0.0, 1.6878027399011023E9, 0.0, 2023-06-26 13:05:39.901
174.0, 45649.50414294054, 48595.732283083475, 52192.46324210921, -4947.715097393406, -7375.65098710668, -10776.401850748283, 18147.850709897364, 12334.229032305364, 0.05, 0.9480000000000001, 0.31, 192.0, 0.0, 0.0, 0.0, 0.0, 0.0, 0.0, 0.0, 0.0, 0.0, 1.687802739906216E9, 0.0, 2023-06-26 13:05:39.906
175.0, 45689.111434115344, 48604.71768435451, 49708.58093602431, -4852.898997413993, -7308.282829318385, -10666.610081983816, 18221.544411366514, 12434.342495720684, 0.05, 0.9480000000000001, 0.31, 192.0, 0.0, 0.0, 0.0, 0.0, 0.0, 0.0, 0.0, 0.0, 0.0, 1.6878027399102063E9, 0.0, 2023-06-26 13:05:39.910
176.0, 45680.34955028886, 48601.9237162976, 48123.48462623175, -4828.893223868993, -7256.203264737519, -10631.093160044333, 18287.057374365017, 12490.28891209232, 0.05, 0.9480000000000001, 0.31, 192.0, 0.0, 0.0, 0.0, 0.0, 0.0, 0.0, 0.0, 0.0, 0.0, 1.6878027399132311E9, 0.0, 2023-06-26 13:05:39.913
177.0, 45669.17367806121, 48609.299791967846, 49828.87802468277, -4916.199137711423, -7328.153530139152, -10741.667239864737, 18192.688309274712, 12368.203683877431, 0.05, 0.9480000000000001, 0.31, 192.0, 0.0, 0.0, 0.0, 0.0, 0.0, 0.0, 0.0, 0.0, 0.0, 1.6878027399172184E9, 0.0, 2023-06-26 13:05:39.917
178.0, 45645.23495974958, 48590.770195814395, 52023.41699879373, -4956.812257386716, -7376.098021995786, -10779.620501949848, 18149.571794220425, 12330.63040144806, 0.05, 0.9480000000000001, 0.31, 192.0, 0.0, 0.0, 0.0, 0.0, 0.0, 0.0, 0.0, 0.0, 0.0, 1.6878027399202085E9, 0.0, 2023-06-26 13:05:39.920
179.0, 45687.47975677011, 48603.153062242636, 50405.95536302988, -4881.956265205892, -7343.240957646484, -10695.35442535334, 18193.962358708664, 12405.575800606704, 0.05, 0.9480000000000001, 0.31, 192.0, 0.0, 0.0, 0.0, 0.0, 0.0, 0.0, 0.0, 0.0, 0.0, 1.687802739924232E9, 0.0, 2023-06-26 13:05:39.924
180.0, 45709.38446633631, 48625.75067588696, 48019.906642425856, -4813.425816705921, -7268.183799765564, -10619.582011649849, 18284.375165030382, 12502.269447120363, 0.05, 0.9480000000000001, 0.31, 192.0, 0.0, 0.0, 0.0, 0.0, 0.0, 0.0, 0.0, 0.0, 0.0, 1.6878027399292564E9, 0.0, 2023-06-26 13:05:39.929
181.0, 45698.499166786576, 48632.00916433444, 49492.193697952476, -4899.5470880922185, -7336.915413965633, -10721.863594277334, 18198.097431432896, 12388.677881798492, 0.05, 0.9480000000000001, 0.31, 192.0, 0.0, 0.0, 0.0, 0.0, 0.0, 0.0, 0.0, 0.0, 0.0, 1.6878027399332812E9, 0.0, 2023-06-26 13:05:39.933
182.0, 45673.42050950772, 48610.976172801995, 51700.836622814735, -4937.768571110794, -7377.014443518454, -10763.639004664303, 18155.897337901275, 12353.20566334792, 0.046, 0.9420000000000001, 0.312, 192.0, 1.0, 112.0, 29.0, 112.0, 9.0, 192.0, 0.0, 0.0, 0.0, 1.6878027399373028E9, 0.0, 2023-06-26 13:05:39.937
183.0, 45681.04245436698, 48592.78185281537, 51041.77308580555, -4892.886268244537, -7372.879370794221, -10711.537088338982, 18168.459018285157, 12393.572913834205, 0.046, 0.9420000000000001, 0.312, 192.0, 0.0, 0.0, 0.0, 0.0, 0.0, 0.0, 0.0, 0.0, 0.0, 1.6878027399413111E9, 0.0, 2023-06-26 13:05:39.941
184.0, 45721.23089089762, 48628.321126499315, 48030.05433440857, -4796.438490919887, -7271.089526544753, -10605.679226598648, 18275.255653292617, 12511.724235024958, 0.046, 0.9420000000000001, 0.312, 192.0, 0.0, 0.0, 0.0, 0.0, 0.0, 0.0, 0.0, 0.0, 0.0, 1.6878027399443276E9, 0.0, 2023-06-26 13:05:39.944
185.0, 45704.75765523406, 48632.70206841255, 49168.853362662005, -4878.223523881856, -7334.255556375451, -10709.190155171174, 18196.08577443192, 12400.256085426341, 0.046, 0.9420000000000001, 0.312, 192.0, 0.0, 0.0, 0.0, 0.0, 0.0, 0.0, 0.0, 0.0, 0.0, 1.687802739950368E9, 0.0, 2023-06-26 13:05:39.950
186.0, 45699.21442260915, 48638.55822545984, 51313.86087106, -4923.128178492568, -7376.41094641816, -10774.166676302753, 18129.857555610844, 12321.242668776831, 0.046, 0.9420000000000001, 0.312, 192.0, 0.0, 0.0, 0.0, 0.0, 0.0, 0.0, 0.0, 0.0, 0.0, 1.687802739953379E9, 0.0, 2023-06-26 13:05:39.953
187.0, 45700.04143715399, 48619.40278046165, 51599.91849659902, -4891.120480432568, -7379.316673197351, -10735.900489795267, 18147.180157563707, 12350.657564480016, 0.046, 0.9420000000000001, 0.312, 192.0, 0.0, 0.0, 0.0, 0.0, 0.0, 0.0, 0.0, 0.0, 0.0, 1.6878027399574108E9, 0.0, 2023-06-26 13:05:39.957
188.0, 45738.128809705835, 48643.65442319566, 48247.76032540326, -4779.071185478114, -7275.58222718027, -10613.211764480087, 18263.230414775662, 12491.495906292905, 0.046, 0.9420000000000001, 0.312, 192.0, 0.0, 0.0, 0.0, 0.0, 0.0, 0.0, 0.0, 0.0, 0.0, 1.6878027399614117E9, 0.0, 2023-06-26 13:05:39.961
189.0, 45714.212443138655, 48643.29679528437, 48863.349719446865, -4845.478218254831, -7314.898945677155, -10690.25822761753, 18217.94578050921, 12423.971286293423, 0.046, 0.9420000000000001, 0.312, 192.0, 0.0, 0.0, 0.0, 0.0, 0.0, 0.0, 0.0, 0.0, 0.0, 1.6878027399644125E9, 0.0, 2023-06-26 13:05:39.964
190.0, 45711.686696015204, 48655.32203380133, 50865.57428426437, -4906.051445728713, -7362.709327067057, -10774.837228636412, 18145.861404640844, 12325.713017667893, 0.046, 0.9420000000000001, 0.312, 192.0, 0.0, 0.0, 0.0, 0.0, 0.0, 0.0, 0.0, 0.0, 0.0, 1.687802739968454E9, 0.0, 2023-06-26 13:05:39.968
191.0, 45690.296076571474, 48617.5252339274, 51971.67271037969, -4915.170957466478, -7390.090214024808, -10773.764344902558, 18143.06743658393, 12328.842261891636, 0.046, 0.9420000000000001, 0.312, 192.0, 0.0, 0.0, 0.0, 0.0, 0.0, 0.0, 0.0, 0.0, 0.0, 1.6878027399734647E9, 0.0, 2023-06-26 13:05:39.973
192.0, 45743.31441441947, 48642.939167373086, 48630.53394920039, -4803.613400890041, -7289.06032908682, -10646.940546863145, 18251.89808033682, 12456.537777964804, 0.044, 0.9380000000000001, 0.316, 192.0, 1.0, 96.0, 29.0, 80.0, 9.0, 224.0, 0.0, 0.0, 0.0, 1.6878027399774935E9, 0.0, 2023-06-26 13:05:39.977
193.0, 45714.838291983404, 48632.791475390375, 48577.627370074675, -4843.667726953951, -7297.4422332575605, -10686.793707226958, 18248.925298324266, 12430.252126485364, 0.044, 0.9380000000000001, 0.316, 192.0, 0.0, 0.0, 0.0, 0.0, 0.0, 0.0, 0.0, 0.0, 0.0, 1.6878027399814885E9, 0.0, 2023-06-26 13:05:39.981
194.0, 45717.69931527368, 48651.34342328828, 50468.33908180465, -4893.355654878099, -7337.988297699488, -10762.253196508074, 18182.451210314182, 12351.216358091398, 0.044, 0.9380000000000001, 0.316, 192.0, 0.0, 0.0, 0.0, 0.0, 0.0, 0.0, 0.0, 0.0, 0.0, 1.6878027399855204E9, 0.0, 2023-06-26 13:05:39.985
195.0, 45676.37093977582, 48601.23081221948, 52160.72376498268, -4915.752102822316, -7368.36431841425, -10771.015080334555, 18163.094599615884, 12348.511797012306, 0.044, 0.9380000000000001, 0.316, 192.0, 0.0, 0.0, 0.0, 0.0, 0.0, 0.0, 0.0, 0.0, 0.0, 1.687802739988578E9, 0.0, 2023-06-26 13:05:39.988
196.0, 45730.30569914648, 48626.845911365264, 49186.08655763705, -4804.887450323993, -7285.461698229516, -10649.756866664513, 18255.921394338777, 12462.863321645656, 0.044, 0.9380000000000001, 0.316, 192.0, 0.0, 0.0, 0.0, 0.0, 0.0, 0.0, 0.0, 0.0, 0.0, 1.6878027399925616E9, 0.0, 2023-06-26 13:05:39.992
197.0, 45712.24548962659, 48627.24824276546, 48308.22179415486, -4814.699866139873, -7268.3849654656615, -10656.082410345365, 18286.118601097896, 12468.60771997067, 0.044, 0.9380000000000001, 0.316, 192.0, 0.0, 0.0, 0.0, 0.0, 0.0, 0.0, 0.0, 0.0, 0.0, 1.687802739996564E9, 0.0, 2023-06-26 13:05:39.996
198.0, 45704.489434300594, 48635.36192600273, 50128.39140038388, -4906.185556195445, -7339.485864577993, -10775.217208292152, 18181.73595449161, 12333.826700905169, 0.044, 0.9380000000000001, 0.316, 192.0, 0.0, 0.0, 0.0, 0.0, 0.0, 0.0, 0.0, 0.0, 0.0, 1.6878027400005972E9, 0.0, 2023-06-26 13:05:40.000
199.0, 45668.72664317211, 48595.32995168328, 52189.17753567428, -4937.857978088615, -7385.821030833845, -10793.076252111943, 18152.87985239981, 12321.376779243563, 0.044, 0.9380000000000001, 0.316, 192.0, 0.0, 0.0, 0.0, 0.0, 0.0, 0.0, 0.0, 0.0, 0.0, 1.6878027400056183E9, 0.0, 2023-06-26 13:05:40.005
200.0, 45708.37863783582, 48599.91205929662, 49890.23356321258, -4850.194436334901, -7331.416884829627, -10695.913218964723, 18218.526925865048, 12414.002408266355, 0.044, 0.9380000000000001, 0.316, 192.0, 0.0, 0.0, 0.0, 0.0, 0.0, 0.0, 0.0, 0.0, 0.0, 1.6878027400096276E9, 0.0, 2023-06-26 13:05:40.009
201.0, 45707.84219596889, 48604.6729808656, 48167.24934187524, -4816.555060929663, -7267.692061387546, -10637.351648491818, 18292.354737800924, 12497.37441508465, 0.044, 0.9380000000000001, 0.316, 192.0, 0.0, 0.0, 0.0, 0.0, 0.0, 0.0, 0.0, 0.0, 0.0, 1.6878027400126414E9, 0.0, 2023-06-26 13:05:40.012
202.0, 45697.225117352624, 48611.266745479916, 49820.58552748985, -4904.822099783672, -7340.245823889473, -10745.534091655505, 18199.572646566947, 12373.948082202445, 0.048, 0.934, 0.312, 192.0, 1.0, 128.0, 29.0, 48.0, 9.0, 192.0, 0.0, 0.0, 0.0, 1.6878027400166728E9, 0.0, 2023-06-26 13:05:40.016
203.0, 45667.38553850479, 48588.535021368865, 51985.26257100851, -4940.115504278601, -7373.639330105702, -10775.70894667017, 18169.241329341094, 12345.002573132822, 0.048, 0.934, 0.312, 192.0, 0.0, 0.0, 0.0, 0.0, 0.0, 0.0, 0.0, 0.0, 0.0, 1.6878027400206764E9, 0.0, 2023-06-26 13:05:40.020
204.0, 45687.83738468139, 48584.73522481146, 50547.128981009606, -4881.777451250249, -7348.605376315758, -10699.310684121929, 18202.344262879404, 12410.537887875782, 0.048, 0.934, 0.312, 192.0, 0.0, 0.0, 0.0, 0.0, 0.0, 0.0, 0.0, 0.0, 0.0, 1.6878027400246978E9, 0.0, 2023-06-26 13:05:40.024
205.0, 45700.68963774319, 48598.52625114039, 48054.283625398115, -4829.474369224831, -7276.565703936304, -10630.355552477307, 18283.928130141274, 12498.559057540782, 0.048, 0.934, 0.312, 192.0, 0.0, 0.0, 0.0, 0.0, 0.0, 0.0, 0.0, 0.0, 0.0, 1.6878027400287282E9, 0.0, 2023-06-26 13:05:40.028
206.0, 45710.05501866997, 48617.36877171621, 49453.86045621162, -4904.442120127931, -7328.019419672421, -10730.491367637083, 18215.978826997143, 12388.54377133176, 0.048, 0.934, 0.312, 192.0, 0.0, 0.0, 0.0, 0.0, 0.0, 0.0, 0.0, 0.0, 0.0, 1.6878027400327473E9, 0.0, 2023-06-26 13:05:40.032
207.0, 45686.250410825065, 48597.74394008445, 51615.98940086239, -4947.357469482121, -7372.901722538677, -10781.676862439735, 18155.964393134644, 12329.982200858856, 0.048, 0.934, 0.312, 192.0, 0.0, 0.0, 0.0, 0.0, 0.0, 0.0, 0.0, 0.0, 0.0, 1.6878027400377545E9, 0.0, 2023-06-26 13:05:40.037
208.0, 45690.89957367177, 48578.23086717497, 51164.73003205419, -4903.905678261003, -7370.733603326512, -10726.289239679485, 18163.65339322727, 12368.851884466636, 0.048, 0.934, 0.312, 192.0, 0.0, 0.0, 0.0, 0.0, 0.0, 0.0, 0.0, 0.0, 0.0, 1.6878027400407636E9, 0.0, 2023-06-26 13:05:40.040
209.0, 45723.95780372117, 48601.94606804205, 48093.868564828466, -4806.2732584802225, -7275.716337647002, -10619.179680249654, 18279.480132994668, 12490.735946981424, 0.048, 0.934, 0.312, 192.0, 0.0, 0.0, 0.0, 0.0, 0.0, 0.0, 0.0, 0.0, 0.0, 1.687802740044802E9, 0.0, 2023-06-26 13:05:40.044
210.0, 45703.64006801129, 48602.3707511867, 49155.53172296664, -4888.527678075752, -7334.0096871864425, -10723.003533244555, 18214.16833569626, 12387.537942831272, 0.048, 0.934, 0.312, 192.0, 0.0, 0.0, 0.0, 0.0, 0.0, 0.0, 0.0, 0.0, 0.0, 1.6878027400488312E9, 0.0, 2023-06-26 13:05:40.048
211.0, 45698.499166786576, 48612.71960886951, 51250.31486157356, -4937.567405410696, -7382.8482488212885, -10788.985882876621, 18140.273468527015, 12313.956000084401, 0.048, 0.934, 0.312, 192.0, 0.0, 0.0, 0.0, 0.0, 0.0, 0.0, 0.0, 0.0, 0.0, 1.6878027400528405E9, 0.0, 2023-06-26 13:05:40.052
212.0, 45707.48456805761, 48603.018951775906, 51696.343922179214, -4909.359503908098, -7395.812260605367, -10758.006365061567, 18140.16170980474, 12337.15711082901, 0.048, 0.934, 0.312, 192.0, 0.0, 0.0, 0.0, 0.0, 0.0, 0.0, 0.0, 0.0, 0.0, 1.687802740056858E9, 0.0, 2023-06-26 13:05:40.056
213.0, 45756.12196399236, 48633.75260040195, 48330.931166521455, -4798.673665365418, -7297.308122790829, -10639.67622991517, 18249.5064436801, 12466.998394369888, 0.058, 0.9380000000000001, 0.308, 192.0, 1.0, 208.0, 29.0, 80.0, 9.0, 160.0, 0.0, 0.0, 0.0, 1.6878027400608623E9, 0.0, 2023-06-26 13:05:40.060
214.0, 45735.49130386011, 48634.467856224524, 48849.96102451814, -4857.190532349412, -7331.64040227418, -10706.172669669708, 18213.497783362604, 12401.820707538212, 0.058, 0.9380000000000001, 0.308, 192.0, 0.0, 0.0, 0.0, 0.0, 0.0, 0.0, 0.0, 0.0, 0.0, 1.6878027400649025E9, 0.0, 2023-06-26 13:05:40.064
215.0, 45735.33484164892, 48646.1801703191, 50838.26045253998, -4910.052407986213, -7373.8404958058, -10785.700176441691, 18143.24625053957, 12302.601313901105, 0.058, 0.9380000000000001, 0.308, 192.0, 0.0, 0.0, 0.0, 0.0, 0.0, 0.0, 0.0, 0.0, 0.0, 1.687802740068899E9, 0.0, 2023-06-26 13:05:40.068
216.0, 45710.1891291367, 48610.88676582417, 52061.81729576794, -4917.428483656465, -7406.138766543719, -10785.588417719415, 18129.92461084421, 12299.114441766078, 0.058, 0.9380000000000001, 0.308, 192.0, 0.0, 0.0, 0.0, 0.0, 0.0, 0.0, 0.0, 0.0, 0.0, 1.687802740072116E9, 0.0, 2023-06-26 13:05:40.072
217.0, 45768.66129263178, 48644.07910634031, 48758.6094449293, -4791.856383306549, -7307.7687391959125, -10642.313735760896, 18243.292658721526, 12457.744772165392, 0.058, 0.9380000000000001, 0.308, 192.0, 0.0, 0.0, 0.0, 0.0, 0.0, 0.0, 0.0, 0.0, 0.0, 1.687802740076944E9, 0.0, 2023-06-26 13:05:40.076
218.0, 45751.00341451209, 48642.11215282824, 48540.97050916797, -4818.522014441731, -7307.9252014071, -10665.626605227782, 18253.172129770774, 12455.286080275308, 0.058, 0.9380000000000001, 0.308, 192.0, 0.0, 0.0, 0.0, 0.0, 0.0, 0.0, 0.0, 0.0, 0.0, 1.6878027400809808E9, 0.0, 2023-06-26 13:05:40.080
219.0, 45760.368795438866, 48662.988682149495, 50446.233206538345, -4881.531582061241, -7360.384745643705, -10763.840170364401, 18167.45318978467, 12337.000648617823, 0.058, 0.9380000000000001, 0.308, 192.0, 0.0, 0.0, 0.0, 0.0, 0.0, 0.0, 0.0, 0.0, 0.0, 1.6878027400849776E9, 0.0, 2023-06-26 13:05:40.084
220.0, 45729.590443323905, 48624.677792153096, 52207.729483572184, -4906.16320445099, -7396.41575770566, -10779.776964161036, 18146.062570340942, 12322.62847693306, 0.058, 0.9380000000000001, 0.308, 192.0, 0.0, 0.0, 0.0, 0.0, 0.0, 0.0, 0.0, 0.0, 0.0, 1.6878027400889993E9, 0.0, 2023-06-26 13:05:40.088
221.0, 45772.103461277904, 48636.39010624768, 49345.25332990329, -4805.669761379929, -7326.365390582728, -10668.800552940434, 18223.153736967295, 12425.200632238464, 0.058, 0.9380000000000001, 0.308, 192.0, 0.0, 0.0, 0.0, 0.0, 0.0, 0.0, 0.0, 0.0, 0.0, 1.687802740093028E9, 0.0, 2023-06-26 13:05:40.093
222.0, 45759.47472566065, 48634.736077157984, 48306.07602668715, -4807.837880592094, -7300.571477481303, -10667.146523850743, 18259.117693795884, 12446.479492959917, 0.058, 0.9380000000000001, 0.308, 192.0, 0.0, 0.0, 0.0, 0.0, 0.0, 0.0, 0.0, 0.0, 0.0, 1.6878027400970333E9, 0.0, 2023-06-26 13:05:40.097
223.0, 45762.35810069539, 48651.388126777194, 50121.17178692482, -4883.565590806674, -7363.424582889626, -10765.22597852063, 18173.778733465522, 12339.0123056188, 0.066, 0.936, 0.306, 192.0, 2.0, 16.0, 29.0, 64.0, 9.0, 144.0, 0.0, 0.0, 0.0, 1.687802740100047E9, 0.0, 2023-06-26 13:05:40.100
224.0, 45740.34163240691, 48621.19092001807, 52174.02305293358, -4911.214698697889, -7390.380786702727, -10779.061708338466, 18157.30549780196, 12330.138663070044, 0.066, 0.936, 0.306, 192.0, 0.0, 0.0, 0.0, 0.0, 0.0, 0.0, 0.0, 0.0, 0.0, 1.6878027401040928E9, 0.0, 2023-06-26 13:05:40.104
225.0, 45786.05094981801, 48633.10439981275, 50023.87464331087, -4829.004982591269, -7338.524739566415, -10682.993910669555, 18227.042940502517, 12421.803167081258, 0.066, 0.936, 0.306, 192.0, 0.0, 0.0, 0.0, 0.0, 0.0, 0.0, 0.0, 0.0, 0.0, 1.6878027401091125E9, 0.0, 2023-06-26 13:05:40.109
226.0, 45769.3541967099, 48635.8313126363, 48111.63820167044, -4798.003113031758, -7286.802802896835, -10634.937660090645, 18298.970854159696, 12490.08774639222, 0.066, 0.936, 0.306, 192.0, 0.0, 0.0, 0.0, 0.0, 0.0, 0.0, 0.0, 0.0, 0.0, 1.687802740113114E9, 0.0, 2023-06-26 13:05:40.113
227.0, 45768.594237398414, 48652.25984481095, 49776.73140486854, -4885.353730363099, -7349.678260049613, -10742.538957898494, 18215.688254319222, 12365.744991987347, 0.066, 0.936, 0.306, 192.0, 0.0, 0.0, 0.0, 0.0, 0.0, 0.0, 0.0, 0.0, 0.0, 1.6878027401172156E9, 0.0, 2023-06-26 13:05:40.117
228.0, 45757.686586104224, 48632.165626545626, 51964.453096920624, -4926.682105860961, -7385.798679089389, -10789.499972999094, 18174.56104452146, 12325.467148478885, 0.066, 0.936, 0.306, 192.0, 0.0, 0.0, 0.0, 0.0, 0.0, 0.0, 0.0, 0.0, 0.0, 1.6878027401212091E9, 0.0, 2023-06-26 13:05:40.121
229.0, 45770.091804276926, 48621.66030665163, 50720.287945304866, -4875.496611058308, -7368.230207947518, -10728.300896680463, 18198.052727943985, 12377.993747948856, 0.066, 0.936, 0.306, 192.0, 0.0, 0.0, 0.0, 0.0, 0.0, 0.0, 0.0, 0.0, 0.0, 1.687802740124208E9, 0.0, 2023-06-26 13:05:40.124
230.0, 45794.321095266474, 48644.034402851394, 48046.37110786094, -4802.6299241340075, -7286.646340685647, -10639.363305492796, 18292.801772690033, 12481.95171141049, 0.066, 0.936, 0.306, 192.0, 0.0, 0.0, 0.0, 0.0, 0.0, 0.0, 0.0, 0.0, 0.0, 1.6878027401282125E9, 0.0, 2023-06-26 13:05:40.128
231.0, 45786.94501959623, 48653.690356456085, 49457.05675566873, -4884.884343729537, -7350.326460638817, -10746.875196322822, 18209.139193193816, 12358.234805850365, 0.066, 0.936, 0.306, 192.0, 0.0, 0.0, 0.0, 0.0, 0.0, 0.0, 0.0, 0.0, 0.0, 1.6878027401322303E9, 0.0, 2023-06-26 13:05:40.132
232.0, 45776.372644468865, 48648.19182732008, 51641.22452035243, -4929.319611706688, -7392.303036725883, -10801.256990582586, 18150.421160509726, 12297.19219174292, 0.066, 0.936, 0.306, 192.0, 0.0, 0.0, 0.0, 0.0, 0.0, 0.0, 0.0, 0.0, 0.0, 1.6878027401362257E9, 0.0, 2023-06-26 13:05:40.136
233.0, 45792.309438265496, 48636.367754503226, 51348.26020577672, -4893.802689767205, -7390.358434958272, -10756.665260394248, 18158.959526891653, 12337.805311418213, 0.066, 0.9440000000000001, 0.304, 192.0, 2.0, 16.0, 29.0, 128.0, 9.0, 128.0, 0.0, 0.0, 0.0, 1.687802740141274E9, 0.0, 2023-06-26 13:05:40.141
234.0, 45829.6144997614, 48661.245246081984, 48156.38639406996, -4804.082787523602, -7302.806651926834, -10658.116419090798, 18252.948612326218, 12448.915833105546, 0.066, 0.9440000000000001, 0.304, 192.0, 0.0, 0.0, 0.0, 0.0, 0.0, 0.0, 0.0, 0.0, 0.0, 1.6878027401452773E9, 0.0, 2023-06-26 13:05:40.145
235.0, 45821.79138920205, 48673.7398712325, 49135.81748435706, -4871.540352289719, -7350.237053660996, -10740.974335786621, 18195.03524244252, 12361.140532629553, 0.066, 0.9440000000000001, 0.304, 192.0, 0.0, 0.0, 0.0, 0.0, 0.0, 0.0, 0.0, 0.0, 0.0, 1.6878027401492994E9, 0.0, 2023-06-26 13:05:40.149
236.0, 45810.92844139677, 48670.96825492004, 51264.64232976941, -4931.979469296869, -7403.8588886092775, -10822.267630370574, 18117.38528220478, 12262.390525626008, 0.066, 0.9440000000000001, 0.304, 192.0, 0.0, 0.0, 0.0, 0.0, 0.0, 0.0, 0.0, 0.0, 0.0, 1.6878027401523051E9, 0.0, 2023-06-26 13:05:40.152
237.0, 45798.523223224074, 48640.547530716365, 51885.99847388249, -4924.804559326716, -7425.428322008649, -10806.822574951957, 18117.921724071708, 12271.57709259714, 0.066, 0.9440000000000001, 0.304, 192.0, 0.0, 0.0, 0.0, 0.0, 0.0, 0.0, 0.0, 0.0, 0.0, 1.6878027401563244E9, 0.0, 2023-06-26 13:05:40.156
238.0, 45853.21794190621, 48676.64559801169, 48479.324397960234, -4812.710560883351, -7323.169091125619, -10682.323358335896, 18227.668789347266, 12416.975190278912, 0.066, 0.9440000000000001, 0.304, 192.0, 0.0, 0.0, 0.0, 0.0, 0.0, 0.0, 0.0, 0.0, 0.0, 1.687802740160342E9, 0.0, 2023-06-26 13:05:40.160
239.0, 45831.64850850684, 48680.22187712454, 48850.00572800705, -4864.231331852833, -7339.776437255912, -10738.40388517426, 18217.230524686638, 12370.371803089596, 0.066, 0.9440000000000001, 0.304, 192.0, 0.0, 0.0, 0.0, 0.0, 0.0, 0.0, 0.0, 0.0, 0.0, 1.687802740164392E9, 0.0, 2023-06-26 13:05:40.164
240.0, 45835.87298820889, 48693.99055170901, 50870.62577851126, -4917.942573778936, -7386.201010489584, -10808.990694164122, 18148.744779675577, 12288.743232338815, 0.066, 0.9440000000000001, 0.304, 192.0, 0.0, 0.0, 0.0, 0.0, 0.0, 0.0, 0.0, 0.0, 0.0, 1.6878027401694193E9, 0.0, 2023-06-26 13:05:40.169
241.0, 45825.32296482599, 48667.48138278501, 52186.070643194995, -4923.597565126129, -7400.528478685436, -10803.603923750392, 18140.474634227114, 12291.090165506623, 0.066, 0.9440000000000001, 0.304, 192.0, 0.0, 0.0, 0.0, 0.0, 0.0, 0.0, 0.0, 0.0, 0.0, 1.6878027401734447E9, 0.0, 2023-06-26 13:05:40.173
242.0, 45900.69304712928, 48707.08867395981, 48911.450673514686, -4804.574525901619, -7311.4120735421275, -10678.188285611664, 18236.005990029098, 12413.063634999233, 0.066, 0.9440000000000001, 0.304, 192.0, 0.0, 0.0, 0.0, 0.0, 0.0, 0.0, 0.0, 0.0, 0.0, 1.6878027401774552E9, 0.0, 2023-06-26 13:05:40.177
243.0, 45865.69021531227, 48706.64163907071, 48521.52449149186, -4832.2906890262, -7311.501480519949, -10696.114384664821, 18242.80092034351, 12408.861507041634, 0.064, 0.9420000000000001, 0.302, 192.0, 2.0, 0.0, 29.0, 112.0, 9.0, 112.0, 0.0, 0.0, 0.0, 1.68780274018048E9, 0.0, 2023-06-26 13:05:40.180
244.0, 45856.45894485223, 48721.997287511505, 50440.22058727987, -4902.721035804872, -7366.017385246442, -10793.009196878576, 18151.941079132688, 12296.968674298369, 0.064, 0.9420000000000001, 0.302, 192.0, 0.0, 0.0, 0.0, 0.0, 0.0, 0.0, 0.0, 0.0, 0.0, 1.6878027401855018E9, 0.0, 2023-06-26 13:05:40.185
245.0, 45822.88662468036, 48682.16647889215, 52283.01015889766, -4934.0581815312125, -7406.60815317728, -10813.438691310726, 18126.46009045364, 12278.796706056202, 0.064, 0.9420000000000001, 0.302, 192.0, 0.0, 0.0, 0.0, 0.0, 0.0, 0.0, 0.0, 0.0, 0.0, 1.687802740189495E9, 0.0, 2023-06-26 13:05:40.189
246.0, 45890.47829991321, 48717.05755198688, 49539.53469270882, -4823.5288051997195, -7323.750236481457, -10695.332073608884, 18220.538582866026, 12401.59719009366, 0.064, 0.9420000000000001, 0.302, 192.0, 0.0, 0.0, 0.0, 0.0, 0.0, 0.0, 0.0, 0.0, 0.0, 1.687802740192524E9, 0.0, 2023-06-26 13:05:40.192
247.0, 45883.526907387604, 48728.076962003346, 48289.535735790225, -4816.4880056962975, -7291.228448298985, -10673.270901831496, 18269.89123462334, 12445.69718190398, 0.064, 0.9420000000000001, 0.302, 192.0, 0.0, 0.0, 0.0, 0.0, 0.0, 0.0, 0.0, 0.0, 0.0, 1.6878027401965525E9, 0.0, 2023-06-26 13:05:40.196
248.0, 45886.969076033725, 48751.8592181038, 50095.75785347913, -4893.221544411367, -7354.97562348552, -10772.892626868801, 18182.942948692198, 12331.077436337166, 0.064, 0.9420000000000001, 0.302, 192.0, 0.0, 0.0, 0.0, 0.0, 0.0, 0.0, 0.0, 0.0, 0.0, 1.687802740202578E9, 0.0, 2023-06-26 13:05:40.202
249.0, 45850.51338082712, 48717.05755198688, 52213.63034410839, -4934.639326887051, -7401.243734508006, -10809.057749397487, 18144.78852090699, 12300.67906387795, 0.064, 0.9420000000000001, 0.302, 192.0, 0.0, 0.0, 0.0, 0.0, 0.0, 0.0, 0.0, 0.0, 0.0, 1.687802740205582E9, 0.0, 2023-06-26 13:05:40.205
250.0, 45890.34418944648, 48725.573566624356, 50255.528122845666, -4861.482067284831, -7349.745315282979, -10725.126948967809, 18204.75825128058, 12380.698309027948, 0.064, 0.9420000000000001, 0.302, 192.0, 0.0, 0.0, 0.0, 0.0, 0.0, 0.0, 0.0, 0.0, 0.0, 1.6878027402096124E9, 0.0, 2023-06-26 13:05:40.209
251.0, 45900.335419218, 48743.18674125514, 48162.98015868427, -4817.851462108071, -7280.745480149446, -10668.197055840143, 18287.8173336765, 12464.003260612877, 0.064, 0.9420000000000001, 0.302, 192.0, 0.0, 0.0, 0.0, 0.0, 0.0, 0.0, 0.0, 0.0, 0.0, 1.6878027402126284E9, 0.0, 2023-06-26 13:05:40.212
252.0, 45894.94864880427, 48759.12353505177, 49783.23576250503, -4897.468375857875, -7346.437257103594, -10771.663280923758, 18197.203361654683, 12350.098770868633, 0.064, 0.9420000000000001, 0.302, 192.0, 0.0, 0.0, 0.0, 0.0, 0.0, 0.0, 0.0, 0.0, 0.0, 1.6878027402166448E9, 0.0, 2023-06-26 13:05:40.216
253.0, 45878.11778522942, 48746.42774420116, 51963.983710287066, -4929.945460551437, -7381.864772065255, -10810.75648197609, 18147.850709897364, 12303.383624957041, 0.064, 0.9420000000000001, 0.302, 192.0, 0.0, 0.0, 0.0, 0.0, 0.0, 0.0, 0.0, 0.0, 0.0, 1.687802740220717E9, 0.0, 2023-06-26 13:05:40.220
254.0, 45904.11286403095, 48744.863122089286, 50913.228203443075, -4872.032090667736, -7364.899798023677, -10745.243518977586, 18168.079038629417, 12354.613823248605, 0.064, 0.9420000000000001, 0.298, 192.0, 2.0, 0.0, 29.0, 112.0, 9.0, 80.0, 0.0, 0.0, 0.0, 1.6878027402246876E9, 0.0, 2023-06-26 13:05:40.224
255.0, 45925.10115207448, 48763.83975313184, 48124.49045473224, -4803.993380545781, -7291.787241910368, -10668.845256429346, 18241.459815676193, 12434.856585843158, 0.064, 0.9420000000000001, 0.298, 192.0, 0.0, 0.0, 0.0, 0.0, 0.0, 0.0, 0.0, 0.0, 0.0, 1.6878027402296913E9, 0.0, 2023-06-26 13:05:40.229
0.0, 45913.522948446625, 48775.395605015234, 49466.668005784515, -4884.593771051618, -7354.416829874138, -10774.636062936313, 18157.529015246513, 12314.425386717963, 0.064, 0.9420000000000001, 0.298, 192.0, 0.0, 0.0, 0.0, 0.0, 0.0, 0.0, 0.0, 0.0, 0.0, 1.687802740232695E9, 0.0, 2023-06-26 13:05:40.232
1.0, 45902.95057331927, 48775.485011993056, 51606.087578068684, -4920.580079624663, -7387.050376778887, -10821.7535402481, 18118.167593260718, 12267.03968847271, 0.064, 0.9420000000000001, 0.298, 192.0, 0.0, 0.0, 0.0, 0.0, 0.0, 0.0, 0.0, 0.0, 0.0, 1.6878027402357273E9, 0.0, 2023-06-26 13:05:40.235
2.0, 45905.85630009846, 48753.78146812695, 51519.899251449024, -4892.036901955235, -7390.17962100263, -10784.090850840908, 18130.5281079445, 12294.934665552935, 0.064, 0.9420000000000001, 0.298, 192.0, 0.0, 0.0, 0.0, 0.0, 0.0, 0.0, 0.0, 0.0, 0.0, 1.6878027402407603E9, 0.0, 2023-06-26 13:05:40.240
3.0, 45946.51412326266, 48780.24593356204, 48253.30355802817, -4798.651313620962, -7298.090433846764, -10672.980329153577, 18226.5512021245, 12411.208440209442, 0.064, 0.9420000000000001, 0.298, 192.0, 0.0, 0.0, 0.0, 0.0, 0.0, 0.0, 0.0, 0.0, 0.0, 1.6878027402447853E9, 0.0, 2023-06-26 13:05:40.244
4.0, 45921.90485261737, 48777.45196550512, 49120.66300161636, -4874.043747668713, -7342.413943101638, -10750.764399858046, 18179.21020736816, 12343.706171954414, 0.064, 0.9420000000000001, 0.298, 192.0, 0.0, 0.0, 0.0, 0.0, 0.0, 0.0, 0.0, 0.0, 0.0, 1.687802740248798E9, 0.0, 2023-06-26 13:05:40.248
5.0, 45915.914585103346, 48784.04573011944, 51189.20519223275, -4925.005725026814, -7385.686920367113, -10819.026627424553, 18106.90231405524, 12271.57709259714, 0.064, 0.9420000000000001, 0.298, 192.0, 0.0, 0.0, 0.0, 0.0, 0.0, 0.0, 0.0, 0.0, 0.0, 1.6878027402528212E9, 0.0, 2023-06-26 13:05:40.252
6.0, 45898.18965175029, 48749.065250046886, 51965.436573676656, -4916.065027244691, -7401.9813420750315, -10790.259932310573, 18103.661311109223, 12292.76654634077, 0.064, 0.9420000000000001, 0.298, 192.0, 0.0, 0.0, 0.0, 0.0, 0.0, 0.0, 0.0, 0.0, 0.0, 1.6878027402568367E9, 0.0, 2023-06-26 13:05:40.256
7.0, 45950.291568075605, 48779.4636225061, 48575.682768307066, -4809.961296315348, -7300.34796003675, -10683.73151823658, 18214.995350241108, 12385.950968974945, 0.064, 0.9420000000000001, 0.298, 192.0, 0.0, 0.0, 0.0, 0.0, 0.0, 0.0, 0.0, 0.0, 0.0, 1.687802740260866E9, 0.0, 2023-06-26 13:05:40.260
8.0, 45919.44616072728, 48769.807668901405, 48814.89113746776, -4864.030166152736, -7324.554899281848, -10731.966582771132, 18202.165448923763, 12376.965567703912, 0.062, 0.932, 0.298, 192.0, 1.0, 240.0, 29.0, 32.0, 9.0, 80.0, 0.0, 0.0, 0.0, 1.6878027402638905E9, 0.0, 2023-06-26 13:05:40.263
9.0, 45924.76587590765, 48789.3654452998, 50810.52193767094, -4919.194271468434, -7368.096097480786, -10804.453290039693, 18131.466881211625, 12287.29036894922, 0.062, 0.932, 0.298, 192.0, 0.0, 0.0, 0.0, 0.0, 0.0, 0.0, 0.0, 0.0, 0.0, 1.687802740267881E9, 0.0, 2023-06-26 13:05:40.267
10.0, 45899.21783199523, 48752.03803205944, 52234.88685308539, -4935.600451898629, -7397.555696672881, -10806.934333674233, 18115.91006707073, 12284.161124725477, 0.062, 0.932, 0.298, 192.0, 0.0, 0.0, 0.0, 0.0, 0.0, 0.0, 0.0, 0.0, 0.0, 1.68780274027292E9, 0.0, 2023-06-26 13:05:40.272
11.0, 45950.20216109779, 48776.84846840483, 49079.22286739622, -4832.469502981842, -7317.424692800605, -10690.615855528815, 18198.902094233286, 12395.562219090727, 0.062, 0.932, 0.298, 192.0, 0.0, 0.0, 0.0, 0.0, 0.0, 0.0, 0.0, 0.0, 0.0, 1.6878027402769344E9, 0.0, 2023-06-26 13:05:40.276
12.0, 45928.72213467624, 48775.99910211553, 48545.79848597032, -4854.955357903881, -7311.367370053216, -10703.26694289052, 18219.264533432073, 12403.675902328003, 0.062, 0.932, 0.298, 192.0, 0.0, 0.0, 0.0, 0.0, 0.0, 0.0, 0.0, 0.0, 0.0, 1.6878027402809565E9, 0.0, 2023-06-26 13:05:40.280
13.0, 45928.11863757594, 48791.22064008959, 50416.371275946054, -4925.966850038391, -7369.414850403649, -10796.317255057962, 18135.66900916922, 12300.34378771112, 0.062, 0.932, 0.298, 192.0, 0.0, 0.0, 0.0, 0.0, 0.0, 0.0, 0.0, 0.0, 0.0, 1.687802740284988E9, 0.0, 2023-06-26 13:05:40.284
14.0, 45901.60946865195, 48758.45298271811, 52273.309501804055, -4951.224321272889, -7399.410891462671, -10817.28319135704, 18113.809003091934, 12284.76462182577, 0.062, 0.932, 0.298, 192.0, 0.0, 0.0, 0.0, 0.0, 0.0, 0.0, 0.0, 0.0, 0.0, 1.6878027402879899E9, 0.0, 2023-06-26 13:05:40.287
15.0, 45948.45872503027, 48774.72505268158, 49672.25935128443, -4850.730878201828, -7333.920280208622, -10702.21641090112, 18185.84867547139, 12392.790602778268, 0.062, 0.932, 0.298, 192.0, 0.0, 0.0, 0.0, 0.0, 0.0, 0.0, 0.0, 0.0, 0.0, 1.687802740291998E9, 0.0, 2023-06-26 13:05:40.291
16.0, 45937.439315013806, 48777.40726201621, 48380.50733572333, -4839.175026318434, -7292.5695529663035, -10678.456506545128, 18246.354847711904, 12440.533928934805, 0.062, 0.932, 0.298, 192.0, 0.0, 0.0, 0.0, 0.0, 0.0, 0.0, 0.0, 0.0, 0.0, 1.687802740296016E9, 0.0, 2023-06-26 13:05:40.296
17.0, 45938.93688189231, 48795.959209914115, 50205.99665713271, -4916.310896433699, -7351.667565306136, -10786.929522386734, 18160.993535637088, 12318.694569908926, 0.062, 0.932, 0.298, 192.0, 0.0, 0.0, 0.0, 0.0, 0.0, 0.0, 0.0, 0.0, 0.0, 1.687802740300072E9, 0.0, 2023-06-26 13:05:40.300
18.0, 45910.237242011695, 48766.74547991103, 52190.74215778615, -4945.88225434807, -7385.932789556121, -10816.322066345461, 18129.835203866387, 12291.380738184542, 0.062, 0.924, 0.302, 192.0, 1.0, 240.0, 28.0, 224.0, 9.0, 112.0, 0.0, 0.0, 0.0, 1.68780274030526E9, 0.0, 2023-06-26 13:05:40.305
19.0, 45953.13023962143, 48778.07781434987, 50374.12647892553, -4863.918407430459, -7344.090323935786, -10728.032675747, 18179.32196609044, 12371.288224612264, 0.062, 0.924, 0.302, 192.0, 0.0, 0.0, 0.0, 0.0, 0.0, 0.0, 0.0, 0.0, 0.0, 1.687802740309102E9, 0.0, 2023-06-26 13:05:40.309
20.0, 45960.372204824955, 48792.58409650136, 48270.536753003216, -4812.822319605627, -7283.695910417547, -10667.21357908411, 18252.501577437113, 12447.999411582878, 0.062, 0.924, 0.302, 192.0, 0.0, 0.0, 0.0, 0.0, 0.0, 0.0, 0.0, 0.0, 0.0, 1.6878027403131218E9, 0.0, 2023-06-26 13:05:40.313
21.0, 45937.48401850272, 48790.572439500385, 49972.46563106366, -4904.620934083573, -7365.816219546345, -10787.153039831286, 18153.63981171129, 12312.436081461441, 0.062, 0.924, 0.302, 192.0, 0.0, 0.0, 0.0, 0.0, 0.0, 0.0, 0.0, 0.0, 0.0, 1.687802740316121E9, 0.0, 2023-06-26 13:05:40.316
22.0, 45914.12644554692, 48773.5627619699, 51991.11872805581, -4942.3953822130425, -7406.3846357327275, -10834.203461909707, 18102.186095975172, 12260.334165136119, 0.062, 0.924, 0.302, 192.0, 0.0, 0.0, 0.0, 0.0, 0.0, 0.0, 0.0, 0.0, 0.0, 1.6878027403202271E9, 0.0, 2023-06-26 13:05:40.320
23.0, 45935.695878946295, 48767.438383989145, 51083.07910955896, -4889.086471687135, -7388.860868079766, -10776.647719937291, 18123.710825885635, 12309.731520382347, 0.062, 0.924, 0.302, 192.0, 0.0, 0.0, 0.0, 0.0, 0.0, 0.0, 0.0, 0.0, 0.0, 1.6878027403242216E9, 0.0, 2023-06-26 13:05:40.324
24.0, 45973.76089975368, 48803.49174779555, 48270.98378789232, -4794.449185663365, -7290.53554422087, -10672.153314608731, 18237.771777841066, 12426.765254350335, 0.062, 0.924, 0.302, 192.0, 0.0, 0.0, 0.0, 0.0, 0.0, 0.0, 0.0, 0.0, 0.0, 1.687802740328216E9, 0.0, 2023-06-26 13:05:40.328
25.0, 45947.05056512959, 48798.127329126284, 49699.12614811971, -4879.005834937791, -7353.299242651373, -10774.144324558298, 18165.575643250424, 12318.96279084239, 0.062, 0.924, 0.302, 192.0, 0.0, 0.0, 0.0, 0.0, 0.0, 0.0, 0.0, 0.0, 0.0, 1.687802740332228E9, 0.0, 2023-06-26 13:05:40.332
26.0, 45935.04767835709, 48792.85231743483, 51634.18372084901, -4914.612163855096, -7393.308865226372, -10830.068389185475, 18110.880924568286, 12259.015412213257, 0.062, 0.924, 0.302, 192.0, 0.0, 0.0, 0.0, 0.0, 0.0, 0.0, 0.0, 0.0, 0.0, 1.687802740337239E9, 0.0, 2023-06-26 13:05:40.337
27.0, 45934.0418498566, 48769.807668901405, 51645.85133145468, -4889.086471687135, -7398.4050629621825, -10794.70792945718, 18119.955732817143, 12290.397261428507, 0.062, 0.924, 0.302, 192.0, 0.0, 0.0, 0.0, 0.0, 0.0, 0.0, 0.0, 0.0, 0.0, 1.6878027403412468E9, 0.0, 2023-06-26 13:05:40.341
28.0, 45976.174888154856, 48797.79205295945, 48431.33520261469, -4789.442394905376, -7299.744462936457, -10684.78205022598, 18214.07892871844, 12407.83332679669, 0.064, 0.9460000000000001, 0.298, 192.0, 2.0, 0.0, 29.0, 144.0, 9.0, 80.0, 0.0, 0.0, 0.0, 1.6878027403442612E9, 0.0, 2023-06-26 13:05:40.344
29.0, 45947.38584129642, 48792.248820334535, 49403.36786548709, -4855.178875348434, -7344.269137891429, -10759.615690662347, 18177.243253856093, 12339.615802719094, 0.064, 0.9460000000000001, 0.298, 192.0, 0.0, 0.0, 0.0, 0.0, 0.0, 0.0, 0.0, 0.0, 0.0, 1.6878027403482761E9, 0.0, 2023-06-26 13:05:40.348
30.0, 45943.20606508328, 48796.83092794787, 51256.483943043226, -4903.570402094174, -7389.442013435604, -10826.894441472823, 18107.774032089, 12261.85408375908, 0.064, 0.9460000000000001, 0.298, 192.0, 0.0, 0.0, 0.0, 0.0, 0.0, 0.0, 0.0, 0.0, 0.0, 1.6878027403523011E9, 0.0, 2023-06-26 13:05:40.352
31.0, 45926.866939886444, 48764.86793337679, 52042.192464136184, -4904.35271315011, -7406.809318877378, -10816.769101234568, 18109.852744323343, 12274.773392054247, 0.064, 0.9460000000000001, 0.298, 192.0, 0.0, 0.0, 0.0, 0.0, 0.0, 0.0, 0.0, 0.0, 0.0, 1.6878027403563187E9, 0.0, 2023-06-26 13:05:40.356
32.0, 45975.86196373248, 48795.06514013591, 48730.71446784907, -4790.112947239036, -7308.036960129376, -10694.9744456976, 18213.40837638478, 12402.804184294246, 0.064, 0.9460000000000001, 0.298, 192.0, 0.0, 0.0, 0.0, 0.0, 0.0, 0.0, 0.0, 0.0, 0.0, 1.6878027403603516E9, 0.0, 2023-06-26 13:05:40.360
33.0, 45952.683204732326, 48791.6676749787, 49086.04014945509, -4834.369401260544, -7323.63847775918, -10738.292126451985, 18200.93610297872, 12367.466076310406, 0.064, 0.9460000000000001, 0.298, 192.0, 0.0, 0.0, 0.0, 0.0, 0.0, 0.0, 0.0, 0.0, 0.0, 1.6878027403653677E9, 0.0, 2023-06-26 13:05:40.365
34.0, 45963.41204207087, 48815.04759967895, 50831.46552222557, -4884.68317802944, -7362.977548000521, -10812.924601188255, 18130.863384111333, 12276.047441488201, 0.064, 0.9460000000000001, 0.298, 192.0, 0.0, 0.0, 0.0, 0.0, 0.0, 0.0, 0.0, 0.0, 0.0, 1.6878027403693657E9, 0.0, 2023-06-26 13:05:40.369
35.0, 45935.00297486818, 48779.77654692847, 52200.84514627995, -4896.104919446101, -7388.235019235018, -10811.002351165098, 18121.363892717825, 12278.595540356106, 0.064, 0.9460000000000001, 0.298, 192.0, 0.0, 0.0, 0.0, 0.0, 0.0, 0.0, 0.0, 0.0, 0.0, 1.6878027403723857E9, 0.0, 2023-06-26 13:05:40.372
36.0, 45982.589838813525, 48800.787186716465, 49198.08944440955, -4791.744624584273, -7305.041826372365, -10693.186306141175, 18209.608579827378, 12395.361053390629, 0.064, 0.9460000000000001, 0.298, 192.0, 0.0, 0.0, 0.0, 0.0, 0.0, 0.0, 0.0, 0.0, 0.0, 1.687802740376409E9, 0.0, 2023-06-26 13:05:40.376
37.0, 45952.258521587675, 48787.577305743376, 48784.22454407508, -4818.1867382749015, -7297.419881513105, -10715.448643618662, 18231.379178926847, 12389.9742829769, 0.064, 0.9460000000000001, 0.298, 192.0, 0.0, 0.0, 0.0, 0.0, 0.0, 0.0, 0.0, 0.0, 0.0, 1.6878027403804207E9, 0.0, 2023-06-26 13:05:40.380
38.0, 45952.52674252114, 48799.602544260335, 50531.50511163534, -4894.4955938453195, -7358.618957831736, -10823.47462457116, 18138.82060513742, 12259.976537224835, 0.064, 0.9460000000000001, 0.298, 192.0, 0.0, 0.0, 0.0, 0.0, 0.0, 0.0, 0.0, 0.0, 0.0, 1.6878027403844552E9, 0.0, 2023-06-26 13:05:40.384
39.0, 45921.99425959519, 48766.387851999745, 52271.588417481, -4916.780283067261, -7388.145612257196, -10829.151967662809, 18119.64280839477, 12272.202941441887, 0.056, 0.964, 0.28600000000000003, 192.0, 1.0, 192.0, 30.0, 32.0, 8.0, 240.0, 0.0, 0.0, 0.0, 1.6878027403885608E9, 0.0, 2023-06-26 13:05:40.388
40.0, 45960.46161180277, 48777.67548294968, 49852.03443193847, -4830.033162836214, -7333.0709139193195, -10727.8315100469, 18182.942948692198, 12367.957814688423, 0.056, 0.964, 0.28600000000000003, 192.0, 0.0, 0.0, 0.0, 0.0, 0.0, 0.0, 0.0, 0.0, 0.0, 1.6878027403924892E9, 0.0, 2023-06-26 13:05:40.392
41.0, 45951.9455971653, 48780.022416117485, 48548.57010228278, -4819.617249920041, -7296.034073356876, -10708.474899348605, 18231.334475437936, 12404.525268617304, 0.056, 0.964, 0.28600000000000003, 192.0, 0.0, 0.0, 0.0, 0.0, 0.0, 0.0, 0.0, 0.0, 0.0, 1.6878027403975065E9, 0.0, 2023-06-26 13:05:40.397
42.0, 45948.838704686015, 48790.639494733754, 50260.17728569237, -4898.764777036283, -7362.642271833691, -10811.605848265392, 18140.094654571374, 12281.389508413018, 0.056, 0.964, 0.28600000000000003, 192.0, 0.0, 0.0, 0.0, 0.0, 0.0, 0.0, 0.0, 0.0, 0.0, 1.6878027404005322E9, 0.0, 2023-06-26 13:05:40.400
43.0, 45935.47236150174, 48777.60842771631, 52108.28657249053, -4914.835681299649, -7380.635426120213, -10827.564993806482, 18119.531049672492, 12264.066906460155, 0.056, 0.964, 0.28600000000000003, 192.0, 0.0, 0.0, 0.0, 0.0, 0.0, 0.0, 0.0, 0.0, 0.0, 1.687802740403531E9, 0.0, 2023-06-26 13:05:40.403
44.0, 45961.065108903065, 48775.328549781865, 50506.40410261203, -4848.629814223029, -7350.840550761289, -10754.877120837822, 18158.87011991383, 12331.233898548353, 0.056, 0.964, 0.28600000000000003, 192.0, 0.0, 0.0, 0.0, 0.0, 0.0, 0.0, 0.0, 0.0, 0.0, 1.6878027404085715E9, 0.0, 2023-06-26 13:05:40.408
45.0, 45965.08842290502, 48785.65505572022, 48384.70946368092, -4803.255772978756, -7289.596770953748, -10699.333035866384, 18234.463719661682, 12406.671036085014, 0.056, 0.964, 0.28600000000000003, 192.0, 0.0, 0.0, 0.0, 0.0, 0.0, 0.0, 0.0, 0.0, 0.0, 1.6878027404125845E9, 0.0, 2023-06-26 13:05:40.412
46.0, 45950.26921633115, 48789.521907510985, 49994.23623016313, -4885.241971640822, -7357.680184564613, -10805.23560109563, 18144.408541251247, 12275.779220554736, 0.056, 0.964, 0.28600000000000003, 192.0, 0.0, 0.0, 0.0, 0.0, 0.0, 0.0, 0.0, 0.0, 0.0, 1.6878027404166179E9, 0.0, 2023-06-26 13:05:40.416
47.0, 45943.20606508328, 48786.727939454075, 51848.5369501754, -4904.911506761492, -7379.495487152993, -10829.844871740923, 18114.47955542559, 12256.37790636753, 0.056, 0.964, 0.28600000000000003, 192.0, 0.0, 0.0, 0.0, 0.0, 0.0, 0.0, 0.0, 0.0, 0.0, 1.6878027404206164E9, 0.0, 2023-06-26 13:05:40.420
48.0, 45956.43829780082, 48774.09920383683, 51157.353956383944, -4867.986424921325, -7377.215609218551, -10777.832362393423, 18129.634038166292, 12299.852049333102, 0.056, 0.964, 0.28600000000000003, 192.0, 0.0, 0.0, 0.0, 0.0, 0.0, 0.0, 0.0, 0.0, 0.0, 1.6878027404246655E9, 0.0, 2023-06-26 13:05:40.424
49.0, 45988.58010632755, 48802.105939639325, 48352.746469109836, -4780.166420956423, -7291.228448298985, -10673.114439620309, 18226.439443402225, 12424.84300432718, 0.052000000000000005, 0.966, 0.28400000000000003, 192.0, 1.0, 160.0, 30.0, 48.0, 8.0, 224.0, 0.0, 0.0, 0.0, 1.687802740429662E9, 0.0, 2023-06-26 13:05:40.429
50.0, 45968.128260150945, 48803.715265240106, 49674.33806351877, -4859.6268724950405, -7341.45281809006, -10765.293033753996, 18162.714619960145, 12325.847128134625, 0.052000000000000005, 0.966, 0.28400000000000003, 192.0, 0.0, 0.0, 0.0, 0.0, 0.0, 0.0, 0.0, 0.0, 0.0, 1.6878027404336894E9, 0.0, 2023-06-26 13:05:40.433
51.0, 45965.93778919432, 48811.89600371075, 51455.81680009566, -4894.048558956213, -7368.520780625437, -10814.645685511314, 18118.05583453844, 12265.251548916287, 0.052000000000000005, 0.966, 0.28400000000000003, 192.0, 0.0, 0.0, 0.0, 0.0, 0.0, 0.0, 0.0, 0.0, 0.0, 1.6878027404377244E9, 0.0, 2023-06-26 13:05:40.437
52.0, 45953.82314369955, 48783.21871557459, 51646.47718029943, -4880.101070416102, -7376.790926073901, -10788.583551476426, 18129.11994804382, 12290.352557939597, 0.052000000000000005, 0.966, 0.28400000000000003, 192.0, 0.0, 0.0, 0.0, 0.0, 0.0, 0.0, 0.0, 0.0, 0.0, 1.6878027404407423E9, 0.0, 2023-06-26 13:05:40.440
53.0, 45991.418777873376, 48809.75023624304, 48468.707319343965, -4784.033272747191, -7280.790183638357, -10678.92589317869, 18235.804824329, 12406.268704684819, 0.052000000000000005, 0.966, 0.28400000000000003, 192.0, 0.0, 0.0, 0.0, 0.0, 0.0, 0.0, 0.0, 0.0, 0.0, 1.687802740444744E9, 0.0, 2023-06-26 13:05:40.444
54.0, 45963.00971067068, 48804.072893151395, 49369.639083104026, -4851.7590584467725, -7324.219623115018, -10749.31153646845, 18186.675690016233, 12340.35341028612, 0.052000000000000005, 0.966, 0.28400000000000003, 192.0, 0.0, 0.0, 0.0, 0.0, 0.0, 0.0, 0.0, 0.0, 0.0, 1.6878027404487548E9, 0.0, 2023-06-26 13:05:40.448
55.0, 45961.80271647009, 48813.66179152272, 51113.29866806253, -4895.7249397903615, -7361.368222399738, -10811.985827921133, 18123.867288096822, 12263.306947148676, 0.052000000000000005, 0.966, 0.28400000000000003, 192.0, 0.0, 0.0, 0.0, 0.0, 0.0, 0.0, 0.0, 0.0, 0.0, 1.687802740451773E9, 0.0, 2023-06-26 13:05:40.451
56.0, 45947.229379085235, 48786.884401665266, 52025.003972650054, -4895.076739201158, -7381.171867987141, -10802.195763849708, 18118.033482793988, 12266.480894861328, 0.052000000000000005, 0.966, 0.28400000000000003, 192.0, 0.0, 0.0, 0.0, 0.0, 0.0, 0.0, 0.0, 0.0, 0.0, 1.68780274045579E9, 0.0, 2023-06-26 13:05:40.455
57.0, 45996.26910642017, 48816.27694562399, 48814.75702700103, -4791.52110713972, -7291.027282598888, -10685.407899070728, 18207.731033293134, 12386.643873053059, 0.052000000000000005, 0.966, 0.28400000000000003, 192.0, 0.0, 0.0, 0.0, 0.0, 0.0, 0.0, 0.0, 0.0, 0.0, 1.6878027404598184E9, 0.0, 2023-06-26 13:05:40.459
58.0, 45958.76287922417, 48798.619067504296, 49075.37836734991, -4846.14877058849, -7312.619067742714, -10738.64975436327, 18193.247102886093, 12350.568157502194, 0.052000000000000005, 0.966, 0.28400000000000003, 192.0, 0.0, 0.0, 0.0, 0.0, 0.0, 0.0, 0.0, 0.0, 0.0, 1.6878027404638283E9, 0.0, 2023-06-26 13:05:40.463
59.0, 45960.39455656941, 48810.73371299908, 50811.52776617143, -4906.364370151087, -7366.17384745763, -10820.457139069693, 18106.388223932772, 12244.240909128299, 0.044, 0.96, 0.266, 192.0, 1.0, 96.0, 30.0, 0.0, 8.0, 80.0, 0.0, 0.0, 0.0, 1.687802740468858E9, 0.0, 2023-06-26 13:05:40.468
60.0, 45937.99810862519, 48779.57538122838, 52238.016097309126, -4916.310896433699, -7387.519763412448, -10820.94887744771, 18097.648691850747, 12253.494531332795, 0.044, 0.96, 0.266, 192.0, 0.0, 0.0, 0.0, 0.0, 0.0, 0.0, 0.0, 0.0, 0.0, 1.6878027404728775E9, 0.0, 2023-06-26 13:05:40.472
61.0, 45989.67534180586, 48803.73761698457, 49336.066762932154, -4813.38111321701, -7307.58992524027, -10708.07256794841, 18190.07315517344, 12366.594358276649, 0.044, 0.96, 0.266, 192.0, 0.0, 0.0, 0.0, 0.0, 0.0, 0.0, 0.0, 0.0, 0.0, 1.68780274047688E9, 0.0, 2023-06-26 13:05:40.476
62.0, 45964.95431243829, 48796.83092794787, 48761.20224728611, -4834.816436149649, -7296.548163479348, -10723.361161155839, 18209.65328331629, 12366.54965478774, 0.044, 0.96, 0.266, 192.0, 0.0, 0.0, 0.0, 0.0, 0.0, 0.0, 0.0, 0.0, 0.0, 1.6878027404798932E9, 0.0, 2023-06-26 13:05:40.479
63.0, 45968.95527469579, 48812.70066651114, 50522.00562024184, -4903.704512560906, -7356.517893852937, -10816.769101234568, 18119.508697928035, 12259.529502335728, 0.044, 0.96, 0.266, 192.0, 0.0, 0.0, 0.0, 0.0, 0.0, 0.0, 0.0, 0.0, 0.0, 1.687802740483932E9, 0.0, 2023-06-26 13:05:40.483
64.0, 45946.20119884029, 48791.08652962286, 52243.179350278304, -4921.898832547526, -7380.054280764375, -10829.956630463199, 18101.314377941417, 12249.426513841929, 0.044, 0.96, 0.266, 192.0, 0.0, 0.0, 0.0, 0.0, 0.0, 0.0, 0.0, 0.0, 0.0, 1.68780274048795E9, 0.0, 2023-06-26 13:05:40.487
65.0, 45986.81431851558, 48803.00000941754, 49958.764011712556, -4836.537520472708, -7326.723018494013, -10728.8820420363, 18159.31715480294, 12336.620668962083, 0.044, 0.96, 0.266, 192.0, 0.0, 0.0, 0.0, 0.0, 0.0, 0.0, 0.0, 0.0, 0.0, 1.6878027404919567E9, 0.0, 2023-06-26 13:05:40.491
66.0, 45983.26039114719, 48806.91156469722, 48433.52567357131, -4814.699866139873, -7281.125459805186, -10698.170745154708, 18216.09058571942, 12389.415489365518, 0.044, 0.96, 0.266, 192.0, 0.0, 0.0, 0.0, 0.0, 0.0, 0.0, 0.0, 0.0, 0.0, 1.6878027404959712E9, 0.0, 2023-06-26 13:05:40.495
67.0, 45978.36535911147, 48816.38870434627, 50178.45930796377, -4894.294428145222, -7342.6374605461915, -10803.8497929394, 18124.716654386124, 12271.018298985757, 0.044, 0.96, 0.266, 192.0, 0.0, 0.0, 0.0, 0.0, 0.0, 0.0, 0.0, 0.0, 0.0, 1.6878027405009928E9, 0.0, 2023-06-26 13:05:40.500
68.0, 45963.07676590404, 48803.82702396238, 52043.39945833677, -4918.993105768336, -7359.803600287867, -10826.246240883618, 18097.42517440619, 12245.582013795616, 0.044, 0.96, 0.266, 192.0, 0.0, 0.0, 0.0, 0.0, 0.0, 0.0, 0.0, 0.0, 0.0, 1.6878027405050125E9, 0.0, 2023-06-26 13:05:40.505
69.0, 45977.828917244544, 48790.68419822266, 50617.60403127719, -4867.137058632024, -7336.133102909697, -10753.893644081789, 18134.238497524082, 12313.307799495196, 0.038, 0.9520000000000001, 0.26, 192.0, 1.0, 48.0, 29.0, 192.0, 8.0, 32.0, 0.0, 0.0, 0.0, 1.6878027405090358E9, 0.0, 2023-06-26 13:05:40.509
70.0, 45993.87746976346, 48810.353733343334, 48252.5883022056, -4805.222726490823, -7262.998195051932, -10672.645052986749, 18232.720283594168, 12426.98877179489, 0.038, 0.9520000000000001, 0.26, 192.0, 0.0, 0.0, 0.0, 0.0, 0.0, 0.0, 0.0, 0.0, 0.0, 1.687802740512054E9, 0.0, 2023-06-26 13:05:40.512
71.0, 45977.15836491089, 48819.4732450811, 49856.75065001853, -4893.355654878099, -7318.117596878719, -10782.816801406956, 18151.762265177043, 12305.372930213563, 0.038, 0.9520000000000001, 0.26, 192.0, 0.0, 0.0, 0.0, 0.0, 0.0, 0.0, 0.0, 0.0, 0.0, 1.687802740516065E9, 0.0, 2023-06-26 13:05:40.516
72.0, 45953.75608846618, 48803.35763732882, 51902.739930479525, -4929.073742517679, -7353.411001373649, -10824.793377494023, 18103.21427622012, 12261.652918058982, 0.038, 0.9520000000000001, 0.26, 192.0, 0.0, 0.0, 0.0, 0.0, 0.0, 0.0, 0.0, 0.0, 0.0, 1.687802740520074E9, 0.0, 2023-06-26 13:05:40.520
73.0, 45961.31097809208, 48786.392663287246, 51448.82070408115, -4891.992198466325, -7353.366297884739, -10776.46890598165, 18117.184116504683, 12299.561476655183, 0.038, 0.9520000000000001, 0.26, 192.0, 0.0, 0.0, 0.0, 0.0, 0.0, 0.0, 0.0, 0.0, 0.0, 1.6878027405241125E9, 0.0, 2023-06-26 13:05:40.524
74.0, 45997.073769220566, 48815.740503757064, 48342.55407363821, -4797.243153720278, -7259.600729894725, -10674.20967509862, 18225.590077112924, 12413.60007686616, 0.038, 0.9520000000000001, 0.26, 192.0, 0.0, 0.0, 0.0, 0.0, 0.0, 0.0, 0.0, 0.0, 0.0, 1.6878027405301352E9, 0.0, 2023-06-26 13:05:40.530
75.0, 45981.80752775759, 48823.40715210523, 49375.919923295965, -4864.723070230851, -7302.069044359809, -10753.044277792487, 18181.93712019171, 12335.905413139513, 0.038, 0.9520000000000001, 0.26, 192.0, 0.0, 0.0, 0.0, 0.0, 0.0, 0.0, 0.0, 0.0, 0.0, 1.6878027405332007E9, 0.0, 2023-06-26 13:05:40.533
76.0, 45965.31194034957, 48814.33234385638, 51453.0451837832, -4920.44596915793, -7345.163207669641, -10828.392008351328, 18120.6262851508, 12248.823016741637, 0.038, 0.9520000000000001, 0.26, 192.0, 0.0, 0.0, 0.0, 0.0, 0.0, 0.0, 0.0, 0.0, 0.0, 1.68780274053724E9, 0.0, 2023-06-26 13:05:40.537
77.0, 45952.86201868797, 48780.69296845114, 51867.155953306676, -4909.6947800749285, -7364.251597434473, -10800.228810337641, 18111.26090422403, 12283.937607280923, 0.038, 0.9520000000000001, 0.26, 192.0, 0.0, 0.0, 0.0, 0.0, 0.0, 0.0, 0.0, 0.0, 0.0, 1.6878027405402212E9, 0.0, 2023-06-26 13:05:40.540
78.0, 46004.94158326883, 48818.4227130917, 48503.62074418316, -4797.086691509091, -7262.014718295899, -10675.975462910588, 18218.07989097594, 12414.74001583338, 0.038, 0.9520000000000001, 0.26, 192.0, 0.0, 0.0, 0.0, 0.0, 0.0, 0.0, 0.0, 0.0, 0.0, 1.6878027405442305E9, 0.0, 2023-06-26 13:05:40.544
79.0, 45991.53053659565, 48829.39741961926, 48924.12411262085, -4838.459770495864, -7276.364538236206, -10723.897603022768, 18216.179992697238, 12368.538960044261, 0.038, 0.9520000000000001, 0.26, 192.0, 0.0, 0.0, 0.0, 0.0, 0.0, 0.0, 0.0, 0.0, 0.0, 1.6878027405482287E9, 0.0, 2023-06-26 13:05:40.548
80.0, 45981.87458299096, 48831.65494580924, 50990.05114913597, -4905.045617228225, -7330.388704584683, -10810.935295931733, 18141.480462727603, 12272.135886208522, 0.032, 0.9580000000000001, 0.244, 192.0, 1.0, 0.0, 29.0, 240.0, 7.0, 160.0, 0.0, 0.0, 0.0, 1.6878027405522401E9, 0.0, 2023-06-26 13:05:40.552
81.0, 45951.699727976295, 48787.33143655437, 52159.11443938189, -4916.981448767358, -7362.865789278244, -10813.058711654987, 18117.63115139379, 12267.509075106273, 0.032, 0.9580000000000001, 0.244, 192.0, 0.0, 0.0, 0.0, 0.0, 0.0, 0.0, 0.0, 0.0, 0.0, 1.68780274055625E9, 0.0, 2023-06-26 13:05:40.556
82.0, 46011.24477520523, 48823.429503849686, 48888.1378040478, -4797.667836864929, -7270.82130561129, -10684.06679440341, 18207.7980885265, 12389.16962017651, 0.032, 0.9580000000000001, 0.244, 192.0, 0.0, 0.0, 0.0, 0.0, 0.0, 0.0, 0.0, 0.0, 0.0, 1.6878027405612836E9, 0.0, 2023-06-26 13:05:40.561
83.0, 45995.598554086515, 48829.12919868579, 48563.70223327902, -4822.388866232499, -7267.468543942994, -10711.31357089443, 18215.867068274863, 12373.881026969078, 0.032, 0.9580000000000001, 0.244, 192.0, 0.0, 0.0, 0.0, 0.0, 0.0, 0.0, 0.0, 0.0, 0.0, 1.6878027405642874E9, 0.0, 2023-06-26 13:05:40.564
84.0, 45986.81431851558, 48835.29828015545, 50602.98599040342, -4894.003855467303, -7325.270155104417, -10806.464947040671, 18138.038294081485, 12266.167970438955, 0.032, 0.9580000000000001, 0.244, 192.0, 0.0, 0.0, 0.0, 0.0, 0.0, 0.0, 0.0, 0.0, 0.0, 1.68780274056731E9, 0.0, 2023-06-26 13:05:40.567
85.0, 45952.48203903223, 48794.282829079966, 52295.01304567016, -4914.075721988168, -7364.02807998992, -10820.747711747612, 18112.289084468972, 12253.51688307725, 0.032, 0.9580000000000001, 0.244, 192.0, 0.0, 0.0, 0.0, 0.0, 0.0, 0.0, 0.0, 0.0, 0.0, 1.6878027405723317E9, 0.0, 2023-06-26 13:05:40.572
86.0, 46001.23119368925, 48816.07577992389, 49504.15188123607, -4812.6658573944405, -7298.224544313496, -10710.531259838493, 18185.98278593812, 12365.968509431901, 0.032, 0.9580000000000001, 0.244, 192.0, 0.0, 0.0, 0.0, 0.0, 0.0, 0.0, 0.0, 0.0, 0.0, 1.6878027405763788E9, 0.0, 2023-06-26 13:05:40.576
87.0, 45994.16804244138, 48823.496559083054, 48315.10613144709, -4806.09444452458, -7264.406354952616, -10700.741195767068, 18224.27132419006, 12395.159887690532, 0.032, 0.9580000000000001, 0.244, 192.0, 0.0, 0.0, 0.0, 0.0, 0.0, 0.0, 0.0, 0.0, 0.0, 1.6878027405803893E9, 0.0, 2023-06-26 13:05:40.580
88.0, 45987.93190573835, 48836.505274356045, 50241.960613961295, -4886.873648986059, -7335.082570920297, -10803.738034217124, 18138.97706734861, 12278.66259558947, 0.032, 0.9580000000000001, 0.244, 192.0, 0.0, 0.0, 0.0, 0.0, 0.0, 0.0, 0.0, 0.0, 0.0, 1.6878027405844035E9, 0.0, 2023-06-26 13:05:40.584
89.0, 45959.61224551347, 48807.6715240087, 52255.45045798427, -4912.622858598574, -7365.525646868426, -10822.178223392752, 18108.623398378302, 12252.645165043494, 0.032, 0.9580000000000001, 0.244, 192.0, 0.0, 0.0, 0.0, 0.0, 0.0, 0.0, 0.0, 0.0, 0.0, 1.6878027405894492E9, 0.0, 2023-06-26 13:05:40.589
90.0, 45992.044626718125, 48811.78424498848, 50181.18622078732, -4835.665802438951, -7316.038884644376, -10738.962678785645, 18156.411428023748, 12326.450625234918, 0.038, 0.964, 0.23, 192.0, 1.0, 48.0, 30.0, 32.0, 7.0, 48.0, 0.0, 0.0, 0.0, 1.6878027405924351E9, 0.0, 2023-06-26 13:05:40.592
91.0, 45999.644219832924, 48828.749219030055, 48151.87134168999, -4790.13529898349, -7258.997232794432, -10679.864666445812, 18232.94380103872, 12413.51066988834, 0.038, 0.964, 0.23, 192.0, 0.0, 0.0, 0.0, 0.0, 0.0, 0.0, 0.0, 0.0, 0.0, 1.687802740597472E9, 0.0, 2023-06-26 13:05:40.597
92.0, 45986.56844932657, 48838.49457961257, 49873.35799614883, -4872.3003116012, -7326.186576627086, -10780.46986823915, 18148.02952385301, 12301.170802255965, 0.038, 0.964, 0.23, 192.0, 0.0, 0.0, 0.0, 0.0, 0.0, 0.0, 0.0, 0.0, 0.0, 1.6878027406004784E9, 0.0, 2023-06-26 13:05:40.600
93.0, 45959.41107981338, 48814.51115781202, 52058.844513755386, -4903.838623027637, -7366.620882346736, -10819.071330913464, 18106.142354743763, 12251.61698479855, 0.038, 0.964, 0.23, 192.0, 0.0, 0.0, 0.0, 0.0, 0.0, 0.0, 0.0, 0.0, 0.0, 1.6878027406044867E9, 0.0, 2023-06-26 13:05:40.604
94.0, 45979.41589110087, 48805.77162573, 50855.65010972621, -4852.519017758253, -7348.270100148929, -10763.124914541831, 18135.199622535663, 12303.785956357237, 0.038, 0.964, 0.23, 192.0, 0.0, 0.0, 0.0, 0.0, 0.0, 0.0, 0.0, 0.0, 0.0, 1.6878027406085303E9, 0.0, 2023-06-26 13:05:40.608
95.0, 45999.39835064392, 48823.228338149594, 48147.691565476845, -4783.653293091452, -7268.988462565954, -10680.043480401455, 18226.57355386896, 12414.449443155461, 0.038, 0.964, 0.23, 192.0, 0.0, 0.0, 0.0, 0.0, 0.0, 0.0, 0.0, 0.0, 0.0, 1.6878027406125317E9, 0.0, 2023-06-26 13:05:40.612
96.0, 45977.11366142198, 48824.99412596156, 49549.57062596925, -4861.616177751563, -7322.8561667032445, -10771.976205346133, 18160.077114114418, 12316.10176755211, 0.038, 0.964, 0.23, 192.0, 0.0, 0.0, 0.0, 0.0, 0.0, 0.0, 0.0, 0.0, 0.0, 1.6878027406165507E9, 0.0, 2023-06-26 13:05:40.616
97.0, 45960.84159145851, 48817.01455319102, 51744.42252450258, -4903.704512560906, -7364.430411390115, -10825.709799016691, 18108.668101867213, 12258.009583712768, 0.038, 0.964, 0.23, 192.0, 0.0, 0.0, 0.0, 0.0, 0.0, 0.0, 0.0, 0.0, 0.0, 1.6878027406205814E9, 0.0, 2023-06-26 13:05:40.620
98.0, 45972.1515741529, 48803.22352686209, 51440.17057897694, -4870.065137155669, -7364.7656875569455, -10781.766269417558, 18116.513564171026, 12295.895790564513, 0.038, 0.964, 0.23, 192.0, 0.0, 0.0, 0.0, 0.0, 0.0, 0.0, 0.0, 0.0, 0.0, 1.6878027406236002E9, 0.0, 2023-06-26 13:05:40.623
99.0, 46010.708333338305, 48830.202082419644, 48267.452212268385, -4772.075089463602, -7270.843657355745, -10674.880227432279, 18222.438481144723, 12414.449443155461, 0.038, 0.964, 0.23, 192.0, 0.0, 0.0, 0.0, 0.0, 0.0, 0.0, 0.0, 0.0, 0.0, 1.6878027406276224E9, 0.0, 2023-06-26 13:05:40.627
100.0, 45981.6510655464, 48824.3235736279, 49219.50241559773, -4842.438381008909, -7319.302239334851, -10755.927652827222, 18172.616442753846, 12337.291221295742, 0.048, 0.974, 0.228, 192.0, 1.0, 128.0, 30.0, 112.0, 7.0, 32.0, 0.0, 0.0, 0.0, 1.6878027406326263E9, 0.0, 2023-06-26 13:05:40.632
101.0, 45969.804640985094, 48825.82114050641, 51363.660557706426, -4891.701625788406, -7363.961024756554, -10818.445482068717, 18108.019901278007, 12266.167970438955, 0.048, 0.974, 0.228, 192.0, 0.0, 0.0, 0.0, 0.0, 0.0, 0.0, 0.0, 0.0, 0.0, 1.687802740636653E9, 0.0, 2023-06-26 13:05:40.636
102.0, 45953.3984605549, 48789.92423891118, 51939.59795708632, -4887.924180975459, -7387.609170390269, -10805.28030458454, 18101.850819808344, 12276.896807777503, 0.048, 0.974, 0.228, 192.0, 0.0, 0.0, 0.0, 0.0, 0.0, 0.0, 0.0, 0.0, 0.0, 1.68780274064068E9, 0.0, 2023-06-26 13:05:40.640
103.0, 46007.28851643664, 48826.89402424026, 48610.14915825715, -4774.757298798239, -7290.088509331765, -10684.379718825785, 18204.087698946918, 12399.473774370406, 0.048, 0.974, 0.228, 192.0, 0.0, 0.0, 0.0, 0.0, 0.0, 0.0, 0.0, 0.0, 0.0, 1.6878027406446795E9, 0.0, 2023-06-26 13:05:40.644
104.0, 45979.81822250107, 48821.77547476, 48934.92000519276, -4828.5802994466185, -7318.207003856541, -10743.500082910072, 18180.953643435674, 12347.975355145378, 0.048, 0.974, 0.228, 192.0, 0.0, 0.0, 0.0, 0.0, 0.0, 0.0, 0.0, 0.0, 0.0, 1.6878027406476977E9, 0.0, 2023-06-26 13:05:40.647
105.0, 45977.851268989005, 48832.660774309734, 50968.05703259195, -4884.616122796074, -7367.537303869403, -10820.18891813623, 18111.350311201848, 12258.367211624052, 0.048, 0.974, 0.228, 192.0, 0.0, 0.0, 0.0, 0.0, 0.0, 0.0, 0.0, 0.0, 0.0, 1.6878027406517298E9, 0.0, 2023-06-26 13:05:40.651
106.0, 45951.342100065005, 48793.94755291314, 52201.381588146876, -4894.87557350106, -7400.8637548522665, -10815.785624478534, 18094.430040649182, 12266.1456186945, 0.048, 0.974, 0.228, 192.0, 0.0, 0.0, 0.0, 0.0, 0.0, 0.0, 0.0, 0.0, 0.0, 1.6878027406557431E9, 0.0, 2023-06-26 13:05:40.655
107.0, 46004.71806582428, 48821.86488173782, 49038.207416320736, -4787.542496626675, -7315.860070688734, -10694.885038719778, 18177.35501257837, 12381.16769566151, 0.048, 0.974, 0.228, 192.0, 0.0, 0.0, 0.0, 0.0, 0.0, 0.0, 0.0, 0.0, 0.0, 1.6878027406597743E9, 0.0, 2023-06-26 13:05:40.659
108.0, 45992.82693777406, 48829.46447485262, 48582.90238176613, -4805.826223591116, -7305.868840917211, -10714.331056395897, 18205.294693147505, 12384.006367207334, 0.048, 0.974, 0.228, 192.0, 0.0, 0.0, 0.0, 0.0, 0.0, 0.0, 0.0, 0.0, 0.0, 1.6878027406647937E9, 0.0, 2023-06-26 13:05:40.664
109.0, 45986.166117926376, 48837.08641971188, 50558.70718463745, -4879.184648893434, -7363.692803823091, -10809.571839519958, 18122.59323866287, 12268.671365817949, 0.048, 0.974, 0.228, 192.0, 0.0, 0.0, 0.0, 0.0, 0.0, 0.0, 0.0, 0.0, 0.0, 1.6878027406688092E9, 0.0, 2023-06-26 13:05:40.668
110.0, 45951.207989598275, 48794.640456991256, 52280.35030130748, -4910.54414636423, -7399.366187973761, -10827.453235084206, 18095.927607527687, 12249.80649349767, 0.06, 0.984, 0.222, 192.0, 1.0, 224.0, 30.0, 192.0, 6.0, 240.0, 0.0, 0.0, 0.0, 1.6878027406728373E9, 0.0, 2023-06-26 13:05:40.672
111.0, 45995.37503664196, 48812.65596302223, 49629.23224320797, -4811.704732382862, -7339.016477944431, -10726.803329801956, 18168.459018285157, 12347.505968511818, 0.06, 0.984, 0.222, 192.0, 0.0, 0.0, 0.0, 0.0, 0.0, 0.0, 0.0, 0.0, 0.0, 1.687802740675844E9, 0.0, 2023-06-26 13:05:40.675
112.0, 45989.25065866121, 48823.09422768286, 48373.086556564165, -4796.0585112641475, -7304.147756594152, -10701.83643124538, 18216.13528920833, 12393.505858600838, 0.06, 0.984, 0.222, 192.0, 0.0, 0.0, 0.0, 0.0, 0.0, 0.0, 0.0, 0.0, 0.0, 1.6878027406798513E9, 0.0, 2023-06-26 13:05:40.679
113.0, 45992.804586029604, 48843.72488781511, 50178.72752889723, -4865.170105119956, -7357.568425842336, -10786.303673541985, 18138.284163270495, 12300.14262201102, 0.06, 0.984, 0.222, 192.0, 0.0, 0.0, 0.0, 0.0, 0.0, 0.0, 0.0, 0.0, 0.0, 1.6878027406838715E9, 0.0, 2023-06-26 13:05:40.683
114.0, 45960.57337052505, 48810.30902985443, 52158.93562542625, -4899.994122981325, -7396.169888516652, -10816.389121578828, 18108.668101867213, 12261.89878724799, 0.06, 0.984, 0.222, 192.0, 0.0, 0.0, 0.0, 0.0, 0.0, 0.0, 0.0, 0.0, 0.0, 1.6878027406879127E9, 0.0, 2023-06-26 13:05:40.687
115.0, 45994.77153954167, 48815.29346886796, 50267.44160264035, -4828.4014854909765, -7350.237053660996, -10732.12304498232, 18154.869157656332, 12337.850014907124, 0.06, 0.984, 0.222, 192.0, 0.0, 0.0, 0.0, 0.0, 0.0, 0.0, 0.0, 0.0, 0.0, 1.687802740691923E9, 0.0, 2023-06-26 13:05:40.691
116.0, 45997.833728532045, 48827.631631807286, 48229.99068856129, -4784.592066358575, -7294.067119844809, -10677.316567577907, 18228.22758295865, 12417.981018779401, 0.06, 0.984, 0.222, 192.0, 0.0, 0.0, 0.0, 0.0, 0.0, 0.0, 0.0, 0.0, 0.0, 1.6878027406979644E9, 0.0, 2023-06-26 13:05:40.697
117.0, 45985.56262082608, 48838.025192979, 49869.11116470232, -4862.890227185515, -7360.429449132615, -10779.061708338466, 18149.21416630914, 12302.71307262338, 0.06, 0.984, 0.222, 192.0, 0.0, 0.0, 0.0, 0.0, 0.0, 0.0, 0.0, 0.0, 0.0, 1.6878027407019851E9, 0.0, 2023-06-26 13:05:40.701
118.0, 45964.93196069384, 48820.009686948026, 51926.58924181334, -4899.569439836674, -7390.626655891736, -10821.597078036915, 18105.337691943372, 12254.410952855464, 0.06, 0.984, 0.222, 192.0, 0.0, 0.0, 0.0, 0.0, 0.0, 0.0, 0.0, 0.0, 0.0, 1.687802740704982E9, 0.0, 2023-06-26 13:05:40.704
119.0, 45983.86388824748, 48808.49853855355, 50920.38076166878, -4847.221654322345, -7368.565484114348, -10759.727449384625, 18131.01984632252, 12306.602276158605, 0.06, 0.984, 0.222, 192.0, 0.0, 0.0, 0.0, 0.0, 0.0, 0.0, 0.0, 0.0, 0.0, 1.6878027407080247E9, 0.0, 2023-06-26 13:05:40.708
120.0, 46004.44984489082, 48829.62093706381, 48222.86048208005, -4771.5833510855855, -7290.848468643245, -10674.813172198912, 18221.455004388692, 12412.326027432207, 0.06, 0.984, 0.222, 192.0, 0.0, 0.0, 0.0, 0.0, 0.0, 0.0, 0.0, 0.0, 0.0, 1.6878027407120323E9, 0.0, 2023-06-26 13:05:40.712
121.0, 45981.18167891284, 48829.151550430244, 49577.44325130502, -4854.262453825767, -7356.652004319669, -10776.93829261521, 18146.844881396875, 12300.924933066957, 0.066, 0.976, 0.224, 192.0, 2.0, 16.0, 30.0, 128.0, 7.0, 0.0, 0.0, 0.0, 0.0, 1.687802740716041E9, 0.0, 2023-06-26 13:05:40.716
122.0, 45971.57042879706, 48826.53639632898, 51586.44039469247, -4887.901829231004, -7389.307902968872, -10824.748674005114, 18099.637997107267, 12242.341010849597, 0.066, 0.976, 0.224, 192.0, 0.0, 0.0, 0.0, 0.0, 0.0, 0.0, 0.0, 0.0, 0.0, 1.6878027407200773E9, 0.0, 2023-06-26 13:05:40.720
123.0, 45969.49171656272, 48803.75996872902, 51492.47366100236, -4864.946587675404, -7400.5731821743475, -10785.722528186147, 18105.53885764347, 12279.310796178675, 0.066, 0.976, 0.224, 192.0, 0.0, 0.0, 0.0, 0.0, 0.0, 0.0, 0.0, 0.0, 0.0, 1.6878027407250988E9, 0.0, 2023-06-26 13:05:40.725
124.0, 46011.24477520523, 48833.04075396547, 48369.644387918044, -4765.078993449091, -7307.902849662644, -10676.422497799695, 18208.759213538076, 12401.351320904652, 0.066, 0.976, 0.224, 192.0, 0.0, 0.0, 0.0, 0.0, 0.0, 0.0, 0.0, 0.0, 0.0, 1.6878027407280965E9, 0.0, 2023-06-26 13:05:40.728
125.0, 45979.37118761196, 48821.86488173782, 49277.929875603906, -4827.7532849017725, -7343.64328904668, -10748.283356223506, 18172.862311942856, 12331.72563692637, 0.066, 0.976, 0.224, 192.0, 0.0, 0.0, 0.0, 0.0, 0.0, 0.0, 0.0, 0.0, 0.0, 1.6878027407311208E9, 0.0, 2023-06-26 13:05:40.731
126.0, 45974.02912068715, 48827.29635564046, 51219.87178562544, -4867.740555732316, -7378.959045286066, -10805.883801684833, 18118.45816593864, 12261.272938403243, 0.066, 0.976, 0.224, 192.0, 0.0, 0.0, 0.0, 0.0, 0.0, 0.0, 0.0, 0.0, 0.0, 1.6878027407361996E9, 0.0, 2023-06-26 13:05:40.736
127.0, 45952.50439077668, 48786.32560805388, 51931.12664593776, -4878.782317493238, -7405.065882809864, -10806.286133085028, 18105.784726832477, 12262.23406341482, 0.066, 0.976, 0.224, 192.0, 0.0, 0.0, 0.0, 0.0, 0.0, 0.0, 0.0, 0.0, 0.0, 1.6878027407402132E9, 0.0, 2023-06-26 13:05:40.740
128.0, 46000.8065105446, 48814.60056478984, 48676.82441196733, -4774.511429609231, -7312.395550298161, -10686.391375826763, 18199.818515755953, 12385.749803274848, 0.066, 0.976, 0.224, 192.0, 0.0, 0.0, 0.0, 0.0, 0.0, 0.0, 0.0, 0.0, 0.0, 1.6878027407442107E9, 0.0, 2023-06-26 13:05:40.744
129.0, 45975.79490849911, 48814.689971767664, 48932.30485109149, -4822.634735421507, -7331.729809252001, -10731.452492648661, 18188.17325689474, 12350.165826101998, 0.066, 0.976, 0.224, 192.0, 0.0, 0.0, 0.0, 0.0, 0.0, 0.0, 0.0, 0.0, 0.0, 1.6878027407482038E9, 0.0, 2023-06-26 13:05:40.748
130.0, 45971.63748403043, 48821.64136429327, 50803.45878642306, -4887.834773997638, -7381.350681942783, -10810.465909298171, 18114.09957576985, 12260.110647691567, 0.066, 0.976, 0.224, 192.0, 0.0, 0.0, 0.0, 0.0, 0.0, 0.0, 0.0, 0.0, 0.0, 1.68780274075322E9, 0.0, 2023-06-26 13:05:40.753
131.0, 45952.90672217688, 48791.622971489785, 52128.805473900495, -4896.574306079663, -7401.5119554414705, -10807.314313329973, 18103.750718087045, 12256.109685434067, 0.066, 0.968, 0.22, 192.0, 2.0, 16.0, 30.0, 64.0, 6.0, 224.0, 0.0, 0.0, 0.0, 1.6878027407562385E9, 0.0, 2023-06-26 13:05:40.756
132.0, 46007.22146120328, 48821.194329404156, 49127.52498716414, -4794.717406596828, -7328.891137706178, -10687.799535727447, 18187.70387026118, 12368.360146088618, 0.066, 0.968, 0.22, 192.0, 0.0, 0.0, 0.0, 0.0, 0.0, 0.0, 0.0, 0.0, 0.0, 1.6878027407592568E9, 0.0, 2023-06-26 13:05:40.759
133.0, 45992.1563854404, 48825.55291957295, 48619.939222328576, -4809.670723637429, -7330.411056329139, -10692.06871891841, 18212.693120562213, 12388.074384698199, 0.066, 0.968, 0.22, 192.0, 0.0, 0.0, 0.0, 0.0, 0.0, 0.0, 0.0, 0.0, 0.0, 1.6878027407632952E9, 0.0, 2023-06-26 13:05:40.763
134.0, 45983.77448126966, 48833.10780919884, 50425.71430512838, -4891.723977532862, -7375.874504551233, -10802.732205716635, 18117.050006037953, 12257.942528479402, 0.066, 0.968, 0.22, 192.0, 0.0, 0.0, 0.0, 0.0, 0.0, 0.0, 0.0, 0.0, 0.0, 1.6878027407683458E9, 0.0, 2023-06-26 13:05:40.768
135.0, 45957.62294025695, 48803.37998907328, 52164.255340606614, -4908.308971918699, -7399.679112396135, -10797.814821936468, 18089.110325468817, 12261.89878724799, 0.066, 0.968, 0.22, 192.0, 0.0, 0.0, 0.0, 0.0, 0.0, 0.0, 0.0, 0.0, 0.0, 1.6878027407723193E9, 0.0, 2023-06-26 13:05:40.772
136.0, 46010.86479554949, 48830.693820797664, 49669.063051827325, -4808.106101525557, -7329.986373184487, -10690.861724717823, 18159.652430969767, 12365.432067564972, 0.066, 0.968, 0.22, 192.0, 0.0, 0.0, 0.0, 0.0, 0.0, 0.0, 0.0, 0.0, 0.0, 1.6878027407763476E9, 0.0, 2023-06-26 13:05:40.776
137.0, 45996.380865142455, 48830.02326846401, 48333.47926538936, -4793.599819374063, -7287.339244763762, -10662.832637170868, 18214.61537058537, 12409.532059375295, 0.066, 0.968, 0.22, 192.0, 0.0, 0.0, 0.0, 0.0, 0.0, 0.0, 0.0, 0.0, 0.0, 1.687802740780377E9, 0.0, 2023-06-26 13:05:40.780
138.0, 45976.77838525515, 48825.44116085066, 50077.898809659346, -4890.718149032373, -7366.084440479808, -10787.801240420491, 18116.15593625974, 12264.424534371441, 0.066, 0.968, 0.22, 192.0, 0.0, 0.0, 0.0, 0.0, 0.0, 0.0, 0.0, 0.0, 0.0, 1.6878027407843852E9, 0.0, 2023-06-26 13:05:40.784
139.0, 45944.32365230604, 48792.248820334535, 52035.17401637722, -4931.375972196576, -7404.484737454026, -10822.155871648298, 18083.81296203291, 12240.351705593075, 0.066, 0.968, 0.22, 192.0, 0.0, 0.0, 0.0, 0.0, 0.0, 0.0, 0.0, 0.0, 0.0, 1.6878027407873957E9, 0.0, 2023-06-26 13:05:40.787
140.0, 45969.4023095849, 48789.23133483307, 50363.41999333144, -4867.740555732316, -7368.006690502965, -10738.202719474164, 18133.791462634978, 12326.852956635114, 0.066, 0.968, 0.22, 192.0, 0.0, 0.0, 0.0, 0.0, 0.0, 0.0, 0.0, 0.0, 0.0, 1.6878027407914388E9, 0.0, 2023-06-26 13:05:40.791
141.0, 45986.61315281548, 48809.07968390938, 48187.5223740962, -4810.341275971088, -7323.459663803538, -10676.646015244249, 18217.252876431096, 12405.396986651062, 0.068, 0.9520000000000001, 0.228, 192.0, 2.0, 32.0, 29.0, 192.0, 7.0, 32.0, 0.0, 0.0, 0.0, 1.6878027407964554E9, 0.0, 2023-06-26 13:05:40.796
142.0, 45969.53642005163, 48811.270154866004, 49744.500189363986, -4902.318704404677, -7382.088289509808, -10793.567990489959, 18123.375549718803, 12279.355499667585, 0.068, 0.9520000000000001, 0.228, 192.0, 0.0, 0.0, 0.0, 0.0, 0.0, 0.0, 0.0, 0.0, 0.0, 1.6878027408004544E9, 0.0, 2023-06-26 13:05:40.800
143.0, 45943.78721043911, 48792.65115173473, 51769.36707131471, -4929.788998340249, -7379.6743011086355, -10801.592266749414, 18092.35132841484, 12254.410952855464, 0.068, 0.9520000000000001, 0.228, 192.0, 0.0, 0.0, 0.0, 0.0, 0.0, 0.0, 0.0, 0.0, 0.0, 1.6878027408044963E9, 0.0, 2023-06-26 13:05:40.804
144.0, 45952.258521587675, 48774.54623872593, 50981.02104437602, -4890.204058909901, -7373.996958016987, -10756.978184816622, 18133.992628335076, 12302.981293556846, 0.068, 0.9520000000000001, 0.228, 192.0, 0.0, 0.0, 0.0, 0.0, 0.0, 0.0, 0.0, 0.0, 0.0, 1.6878027408084998E9, 0.0, 2023-06-26 13:05:40.808
