%OpenBCI Raw EEG Data
%Number of channels = 8
%Sample Rate = 250 Hz
%Board = OpenBCI_GUI$BoardCytonSerial
Sample Index, EXG Channel 0, EXG Channel 1, EXG Channel 2, EXG Channel 3, EXG Channel 4, EXG Channel 5, EXG Channel 6, EXG Channel 7, Accel Channel 0, Accel Channel 1, Accel Channel 2, Other, Other, Other, Other, Other, Other, Other, Analog Channel 0, Analog Channel 1, Analog Channel 2, Timestamp, Other, Timestamp (Formatted)
34.0, 46098.32717160311, 48903.2922867885, 50588.65852220757, -4705.98098110926, -7209.197546148008, -10676.936587922168, 18320.04854918105, 12299.315607466175, 0.0, 0.0, 0.0, 192.0, 0.0, 0.0, 0.0, 0.0, 0.0, 0.0, 0.0, 0.0, 0.0, 1.6878027762673707E9, 0.0, 2023-06-26 13:06:16.267
35.0, 46077.674159726404, 48886.14849879128, 52062.35373763487, -4726.477530774776, -7226.900127756611, -10697.142564909765, 18305.609322262924, 12286.150429981999, 0.0, 0.0, 0.0, 192.0, 0.0, 0.0, 0.0, 0.0, 0.0, 0.0, 0.0, 0.0, 0.0, 1.687802776267408E9, 0.0, 2023-06-26 13:06:16.267
36.0, 46110.41946535343, 48894.68686517321, 50486.0640151577, -4655.957777018282, -7191.830240706235, -10615.066959269878, 18348.368209405926, 12363.219244863898, 0.0, 0.0, 0.0, 192.0, 0.0, 0.0, 0.0, 0.0, 0.0, 0.0, 0.0, 0.0, 0.0, 1.687802776267424E9, 0.0, 2023-06-26 13:06:16.267
0.0, 0.0, 0.0, 0.0, 0.0, 0.0, 0.0, 0.0, 0.0, 0.0, 0.0, 0.0, 192.0, 0.0, 0.0, 0.0, 0.0, 0.0, 0.0, 0.0, 0.0, 0.0, 1.6878027763620207E9, 0.0, 2023-06-26 13:06:16.362
1.0, 46309.75232240585, 49042.20837857824, 55669.54531306569, -4352.421087315212, -7092.856716258135, -10337.793569301793, 18670.590957473632, 12619.146718877164, 0.052000000000000005, 0.98, 0.17400000000000002, 192.0, 1.0, 160.0, 30.0, 160.0, 5.0, 112.0, 0.0, 0.0, 0.0, 1.6878027763791325E9, 0.0, 2023-06-26 13:06:16.379
2.0, 46269.38507191957, 49001.75172111413, 57686.27616003468, -4393.369483157335, -7138.387219713595, -10371.991738318413, 18629.195526742402, 12586.468468483505, 0.052000000000000005, 0.98, 0.17400000000000002, 192.0, 0.0, 0.0, 0.0, 0.0, 0.0, 0.0, 0.0, 0.0, 0.0, 1.6878027763821225E9, 0.0, 2023-06-26 13:06:16.382
3.0, 46311.6298689401, 49021.53301495707, 56061.349041622765, -4324.436703257168, -7100.098681461654, -10294.14061238058, 18668.981631872848, 12643.59952731127, 0.052000000000000005, 0.98, 0.17400000000000002, 192.0, 0.0, 0.0, 0.0, 0.0, 0.0, 0.0, 0.0, 0.0, 0.0, 1.6878027763862166E9, 0.0, 2023-06-26 13:06:16.386
4.0, 46331.94760464998, 49052.80310545005, 54174.705347383664, -4275.486382900046, -7036.48561674185, -10235.668448885495, 18740.104882729636, 12719.438996248127, 0.052000000000000005, 0.98, 0.17400000000000002, 192.0, 0.0, 0.0, 0.0, 0.0, 0.0, 0.0, 0.0, 0.0, 0.0, 1.687802776390213E9, 0.0, 2023-06-26 13:06:16.390
5.0, 46307.51714796032, 49042.0742681115, 55343.27689925157, -4349.560064024933, -7079.803297496235, -10326.28242090731, 18682.370326801578, 12625.11463464673, 0.052000000000000005, 0.98, 0.17400000000000002, 192.0, 0.0, 0.0, 0.0, 0.0, 0.0, 0.0, 0.0, 0.0, 0.0, 1.6878027763932064E9, 0.0, 2023-06-26 13:06:16.393
6.0, 46265.942903273455, 49005.43975894925, 57461.2611486031, -4398.8456605488855, -7133.067504533232, -10373.981043574935, 18632.50358492179, 12577.952453846032, 0.052000000000000005, 0.98, 0.17400000000000002, 192.0, 0.0, 0.0, 0.0, 0.0, 0.0, 0.0, 0.0, 0.0, 0.0, 1.6878027763972106E9, 0.0, 2023-06-26 13:06:16.397
7.0, 46288.13818551757, 49006.13266302737, 56623.3166007181, -4356.444401317168, -7128.552452153261, -10324.360170884154, 18641.757207126288, 12611.54712576236, 0.052000000000000005, 0.98, 0.17400000000000002, 192.0, 0.0, 0.0, 0.0, 0.0, 0.0, 0.0, 0.0, 0.0, 0.0, 1.6878027764012213E9, 0.0, 2023-06-26 13:06:16.401
8.0, 46322.89514814558, 49039.727334943695, 54226.29317358651, -4272.871228798775, -7044.5098930013055, -10235.02024829629, 18731.70062681444, 12711.973513600055, 0.066, 0.974, 0.17, 192.0, 2.0, 16.0, 30.0, 112.0, 5.0, 80.0, 0.0, 0.0, 0.0, 1.687802776405246E9, 0.0, 2023-06-26 13:06:16.405
9.0, 46307.91947936052, 49041.068439611015, 55068.641015129215, -4329.71171494862, -7078.7304137623805, -10306.255257875355, 18691.445135050435, 12633.340076606284, 0.066, 0.974, 0.17, 192.0, 0.0, 0.0, 0.0, 0.0, 0.0, 0.0, 0.0, 0.0, 0.0, 1.6878027764092653E9, 0.0, 2023-06-26 13:06:16.409
10.0, 46277.02936852329, 49018.91786085581, 57127.43784516309, -4383.668826063732, -7130.407646943051, -10363.408668447575, 18637.77859661324, 12576.410183478616, 0.066, 0.974, 0.17, 192.0, 0.0, 0.0, 0.0, 0.0, 0.0, 0.0, 0.0, 0.0, 0.0, 1.6878027764132707E9, 0.0, 2023-06-26 13:06:16.413
11.0, 46285.63479013858, 49008.50194793963, 57109.7799670434, -4358.701927507153, -7143.282251749308, -10327.71293255245, 18631.050721532192, 12611.234201339985, 0.066, 0.974, 0.17, 192.0, 0.0, 0.0, 0.0, 0.0, 0.0, 0.0, 0.0, 0.0, 0.0, 1.6878027764182935E9, 0.0, 2023-06-26 13:06:16.418
12.0, 46330.71825870493, 49046.23169258019, 54389.32679764352, -4268.445583396624, -7058.099753630132, -10227.912393559503, 18716.412033607012, 12711.459423477581, 0.066, 0.974, 0.17, 192.0, 0.0, 0.0, 0.0, 0.0, 0.0, 0.0, 0.0, 0.0, 0.0, 1.6878027764213135E9, 0.0, 2023-06-26 13:06:16.421
13.0, 46313.95445036345, 49048.75743970364, 54830.6396401691, -4321.016886355506, -7078.193971895454, -10286.518667521319, 18697.88243745356, 12660.609204841758, 0.066, 0.974, 0.17, 192.0, 0.0, 0.0, 0.0, 0.0, 0.0, 0.0, 0.0, 0.0, 0.0, 1.6878027764253557E9, 0.0, 2023-06-26 13:06:16.425
14.0, 46281.76793834781, 49026.22688129269, 56773.92265485795, -4381.031320218006, -7123.880937562101, -10361.53112191333, 18642.96420132687, 12585.261474282917, 0.066, 0.974, 0.17, 192.0, 0.0, 0.0, 0.0, 0.0, 0.0, 0.0, 0.0, 0.0, 0.0, 1.6878027764303577E9, 0.0, 2023-06-26 13:06:16.430
15.0, 46269.094499241655, 49000.54472691354, 57509.160936970824, -4378.371462627824, -7151.79826638678, -10353.484493909418, 18625.55219239619, 12592.056404597331, 0.066, 0.974, 0.17, 192.0, 0.0, 0.0, 0.0, 0.0, 0.0, 0.0, 0.0, 0.0, 0.0, 1.6878027764333856E9, 0.0, 2023-06-26 13:06:16.433
16.0, 46329.44420927098, 49047.908073414335, 54686.60499889911, -4270.837220053341, -7062.30188158773, -10237.166015764, 18717.082585940672, 12708.978379843044, 0.066, 0.974, 0.17, 192.0, 0.0, 0.0, 0.0, 0.0, 0.0, 0.0, 0.0, 0.0, 0.0, 1.6878027764363873E9, 0.0, 2023-06-26 13:06:16.436
17.0, 46314.177967808006, 49049.07036412601, 54615.66056199796, -4301.3473512348355, -7065.386422322563, -10269.866617902115, 18719.65303655303, 12684.592626642303, 0.066, 0.974, 0.17, 192.0, 0.0, 0.0, 0.0, 0.0, 0.0, 0.0, 0.0, 0.0, 0.0, 1.6878027764414089E9, 0.0, 2023-06-26 13:06:16.441
18.0, 46300.14107229008, 49044.622366979405, 56354.760391087584, -4357.047898417461, -7101.193916939965, -10342.71095308196, 18663.393695759023, 12604.931009403588, 0.076, 0.966, 0.168, 192.0, 2.0, 96.0, 30.0, 48.0, 5.0, 64.0, 0.0, 0.0, 0.0, 1.687802776445448E9, 0.0, 2023-06-26 13:06:16.445
19.0, 46262.45603113843, 48997.88486932336, 57702.99526488725, -4384.29467490848, -7150.032478574811, -10357.708973611472, 18626.178041240935, 12589.35184351824, 0.076, 0.966, 0.168, 192.0, 0.0, 0.0, 0.0, 0.0, 0.0, 0.0, 0.0, 0.0, 0.0, 1.687802776449463E9, 0.0, 2023-06-26 13:06:16.449
20.0, 46319.72120043293, 49031.345430772955, 55071.27852097494, -4286.885772572252, -7073.813029982213, -10252.678126415984, 18697.591864775644, 12689.822934844844, 0.076, 0.966, 0.168, 192.0, 0.0, 0.0, 0.0, 0.0, 0.0, 0.0, 0.0, 0.0, 0.0, 1.6878027764545128E9, 0.0, 2023-06-26 13:06:16.454
21.0, 46312.0322003403, 49037.80508492054, 54411.231507209726, -4301.749682635032, -7056.088096629155, -10262.89287363206, 18718.490745841355, 12692.795716857401, 0.076, 0.966, 0.168, 192.0, 0.0, 0.0, 0.0, 0.0, 0.0, 0.0, 0.0, 0.0, 0.0, 1.6878027764584885E9, 0.0, 2023-06-26 13:06:16.458
22.0, 46289.21106925143, 49029.177311560794, 56000.8652211267, -4374.370500370324, -7107.228887942897, -10353.52919739833, 18652.575451442655, 12595.833849410279, 0.076, 0.966, 0.168, 192.0, 0.0, 0.0, 0.0, 0.0, 0.0, 0.0, 0.0, 0.0, 0.0, 1.6878027764615026E9, 0.0, 2023-06-26 13:06:16.461
23.0, 46255.83991477966, 48994.30859021051, 57746.69292529737, -4404.455948407167, -7145.182150028008, -10373.645767408105, 18628.681436619932, 12581.238160280964, 0.076, 0.966, 0.168, 192.0, 0.0, 0.0, 0.0, 0.0, 0.0, 0.0, 0.0, 0.0, 0.0, 1.6878027764645205E9, 0.0, 2023-06-26 13:06:16.464
24.0, 46309.30528751675, 49027.41152374882, 55567.71076532731, -4321.173348566693, -7092.320274391208, -10285.51283902083, 18681.65507097901, 12653.948384994077, 0.076, 0.966, 0.168, 192.0, 0.0, 0.0, 0.0, 0.0, 0.0, 0.0, 0.0, 0.0, 0.0, 1.687802776469541E9, 0.0, 2023-06-26 13:06:16.469
25.0, 46317.12839807611, 49046.18698909128, 54272.449525886725, -4289.143298762238, -7046.409791280007, -10252.655774671528, 18736.618010594608, 12707.726682153545, 0.076, 0.966, 0.168, 192.0, 0.0, 0.0, 0.0, 0.0, 0.0, 0.0, 0.0, 0.0, 0.0, 1.6878027764735796E9, 0.0, 2023-06-26 13:06:16.473
26.0, 46298.75526413385, 49037.983898876184, 55637.1799870944, -4358.299596106958, -7092.074405202199, -10339.581708858217, 18676.290652309734, 12616.553916520348, 0.076, 0.966, 0.168, 192.0, 0.0, 0.0, 0.0, 0.0, 0.0, 0.0, 0.0, 0.0, 0.0, 1.6878027764775708E9, 0.0, 2023-06-26 13:06:16.477
27.0, 46261.58431310467, 49003.78572985956, 57623.53481334863, -4399.20328846017, -7141.762333126347, -10378.518447699362, 18636.77276811275, 12578.198323035042, 0.076, 0.966, 0.168, 192.0, 0.0, 0.0, 0.0, 0.0, 0.0, 0.0, 0.0, 0.0, 0.0, 1.6878027764816103E9, 0.0, 2023-06-26 13:06:16.481
28.0, 46300.09636880116, 49019.119026555905, 56110.61228640226, -4326.805988169431, -7110.045207744266, -10299.2815136053, 18667.148788827515, 12637.721018519524, 0.076, 0.966, 0.168, 192.0, 0.0, 0.0, 0.0, 0.0, 0.0, 0.0, 0.0, 0.0, 0.0, 1.687802776485618E9, 0.0, 2023-06-26 13:06:16.485
29.0, 46315.47436898642, 49042.4765995117, 54213.865603669365, -4271.731289831554, -7046.521550002283, -10232.226280239378, 18738.38379840658, 12721.584763715837, 0.084, 0.974, 0.164, 192.0, 2.0, 160.0, 30.0, 112.0, 5.0, 32.0, 0.0, 0.0, 0.0, 1.6878027764896395E9, 0.0, 2023-06-26 13:06:16.489
30.0, 46295.849537354654, 49035.56991047501, 55362.879379138874, -4343.323927321902, -7090.1745069234985, -10323.175528428023, 18687.42182104848, 12633.78711149539, 0.084, 0.974, 0.164, 192.0, 0.0, 0.0, 0.0, 0.0, 0.0, 0.0, 0.0, 0.0, 0.0, 1.6878027764946673E9, 0.0, 2023-06-26 13:06:16.494
31.0, 46262.947769516446, 49008.3678374729, 57399.972665306654, -4388.29563716598, -7134.587423156193, -10371.790572618314, 18635.521070423256, 12578.175971290586, 0.084, 0.974, 0.164, 192.0, 0.0, 0.0, 0.0, 0.0, 0.0, 0.0, 0.0, 0.0, 0.0, 1.687802776497682E9, 0.0, 2023-06-26 13:06:16.497
32.0, 46282.505545914835, 49007.33965722795, 56648.19409229686, -4344.24034884457, -7131.435827187995, -10318.347551625677, 18647.054570562195, 12618.364407821227, 0.084, 0.974, 0.164, 192.0, 0.0, 0.0, 0.0, 0.0, 0.0, 0.0, 0.0, 0.0, 0.0, 1.6878027765027175E9, 0.0, 2023-06-26 13:06:16.502
33.0, 46320.25764229985, 49044.33179430149, 54246.700316274204, -4264.399917650213, -7052.735334960858, -10229.477015671375, 18734.941629760462, 12717.18147005814, 0.084, 0.974, 0.164, 192.0, 0.0, 0.0, 0.0, 0.0, 0.0, 0.0, 0.0, 0.0, 0.0, 1.6878027765057173E9, 0.0, 2023-06-26 13:06:16.505
34.0, 46305.17021479252, 49045.874064668904, 55070.65267213019, -4323.632040456777, -7083.089003931165, -10299.66149326104, 18696.876608953073, 12651.288527403894, 0.084, 0.974, 0.164, 192.0, 0.0, 0.0, 0.0, 0.0, 0.0, 0.0, 0.0, 0.0, 0.0, 1.6878027765097327E9, 0.0, 2023-06-26 13:06:16.509
35.0, 46267.52987712978, 49017.37559048839, 57060.069687374795, -4376.67273004922, -7132.486359177395, -10357.507807911374, 18643.79121587172, 12591.54231447486, 0.084, 0.974, 0.164, 192.0, 0.0, 0.0, 0.0, 0.0, 0.0, 0.0, 0.0, 0.0, 0.0, 1.6878027765157769E9, 0.0, 2023-06-26 13:06:16.515
36.0, 46271.597894620645, 49005.059779293515, 57133.94220279959, -4351.86229370383, -7139.862434847646, -10325.298944151276, 18641.958372826382, 12609.937800161577, 0.084, 0.974, 0.164, 192.0, 0.0, 0.0, 0.0, 0.0, 0.0, 0.0, 0.0, 0.0, 0.0, 1.687802776518783E9, 0.0, 2023-06-26 13:06:16.518
37.0, 46322.40340976756, 49046.455210024746, 54419.322838702545, -4255.615682079278, -7052.847093683135, -10220.290448700243, 18736.305086172233, 12724.870470150767, 0.084, 0.974, 0.164, 192.0, 0.0, 0.0, 0.0, 0.0, 0.0, 0.0, 0.0, 0.0, 0.0, 1.687802776521808E9, 0.0, 2023-06-26 13:06:16.521
38.0, 46299.559926934235, 49038.810913421024, 54854.71246894747, -4315.831281641875, -7081.345567863652, -10283.970568653414, 18708.99125444785, 12667.337079922805, 0.084, 0.974, 0.164, 192.0, 0.0, 0.0, 0.0, 0.0, 0.0, 0.0, 0.0, 0.0, 0.0, 1.6878027765248082E9, 0.0, 2023-06-26 13:06:16.524
39.0, 46277.118775501105, 49024.572852203, 56675.373813554506, -4365.653320032754, -7121.377542183107, -10349.505883396374, 18660.733838168842, 12600.751233190445, 0.084, 0.978, 0.162, 192.0, 2.0, 160.0, 30.0, 144.0, 5.0, 16.0, 0.0, 0.0, 0.0, 1.6878027765288286E9, 0.0, 2023-06-26 13:06:16.528
40.0, 46257.560999102716, 48993.4145204323, 57460.92587243627, -4375.1304596818045, -7149.071353563232, -10344.879072294125, 18646.2499077618, 12600.326550045795, 0.084, 0.978, 0.162, 192.0, 0.0, 0.0, 0.0, 0.0, 0.0, 0.0, 0.0, 0.0, 0.0, 1.6878027765338452E9, 0.0, 2023-06-26 13:06:16.533
41.0, 46307.472444471416, 49027.18800630427, 54713.427092245474, -4279.889676557741, -7073.008367181822, -10240.921108832492, 18721.88821099856, 12703.301036751394, 0.084, 0.978, 0.162, 192.0, 0.0, 0.0, 0.0, 0.0, 0.0, 0.0, 0.0, 0.0, 0.0, 1.6878027765378768E9, 0.0, 2023-06-26 13:06:16.537
42.0, 46292.94381057547, 49029.64669819435, 54629.92097496045, -4312.255002529026, -7074.662396271515, -10270.470115002408, 18723.22931566588, 12681.016347529454, 0.084, 0.978, 0.162, 192.0, 0.0, 0.0, 0.0, 0.0, 0.0, 0.0, 0.0, 0.0, 0.0, 1.6878027765418916E9, 0.0, 2023-06-26 13:06:16.541
43.0, 46274.749490588845, 49019.85663412293, 56297.87520144883, -4373.319968380924, -7116.147233980565, -10344.968479271947, 18665.02537310426, 12603.612256480725, 0.084, 0.978, 0.162, 192.0, 0.0, 0.0, 0.0, 0.0, 0.0, 0.0, 0.0, 0.0, 0.0, 1.6878027765449102E9, 0.0, 2023-06-26 13:06:16.544
44.0, 46258.186847947465, 48996.45435767822, 57643.78549382514, -4384.317026652936, -7142.544644182282, -10351.76340958636, 18650.899070608506, 12597.666692455614, 0.084, 0.978, 0.162, 192.0, 0.0, 0.0, 0.0, 0.0, 0.0, 0.0, 0.0, 0.0, 0.0, 1.687802776548938E9, 0.0, 2023-06-26 13:06:16.548
45.0, 46315.11674107513, 49031.61365170642, 55082.29793099141, -4287.153993505716, -7070.214399124909, -10255.583853195174, 18720.882382498072, 12689.599417400292, 0.084, 0.978, 0.162, 192.0, 0.0, 0.0, 0.0, 0.0, 0.0, 0.0, 0.0, 0.0, 0.0, 1.687802776552945E9, 0.0, 2023-06-26 13:06:16.552
46.0, 46309.5288049613, 49037.782733176085, 54391.00317847767, -4285.0305777824615, -7048.712020958904, -10253.54984444974, 18748.106807244636, 12698.98715007152, 0.084, 0.978, 0.162, 192.0, 0.0, 0.0, 0.0, 0.0, 0.0, 0.0, 0.0, 0.0, 0.0, 1.6878027765569837E9, 0.0, 2023-06-26 13:06:16.556
47.0, 46294.21786000942, 49032.731238929184, 55915.526260796345, -4349.805933213942, -7097.21530642692, -10338.084141979713, 18684.963129158394, 12607.568515249315, 0.084, 0.978, 0.162, 192.0, 0.0, 0.0, 0.0, 0.0, 0.0, 0.0, 0.0, 0.0, 0.0, 1.68780277656099E9, 0.0, 2023-06-26 13:06:16.560
48.0, 46262.38897590506, 49001.37174145839, 57657.867092831984, -4379.958436484151, -7138.74484762488, -10363.967462058958, 18648.68624790743, 12588.189552806563, 0.084, 0.978, 0.162, 192.0, 0.0, 0.0, 0.0, 0.0, 0.0, 0.0, 0.0, 0.0, 0.0, 1.6878027765660093E9, 0.0, 2023-06-26 13:06:16.566
49.0, 46316.346087020174, 49033.290032540564, 55571.95759677382, -4286.192868494138, -7080.4291463409845, -10270.045431857758, 18697.815382220197, 12673.8414375593, 0.088, 0.982, 0.164, 192.0, 2.0, 192.0, 30.0, 176.0, 5.0, 32.0, 0.0, 0.0, 0.0, 1.6878027765700333E9, 0.0, 2023-06-26 13:06:16.570
50.0, 46325.17502608002, 49052.534884516586, 54237.53610104753, -4253.358155889292, -7032.0599713397, -10229.87934707157, 18755.259365470334, 12728.670266708168, 0.088, 0.982, 0.164, 192.0, 0.0, 0.0, 0.0, 0.0, 0.0, 0.0, 0.0, 0.0, 0.0, 1.6878027765740526E9, 0.0, 2023-06-26 13:06:16.574
51.0, 46302.37624673561, 49038.94502388776, 55569.58831186155, -4327.4094852697235, -7077.54577130625, -10326.014199973846, 18703.738594500854, 12629.048541670865, 0.088, 0.982, 0.164, 192.0, 0.0, 0.0, 0.0, 0.0, 0.0, 0.0, 0.0, 0.0, 0.0, 1.687802776577068E9, 0.0, 2023-06-26 13:06:16.577
52.0, 46255.50463861282, 48993.54863089903, 57539.782826874594, -4377.72326203862, -7129.759446353847, -10373.377546474641, 18659.21391954588, 12584.367404504706, 0.088, 0.982, 0.164, 192.0, 0.0, 0.0, 0.0, 0.0, 0.0, 0.0, 0.0, 0.0, 0.0, 1.6878027765810826E9, 0.0, 2023-06-26 13:06:16.581
53.0, 46294.039046053775, 49008.50194793963, 56150.621908977264, -4309.908069361219, -7106.714797820426, -10296.822821715215, 18678.88345466655, 12645.946460479077, 0.088, 0.982, 0.164, 192.0, 0.0, 0.0, 0.0, 0.0, 0.0, 0.0, 0.0, 0.0, 0.0, 1.687802776585103E9, 0.0, 2023-06-26 13:06:16.585
54.0, 46319.45297949946, 49037.24629130916, 54213.709141458174, -4254.3863361342355, -7042.677049955971, -10229.968754049392, 18751.5266241463, 12731.79951093191, 0.088, 0.982, 0.164, 192.0, 0.0, 0.0, 0.0, 0.0, 0.0, 0.0, 0.0, 0.0, 0.0, 1.6878027765912175E9, 0.0, 2023-06-26 13:06:16.591
55.0, 46303.85146186966, 49036.48633199768, 55299.825108030454, -4320.1898718106595, -7081.502030074839, -10312.84902248967, 18701.436364821955, 12643.331306377806, 0.088, 0.982, 0.164, 192.0, 0.0, 0.0, 0.0, 0.0, 0.0, 0.0, 0.0, 0.0, 0.0, 1.6878027765941968E9, 0.0, 2023-06-26 13:06:16.594
56.0, 46270.01092076432, 49010.647715407344, 57291.00791108703, -4367.508514822544, -7123.433902672995, -10363.252206236388, 18658.275146278756, 12592.391680764162, 0.088, 0.982, 0.164, 192.0, 0.0, 0.0, 0.0, 0.0, 0.0, 0.0, 0.0, 0.0, 0.0, 1.6878027765992036E9, 0.0, 2023-06-26 13:06:16.599
57.0, 46281.879697070086, 49001.37174145839, 56678.52540952271, -4338.272433075003, -7125.0432282737775, -10324.091949950689, 18659.929175368452, 12625.159338135642, 0.088, 0.982, 0.164, 192.0, 0.0, 0.0, 0.0, 0.0, 0.0, 0.0, 0.0, 0.0, 0.0, 1.6878027766032035E9, 0.0, 2023-06-26 13:06:16.603
58.0, 46316.435493998, 49034.72054418571, 54244.621604039865, -4261.561246104389, -7045.828645924169, -10235.333172718665, 18738.875536784595, 12726.368037029271, 0.088, 0.982, 0.164, 192.0, 0.0, 0.0, 0.0, 0.0, 0.0, 0.0, 0.0, 0.0, 0.0, 1.6878027766062565E9, 0.0, 2023-06-26 13:06:16.606
59.0, 46299.04583681176, 49030.96545111721, 55027.89378498719, -4318.513490976512, -7084.474812087395, -10299.37092058312, 18697.435402564457, 12657.45760887356, 0.09, 0.972, 0.164, 192.0, 2.0, 208.0, 30.0, 96.0, 5.0, 32.0, 0.0, 0.0, 0.0, 1.6878027766092532E9, 0.0, 2023-06-26 13:06:16.609
60.0, 46273.58719987717, 49009.17250027329, 56958.5927675477, -4376.158639926749, -7127.278402719307, -10363.520427169851, 18653.938907854426, 12596.124422088198, 0.09, 0.972, 0.164, 192.0, 0.0, 0.0, 0.0, 0.0, 0.0, 0.0, 0.0, 0.0, 0.0, 1.687802776615267E9, 0.0, 2023-06-26 13:06:16.615
61.0, 46272.55901963222, 48991.9616570427, 57148.67200239564, -4362.524075809011, -7141.091780792687, -10346.041363005801, 18641.086654792627, 12606.138003604176, 0.09, 0.972, 0.164, 192.0, 0.0, 0.0, 0.0, 0.0, 0.0, 0.0, 0.0, 0.0, 0.0, 1.6878027766182675E9, 0.0, 2023-06-26 13:06:16.618
62.0, 46319.78825566629, 49031.546596473054, 54419.65811486937, -4265.517504872979, -7056.557483262716, -10236.674277385984, 18724.905696500027, 12710.855926377288, 0.09, 0.972, 0.164, 192.0, 0.0, 0.0, 0.0, 0.0, 0.0, 0.0, 0.0, 0.0, 0.0, 1.6878027766212823E9, 0.0, 2023-06-26 13:06:16.621
63.0, 46305.17021479252, 49032.32890752899, 54779.32003489972, -4312.746740907042, -7071.421393325495, -10287.03275764379, 18710.108841670615, 12665.41482989965, 0.09, 0.972, 0.164, 192.0, 0.0, 0.0, 0.0, 0.0, 0.0, 0.0, 0.0, 0.0, 0.0, 1.6878027766273248E9, 0.0, 2023-06-26 13:06:16.627
64.0, 46276.89525805655, 49012.07822705248, 56591.197143935824, -4373.2529131475585, -7117.465986903428, -10360.458238179473, 18652.418989231468, 12596.236180810474, 0.09, 0.972, 0.164, 192.0, 0.0, 0.0, 0.0, 0.0, 0.0, 0.0, 0.0, 0.0, 0.0, 1.687802776630333E9, 0.0, 2023-06-26 13:06:16.630
65.0, 46263.59597010565, 48987.312494196, 57470.98415744116, -4380.271360906525, -7142.566995926738, -10358.111305011667, 18635.856346590084, 12590.78235516338, 0.09, 0.972, 0.164, 192.0, 0.0, 0.0, 0.0, 0.0, 0.0, 0.0, 0.0, 0.0, 0.0, 1.6878027766343384E9, 0.0, 2023-06-26 13:06:16.634
66.0, 46318.06717134323, 49026.40569524833, 54714.768196912795, -4279.867324813285, -7063.285358343764, -10250.93469034847, 18714.422728350488, 12692.32633022384, 0.09, 0.972, 0.164, 192.0, 0.0, 0.0, 0.0, 0.0, 0.0, 0.0, 0.0, 0.0, 0.0, 1.6878027766373525E9, 0.0, 2023-06-26 13:06:16.637
67.0, 46308.8806043721, 49033.446494751755, 54540.4245901614, -4296.832298854863, -7057.406849552018, -10261.104734075634, 18728.996065735348, 12694.762670369468, 0.09, 0.972, 0.164, 192.0, 0.0, 0.0, 0.0, 0.0, 0.0, 0.0, 0.0, 0.0, 0.0, 1.6878027766413977E9, 0.0, 2023-06-26 13:06:16.641
68.0, 46290.30630472974, 49024.148169058346, 56180.86381922529, -4360.9818054415955, -7100.12103320611, -10345.795493816793, 18672.93789064144, 12605.623913481702, 0.09, 0.972, 0.164, 192.0, 0.0, 0.0, 0.0, 0.0, 0.0, 0.0, 0.0, 0.0, 0.0, 1.6878027766454103E9, 0.0, 2023-06-26 13:06:16.645
69.0, 46259.14797295904, 48987.62541861837, 57601.56304854907, -4386.507497609556, -7140.085952292198, -10363.587482403218, 18643.500643193798, 12581.484029469972, 0.088, 0.962, 0.16, 192.0, 2.0, 192.0, 30.0, 16.0, 5.0, 0.0, 0.0, 0.0, 0.0, 1.6878027766494172E9, 0.0, 2023-06-26 13:06:16.649
70.0, 46314.15561606355, 49021.756532401625, 55098.16766955468, -4289.433871440157, -7071.555503792228, -10255.36033575062, 18711.47229808239, 12691.544019167903, 0.088, 0.962, 0.16, 192.0, 0.0, 0.0, 0.0, 0.0, 0.0, 0.0, 0.0, 0.0, 0.0, 1.6878027766544528E9, 0.0, 2023-06-26 13:06:16.654
71.0, 46302.845633369165, 49025.80219814804, 54329.44647424776, -4291.356121463314, -7056.043393140244, -10253.594547938652, 18733.75698730433, 12706.877315864243, 0.088, 0.962, 0.16, 192.0, 0.0, 0.0, 0.0, 0.0, 0.0, 0.0, 0.0, 0.0, 0.0, 1.6878027766574545E9, 0.0, 2023-06-26 13:06:16.657
72.0, 46281.924400559, 49019.70017191174, 55838.09981800316, -4359.640700774276, -7104.3231611637075, -10349.125903740634, 18671.79795167422, 12598.11372734472, 0.088, 0.962, 0.16, 192.0, 0.0, 0.0, 0.0, 0.0, 0.0, 0.0, 0.0, 0.0, 0.0, 1.6878027766604638E9, 0.0, 2023-06-26 13:06:16.660
73.0, 46256.6669293245, 48994.2638867216, 57640.11980773447, -4384.473488864122, -7143.304603493763, -10370.851799351192, 18640.371398970055, 12575.113782300208, 0.088, 0.962, 0.16, 192.0, 0.0, 0.0, 0.0, 0.0, 0.0, 0.0, 0.0, 0.0, 0.0, 1.687802776665496E9, 0.0, 2023-06-26 13:06:16.665
74.0, 46313.59682245217, 49026.18217780378, 55646.031277898706, -4284.583542893355, -7083.692501031459, -10260.970623608902, 18699.17883863197, 12681.686899863113, 0.088, 0.962, 0.16, 192.0, 0.0, 0.0, 0.0, 0.0, 0.0, 0.0, 0.0, 0.0, 0.0, 1.6878027766695259E9, 0.0, 2023-06-26 13:06:16.669
75.0, 46318.91653763253, 49041.29195705557, 54206.46717625466, -4254.296929156414, -7041.067724355188, -10221.720960345383, 18750.2749264568, 12729.631391719746, 0.088, 0.962, 0.16, 192.0, 0.0, 0.0, 0.0, 0.0, 0.0, 0.0, 0.0, 0.0, 0.0, 1.6878027766735463E9, 0.0, 2023-06-26 13:06:16.673
76.0, 46301.43747346848, 49037.983898876184, 55518.35811356999, -4329.778770181986, -7091.247390657353, -10316.291191135788, 18682.59384424613, 12633.07185567282, 0.088, 0.962, 0.16, 192.0, 0.0, 0.0, 0.0, 0.0, 0.0, 0.0, 0.0, 0.0, 0.0, 1.687802776679578E9, 0.0, 2023-06-26 13:06:16.679
77.0, 46260.980816004376, 49000.991761802645, 57504.37766365739, -4374.884590492796, -7138.297812735774, -10363.81099984777, 18645.02056181676, 12590.804706907835, 0.088, 0.962, 0.16, 192.0, 0.0, 0.0, 0.0, 0.0, 0.0, 0.0, 0.0, 0.0, 0.0, 1.6878027766825874E9, 0.0, 2023-06-26 13:06:16.682
78.0, 46289.859269840636, 49003.450453692734, 56227.57896513688, -4315.496005475045, -7117.26482120333, -10301.650798517561, 18667.685230694442, 12634.681181273601, 0.088, 0.962, 0.16, 192.0, 0.0, 0.0, 0.0, 0.0, 0.0, 0.0, 0.0, 0.0, 0.0, 1.6878027766855845E9, 0.0, 2023-06-26 13:06:16.685
79.0, 46318.02246785432, 49038.85561690994, 54168.96094905865, -4254.051059967406, -7042.431180766962, -10228.582945893162, 18743.994086264862, 12715.080406079342, 0.088, 0.962, 0.16, 192.0, 0.0, 0.0, 0.0, 0.0, 0.0, 0.0, 0.0, 0.0, 0.0, 1.6878027766886175E9, 0.0, 2023-06-26 13:06:16.688
80.0, 46296.25186875485, 49034.94406163026, 55224.58913619389, -4327.789464925464, -7089.056919700733, -10317.922868481026, 18688.85233269362, 12631.440178327583, 0.078, 0.962, 0.166, 192.0, 2.0, 112.0, 30.0, 16.0, 5.0, 48.0, 0.0, 0.0, 0.0, 1.6878027766926377E9, 0.0, 2023-06-26 13:06:16.692
81.0, 46264.624150350595, 49010.24538400715, 57255.84861705883, -4365.452154332656, -7127.524271908316, -10358.960671300969, 18645.02056181676, 12587.787221406368, 0.078, 0.962, 0.166, 192.0, 0.0, 0.0, 0.0, 0.0, 0.0, 0.0, 0.0, 0.0, 0.0, 1.687802776697661E9, 0.0, 2023-06-26 13:06:16.697
82.0, 46279.644522624556, 49006.534994427566, 56768.58058793314, -4338.160674352726, -7129.781798098302, -10325.969496484935, 18645.534651939233, 12610.20602109504, 0.078, 0.962, 0.166, 192.0, 0.0, 0.0, 0.0, 0.0, 0.0, 0.0, 0.0, 0.0, 0.0, 1.6878027767016642E9, 0.0, 2023-06-26 13:06:16.701
83.0, 46310.825206139714, 49033.33473602948, 54270.70608981921, -4266.545685117922, -7054.970509406389, -10241.1669780215, 18724.011626721815, 12708.7995658874, 0.078, 0.962, 0.166, 192.0, 0.0, 0.0, 0.0, 0.0, 0.0, 0.0, 0.0, 0.0, 0.0, 1.6878027767057056E9, 0.0, 2023-06-26 13:06:16.705
84.0, 46301.593935679666, 49038.74385818766, 54971.321519770805, -4313.2608310295145, -7073.365995093107, -10292.128955379601, 18708.588923047653, 12653.434294871604, 0.078, 0.962, 0.166, 192.0, 0.0, 0.0, 0.0, 0.0, 0.0, 0.0, 0.0, 0.0, 0.0, 1.6878027767087145E9, 0.0, 2023-06-26 13:06:16.708
85.0, 46264.892371284055, 49008.971334573194, 56945.002906918875, -4383.087680707894, -7125.803187585258, -10369.778915617337, 18647.188681028925, 12578.645357924148, 0.078, 0.962, 0.166, 192.0, 0.0, 0.0, 0.0, 0.0, 0.0, 0.0, 0.0, 0.0, 0.0, 1.6878027767127283E9, 0.0, 2023-06-26 13:06:16.712
86.0, 46262.27721718278, 48990.08411050846, 57234.18977668164, -4373.38702361429, -7145.115094794643, -10345.549624627785, 18634.515241922767, 12592.034052852876, 0.078, 0.962, 0.166, 192.0, 0.0, 0.0, 0.0, 0.0, 0.0, 0.0, 0.0, 0.0, 0.0, 1.6878027767167652E9, 0.0, 2023-06-26 13:06:16.716
87.0, 46319.98942136639, 49037.648622709356, 54436.42192321085, -4267.149182218216, -7055.283433828764, -10240.138797776557, 18729.621914580097, 12712.152327555696, 0.078, 0.962, 0.166, 192.0, 0.0, 0.0, 0.0, 0.0, 0.0, 0.0, 0.0, 0.0, 0.0, 1.687802776722788E9, 0.0, 2023-06-26 13:06:16.722
88.0, 46299.716389145426, 49032.574776718, 54693.1093565356, -4317.239441542559, -7072.337814848163, -10296.08521414819, 18714.981521961872, 12660.586853097302, 0.078, 0.962, 0.166, 192.0, 0.0, 0.0, 0.0, 0.0, 0.0, 0.0, 0.0, 0.0, 0.0, 1.6878027767257907E9, 0.0, 2023-06-26 13:06:16.725
89.0, 46277.38699643457, 49018.85080562244, 56527.40526526037, -4371.062442190939, -7114.5379083797825, -10364.638014392616, 18659.21391954588, 12578.310081757318, 0.078, 0.962, 0.166, 192.0, 0.0, 0.0, 0.0, 0.0, 0.0, 0.0, 0.0, 0.0, 0.0, 1.68780277672982E9, 0.0, 2023-06-26 13:06:16.729
90.0, 46266.568752118204, 48996.05202627803, 57531.132701770395, -4376.225695160115, -7143.12578953812, -10363.788648103315, 18643.433587960433, 12591.58701796377, 0.08, 0.968, 0.168, 192.0, 2.0, 128.0, 30.0, 64.0, 5.0, 64.0, 0.0, 0.0, 0.0, 1.6878027767348344E9, 0.0, 2023-06-26 13:06:16.734
91.0, 46320.41410451104, 49034.005288363136, 54772.41334586303, -4279.822621324375, -7070.1026404026325, -10264.189274810467, 18714.04274869475, 12692.169868012652, 0.08, 0.968, 0.168, 192.0, 0.0, 0.0, 0.0, 0.0, 0.0, 0.0, 0.0, 0.0, 0.0, 1.6878027767378595E9, 0.0, 2023-06-26 13:06:16.737
92.0, 46298.48704320038, 49029.177311560794, 54453.83393214154, -4300.5650401789, -7068.985053179867, -10275.946292393959, 18722.916391243507, 12677.238902716506, 0.08, 0.968, 0.168, 192.0, 0.0, 0.0, 0.0, 0.0, 0.0, 0.0, 0.0, 0.0, 0.0, 1.687802776741884E9, 0.0, 2023-06-26 13:06:16.741
93.0, 46279.421005180004, 49021.10833181242, 56139.49074023852, -4361.026508930506, -7115.722550835914, -10354.155046243079, 18661.337335269134, 12591.385852263673, 0.08, 0.968, 0.168, 192.0, 0.0, 0.0, 0.0, 0.0, 0.0, 0.0, 0.0, 0.0, 0.0, 1.6878027767458951E9, 0.0, 2023-06-26 13:06:16.745
94.0, 46253.31416765621, 48992.00636053162, 57695.976817128285, -4378.192648672181, -7155.821580388735, -10370.918854584557, 18631.721273865853, 12575.694927656046, 0.08, 0.968, 0.168, 192.0, 0.0, 0.0, 0.0, 0.0, 0.0, 0.0, 0.0, 0.0, 0.0, 1.6878027767509203E9, 0.0, 2023-06-26 13:06:16.750
95.0, 46299.76109263433, 49014.22399452019, 55236.92729913322, -4283.555362648412, -7095.337759892674, -10276.236865071878, 18692.450963550924, 12663.537283365404, 0.08, 0.968, 0.168, 192.0, 0.0, 0.0, 0.0, 0.0, 0.0, 0.0, 0.0, 0.0, 0.0, 1.687802776753939E9, 0.0, 2023-06-26 13:06:16.753
96.0, 46297.056531555245, 49024.483445225174, 54295.56122965351, -4280.716691102587, -7070.035585169267, -10272.83939991467, 18727.69966455694, 12681.977472541032, 0.08, 0.968, 0.168, 192.0, 0.0, 0.0, 0.0, 0.0, 0.0, 0.0, 0.0, 0.0, 0.0, 1.6878027767569468E9, 0.0, 2023-06-26 13:06:16.756
97.0, 46284.181926748985, 49022.114160312914, 55779.761764974806, -4342.832188943886, -7116.728379336403, -10352.456313664474, 18662.767846914274, 12594.515096487416, 0.08, 0.968, 0.168, 192.0, 0.0, 0.0, 0.0, 0.0, 0.0, 0.0, 0.0, 0.0, 0.0, 1.6878027767629745E9, 0.0, 2023-06-26 13:06:16.762
98.0, 46233.17524590198, 48968.11234570889, 57660.07991553306, -4393.302427923969, -7166.215141560453, -10388.95671235999, 18629.26258197577, 12564.273186239385, 0.08, 0.968, 0.168, 192.0, 0.0, 0.0, 0.0, 0.0, 0.0, 0.0, 0.0, 0.0, 0.0, 1.6878027767659893E9, 0.0, 2023-06-26 13:06:16.765
99.0, 46282.81847033721, 49000.34356121344, 55751.26329079429, -4306.085921059361, -7115.096701991165, -10294.2300193584, 18676.380059287556, 12654.730696050012, 0.08, 0.968, 0.168, 192.0, 0.0, 0.0, 0.0, 0.0, 0.0, 0.0, 0.0, 0.0, 0.0, 1.687802776770012E9, 0.0, 2023-06-26 13:06:16.770
100.0, 46302.711522902435, 49027.5232824711, 54153.180617473205, -4263.0141094939845, -7063.844151955146, -10241.770475121793, 18731.007722736325, 12722.367074771772, 0.092, 0.978, 0.17200000000000001, 192.0, 2.0, 224.0, 30.0, 144.0, 5.0, 96.0, 0.0, 0.0, 0.0, 1.6878027767730248E9, 0.0, 2023-06-26 13:06:16.773
101.0, 46282.03615928128, 49013.77695963108, 55429.59933633797, -4341.468732532112, -7109.240544943875, -10338.933508269014, 18678.212902332893, 12628.757968992946, 0.092, 0.978, 0.17200000000000001, 192.0, 0.0, 0.0, 0.0, 0.0, 0.0, 0.0, 0.0, 0.0, 0.0, 1.6878027767770426E9, 0.0, 2023-06-26 13:06:16.777
102.0, 46238.02557444877, 48977.12009872438, 57485.08810819246, -4398.622143104332, -7157.3862025006065, -10398.746776431415, 18641.712503637376, 12581.10404981423, 0.092, 0.978, 0.17200000000000001, 192.0, 0.0, 0.0, 0.0, 0.0, 0.0, 0.0, 0.0, 0.0, 0.0, 1.6878027767810876E9, 0.0, 2023-06-26 13:06:16.781
103.0, 46276.559981889724, 48995.18030824427, 56302.122032895335, -4317.239441542559, -7127.993658541877, -10305.070615419223, 18667.305251038702, 12641.163187165641, 0.092, 0.978, 0.17200000000000001, 192.0, 0.0, 0.0, 0.0, 0.0, 0.0, 0.0, 0.0, 0.0, 0.0, 1.6878027767850814E9, 0.0, 2023-06-26 13:06:16.785
104.0, 46305.12551130361, 49027.9703173602, 54133.66754456372, -4256.2638826684815, -7060.938425175957, -10224.716094102394, 18741.110711230125, 12722.501185238503, 0.092, 0.978, 0.17200000000000001, 192.0, 0.0, 0.0, 0.0, 0.0, 0.0, 0.0, 0.0, 0.0, 0.0, 1.6878027767901244E9, 0.0, 2023-06-26 13:06:16.790
105.0, 46285.858307583134, 49023.790541147064, 55155.63400454927, -4344.888549433774, -7103.742015807869, -10323.063769705746, 18686.97478615937, 12627.349809092262, 0.092, 0.978, 0.17200000000000001, 192.0, 0.0, 0.0, 0.0, 0.0, 0.0, 0.0, 0.0, 0.0, 0.0, 1.6878027767931213E9, 0.0, 2023-06-26 13:06:16.793
106.0, 46248.6650048095, 48989.99470353064, 57217.24715438452, -4392.363654656846, -7153.094667565188, -10381.714747156471, 18638.963239069373, 12567.290671740851, 0.092, 0.978, 0.17200000000000001, 192.0, 0.0, 0.0, 0.0, 0.0, 0.0, 0.0, 0.0, 0.0, 0.0, 1.6878027767962055E9, 0.0, 2023-06-26 13:06:16.796
107.0, 46261.472554382395, 48984.429119161265, 56847.05756271572, -4360.735936252587, -7145.115094794643, -10346.421342661542, 18645.22172751686, 12594.783317420879, 0.092, 0.978, 0.17200000000000001, 192.0, 0.0, 0.0, 0.0, 0.0, 0.0, 0.0, 0.0, 0.0, 0.0, 1.6878027768011992E9, 0.0, 2023-06-26 13:06:16.801
108.0, 46313.97680210791, 49037.33569828698, 54249.56133956449, -4260.13073445925, -7056.356317562619, -10240.943460576947, 18737.71324607292, 12715.750958413, 0.092, 0.978, 0.17200000000000001, 192.0, 0.0, 0.0, 0.0, 0.0, 0.0, 0.0, 0.0, 0.0, 0.0, 1.6878027768052032E9, 0.0, 2023-06-26 13:06:16.805
109.0, 46284.69601687146, 49018.828453877984, 54896.35376886771, -4327.297726547447, -7092.968474980411, -10303.818917729726, 18701.50342005532, 12647.689896546592, 0.092, 0.978, 0.17200000000000001, 192.0, 0.0, 0.0, 0.0, 0.0, 0.0, 0.0, 0.0, 0.0, 0.0, 1.6878027768092136E9, 0.0, 2023-06-26 13:06:16.809
110.0, 46245.5134088413, 48987.60306687392, 56873.03028977279, -4419.409265447768, -7155.84393213319, -10390.521334471863, 18632.481233177332, 12563.133247272164, 0.076, 0.972, 0.162, 192.0, 2.0, 96.0, 30.0, 96.0, 5.0, 16.0, 0.0, 0.0, 0.0, 1.6878027768132238E9, 0.0, 2023-06-26 13:06:16.813
111.0, 46245.044022207745, 48973.230895189154, 57271.070155032896, -4383.490012108089, -7165.835161904713, -10367.990776060913, 18625.954523796383, 12574.95732008902, 0.076, 0.972, 0.162, 192.0, 0.0, 0.0, 0.0, 0.0, 0.0, 0.0, 0.0, 0.0, 0.0, 1.6878027768172598E9, 0.0, 2023-06-26 13:06:16.817
112.0, 46304.23144152539, 49017.17442478829, 54466.19444682532, -4274.122926488272, -7063.307710088219, -10242.776303622282, 18729.152527946535, 12700.641179161214, 0.076, 0.972, 0.162, 192.0, 0.0, 0.0, 0.0, 0.0, 0.0, 0.0, 0.0, 0.0, 0.0, 1.6878027768212776E9, 0.0, 2023-06-26 13:06:16.821
113.0, 46299.49287170087, 49025.80219814804, 54645.23191991233, -4323.319116034403, -7073.20953288192, -10293.559467024741, 18725.933876744974, 12662.55380660937, 0.076, 0.972, 0.162, 192.0, 0.0, 0.0, 0.0, 0.0, 0.0, 0.0, 0.0, 0.0, 0.0, 1.6878027768242743E9, 0.0, 2023-06-26 13:06:16.824
114.0, 46268.938037030464, 49008.636058406366, 56450.51526433412, -4387.2227534321255, -7128.686562619992, -10370.114191784167, 18659.616250946077, 12574.8679131112, 0.076, 0.972, 0.162, 192.0, 0.0, 0.0, 0.0, 0.0, 0.0, 0.0, 0.0, 0.0, 0.0, 1.6878027768282926E9, 0.0, 2023-06-26 13:06:16.828
115.0, 46235.20925464741, 48967.77706954206, 57541.30274549756, -4401.907849539262, -7164.203484559475, -10373.086973796722, 18633.330599466633, 12562.060363538309, 0.076, 0.972, 0.162, 192.0, 0.0, 0.0, 0.0, 0.0, 0.0, 0.0, 0.0, 0.0, 0.0, 1.687802776833315E9, 0.0, 2023-06-26 13:06:16.833
116.0, 46296.430682710496, 49006.17736651628, 54821.095445286686, -4301.414406468201, -7086.777041766291, -10264.390440510564, 18709.930027714974, 12663.581986854315, 0.076, 0.972, 0.162, 192.0, 0.0, 0.0, 0.0, 0.0, 0.0, 0.0, 0.0, 0.0, 0.0, 1.687802776837349E9, 0.0, 2023-06-26 13:06:16.837
117.0, 46300.83397636819, 49028.52911097158, 54442.322783747055, -4301.727330890576, -7067.331024090175, -10267.452629500942, 18734.293429171255, 12669.684013090613, 0.076, 0.972, 0.162, 192.0, 0.0, 0.0, 0.0, 0.0, 0.0, 0.0, 0.0, 0.0, 0.0, 1.6878027768413515E9, 0.0, 2023-06-26 13:06:16.841
118.0, 46279.376301691096, 49016.570927688, 56075.16241969615, -4369.9672067126285, -7116.728379336403, -10359.452409678986, 18673.630794719553, 12580.858180625222, 0.076, 0.972, 0.162, 192.0, 0.0, 0.0, 0.0, 0.0, 0.0, 0.0, 0.0, 0.0, 0.0, 1.6878027768453803E9, 0.0, 2023-06-26 13:06:16.845
119.0, 46248.93322574296, 48979.24351444763, 57691.05943334811, -4397.638666348299, -7162.03536534731, -10372.371717974152, 18644.662933905474, 12563.937910072555, 0.076, 0.972, 0.162, 192.0, 0.0, 0.0, 0.0, 0.0, 0.0, 0.0, 0.0, 0.0, 0.0, 1.6878027768484013E9, 0.0, 2023-06-26 13:06:16.848
120.0, 46311.60751719565, 49019.18608178927, 55310.68805583574, -4287.08693827235, -7085.0112539543225, -10256.567329951207, 18716.970827218393, 12666.688879333602, 0.076, 0.972, 0.162, 192.0, 0.0, 0.0, 0.0, 0.0, 0.0, 0.0, 0.0, 0.0, 0.0, 1.6878027768524296E9, 0.0, 2023-06-26 13:06:16.852
121.0, 46307.539499704784, 49027.23270979318, 54278.730366078664, -4278.056833512406, -7058.993823408345, -10244.139760034057, 18756.3769526931, 12696.707272137079, 0.07, 0.966, 0.156, 192.0, 2.0, 48.0, 30.0, 48.0, 4.0, 224.0, 0.0, 0.0, 0.0, 1.6878027768564353E9, 0.0, 2023-06-26 13:06:16.856
122.0, 46277.118775501105, 49008.79252061755, 55745.04950583572, -4359.908921707741, -7117.398931670062, -10344.923775783036, 18687.42182104848, 12595.900904643644, 0.07, 0.966, 0.156, 192.0, 0.0, 0.0, 0.0, 0.0, 0.0, 0.0, 0.0, 0.0, 0.0, 1.6878027768604462E9, 0.0, 2023-06-26 13:06:16.860
123.0, 46232.8623214796, 48962.94909273971, 57666.360755725, -4404.67946585172, -7162.124772325132, -10380.932436100537, 18650.02735257475, 12565.882511840167, 0.07, 0.966, 0.156, 192.0, 0.0, 0.0, 0.0, 0.0, 0.0, 0.0, 0.0, 0.0, 0.0, 1.6878027768654735E9, 0.0, 2023-06-26 13:06:16.865
124.0, 46280.09155751367, 48986.21725871769, 55843.46423667244, -4324.257889301525, -7129.60298414266, -10303.841269474182, 18690.327547827666, 12635.485844073994, 0.07, 0.966, 0.156, 192.0, 0.0, 0.0, 0.0, 0.0, 0.0, 0.0, 0.0, 0.0, 0.0, 1.6878027768695004E9, 0.0, 2023-06-26 13:06:16.869
125.0, 46304.85729037014, 49017.55440444403, 54153.67235585122, -4285.812888838397, -7091.560315079727, -10261.21649279791, 18748.017400266817, 12696.081423292331, 0.07, 0.966, 0.156, 192.0, 0.0, 0.0, 0.0, 0.0, 0.0, 0.0, 0.0, 0.0, 0.0, 1.687802776872524E9, 0.0, 2023-06-26 13:06:16.872
126.0, 46283.265505226314, 49011.631192163375, 55399.08920515647, -4357.025546673006, -7128.552452153261, -10335.37958090062, 18701.525771799777, 12613.089396129775, 0.07, 0.966, 0.156, 192.0, 0.0, 0.0, 0.0, 0.0, 0.0, 0.0, 0.0, 0.0, 0.0, 1.687802776876551E9, 0.0, 2023-06-26 13:06:16.876
127.0, 46224.77098998678, 48954.58954031343, 57458.355421823915, -4418.202271247181, -7196.524107041849, -10417.566945262784, 18642.58422167113, 12552.136189000154, 0.07, 0.966, 0.156, 192.0, 0.0, 0.0, 0.0, 0.0, 0.0, 0.0, 0.0, 0.0, 0.0, 1.6878027768805692E9, 0.0, 2023-06-26 13:06:16.880
128.0, 46275.39769117805, 48984.69734009473, 56389.74087116014, -4345.000308156051, -7145.942109339489, -10324.628391817618, 18677.51999825478, 12614.49755603046, 0.07, 0.966, 0.156, 192.0, 0.0, 0.0, 0.0, 0.0, 0.0, 0.0, 0.0, 0.0, 0.0, 1.6878027768845928E9, 0.0, 2023-06-26 13:06:16.884
129.0, 46317.798950409764, 49031.5242447286, 54160.89196931029, -4260.8459902818195, -7070.907303203024, -10236.651925641529, 18754.700571858953, 12711.392368244216, 0.07, 0.966, 0.156, 192.0, 0.0, 0.0, 0.0, 0.0, 0.0, 0.0, 0.0, 0.0, 0.0, 1.6878027768886058E9, 0.0, 2023-06-26 13:06:16.888
130.0, 46301.43747346848, 49029.89256738336, 55128.43193154716, -4322.447398000646, -7111.878050789601, -10312.267877133832, 18704.118574156593, 12629.205003882053, 0.07, 0.966, 0.156, 192.0, 0.0, 0.0, 0.0, 0.0, 0.0, 0.0, 0.0, 0.0, 0.0, 1.6878027768936188E9, 0.0, 2023-06-26 13:06:16.893
131.0, 46254.99054849036, 48996.3649507004, 57186.78172669193, -4364.781601998997, -7170.350214284685, -10382.63116867914, 18655.905861366497, 12565.793104862345, 0.09, 0.986, 0.156, 192.0, 2.0, 208.0, 30.0, 208.0, 4.0, 224.0, 0.0, 0.0, 0.0, 1.687802776897629E9, 0.0, 2023-06-26 13:06:16.897
132.0, 46264.57944686168, 48984.3620639279, 56904.322732010216, -4345.447343045156, -7177.055737621276, -10337.346534412687, 18658.6551259345, 12596.191477321563, 0.09, 0.986, 0.156, 192.0, 0.0, 0.0, 0.0, 0.0, 0.0, 0.0, 0.0, 0.0, 0.0, 1.6878027769006517E9, 0.0, 2023-06-26 13:06:16.900
133.0, 46331.388811038596, 49045.538788502075, 54250.20954015369, -4226.111379398272, -7067.263968856808, -10221.206870222912, 18765.29529873077, 12730.748978942513, 0.09, 0.986, 0.156, 192.0, 0.0, 0.0, 0.0, 0.0, 0.0, 0.0, 0.0, 0.0, 0.0, 1.6878027769046829E9, 0.0, 2023-06-26 13:06:16.904
134.0, 46301.48217695739, 49030.071381339, 54837.12164606115, -4300.967371579096, -7110.760463566836, -10304.17654564101, 18720.636513309066, 12651.333230892806, 0.09, 0.986, 0.156, 192.0, 0.0, 0.0, 0.0, 0.0, 0.0, 0.0, 0.0, 0.0, 0.0, 1.6878027769087012E9, 0.0, 2023-06-26 13:06:16.908
135.0, 46268.8709817971, 49004.09865428194, 56794.62037022357, -4369.408413101246, -7156.849760633679, -10383.994625090912, 18653.134245054036, 12565.502532184426, 0.09, 0.986, 0.156, 192.0, 0.0, 0.0, 0.0, 0.0, 0.0, 0.0, 0.0, 0.0, 0.0, 1.6878027769127247E9, 0.0, 2023-06-26 13:06:16.912
136.0, 46254.56586534571, 48976.181325457255, 57308.263457806526, -4370.369538112824, -7187.784574959824, -10368.884845839126, 18631.564811654665, 12573.34799448824, 0.09, 0.986, 0.156, 192.0, 0.0, 0.0, 0.0, 0.0, 0.0, 0.0, 0.0, 0.0, 0.0, 1.6878027769167275E9, 0.0, 2023-06-26 13:06:16.916
137.0, 46291.06626404122, 49003.94219207075, 54468.27315905967, -4288.048063283928, -7125.937298051989, -10273.286434803777, 18700.162315388003, 12672.567388125348, 0.09, 0.986, 0.156, 192.0, 0.0, 0.0, 0.0, 0.0, 0.0, 0.0, 0.0, 0.0, 0.0, 1.687802776920758E9, 0.0, 2023-06-26 13:06:16.920
138.0, 46286.05947328323, 49011.072398551994, 54549.32058445461, -4331.5222062495, -7117.890670048078, -10305.60705728615, 18702.37513808908, 12651.243823914985, 0.09, 0.986, 0.156, 192.0, 0.0, 0.0, 0.0, 0.0, 0.0, 0.0, 0.0, 0.0, 0.0, 1.6878027769257815E9, 0.0, 2023-06-26 13:06:16.925
139.0, 46275.75531908934, 49008.79252061755, 56359.163684745276, -4399.806785560463, -7162.951786869978, -10388.062642581779, 18643.746512382808, 12564.764924617402, 0.09, 0.986, 0.156, 192.0, 0.0, 0.0, 0.0, 0.0, 0.0, 0.0, 0.0, 0.0, 0.0, 1.687802776928805E9, 0.0, 2023-06-26 13:06:16.928
140.0, 46269.988569019864, 48993.70509311022, 57538.48642569619, -4390.262590678048, -7182.822487690746, -10403.39593927812, 18633.397654700002, 12558.72995361447, 0.09, 0.986, 0.156, 192.0, 0.0, 0.0, 0.0, 0.0, 0.0, 0.0, 0.0, 0.0, 0.0, 1.687802776932822E9, 0.0, 2023-06-26 13:06:16.932
141.0, 46336.30619481876, 49045.114105357425, 54816.78155860682, -4263.304682171904, -7082.30669287523, -10240.272908243289, 18728.012588979316, 12680.993995784998, 0.096, 0.978, 0.152, 192.0, 3.0, 0.0, 30.0, 144.0, 4.0, 192.0, 0.0, 0.0, 0.0, 1.6878027769368343E9, 0.0, 2023-06-26 13:06:16.936
142.0, 46328.75130519287, 49050.03148913759, 54320.01403808762, -4281.923685303174, -7069.275625857786, -10249.258309514322, 18748.71030434493, 12694.717966880557, 0.096, 0.978, 0.152, 192.0, 0.0, 0.0, 0.0, 0.0, 0.0, 0.0, 0.0, 0.0, 0.0, 1.6878027769408553E9, 0.0, 2023-06-26 13:06:16.940
143.0, 46310.48992997288, 49046.164637346825, 55982.13445927316, -4323.922613134696, -7118.203594470453, -10332.607964588162, 18685.70073672542, 12611.88240192919, 0.096, 0.978, 0.152, 192.0, 0.0, 0.0, 0.0, 0.0, 0.0, 0.0, 0.0, 0.0, 0.0, 1.687802776944862E9, 0.0, 2023-06-26 13:06:16.944
144.0, 46288.56286866222, 49020.97422134569, 57680.576465198574, -4345.648508745255, -7157.60971994516, -10347.650688606584, 18654.296535765712, 12594.82802090979, 0.096, 0.978, 0.152, 192.0, 0.0, 0.0, 0.0, 0.0, 0.0, 0.0, 0.0, 0.0, 0.0, 1.687802776948896E9, 0.0, 2023-06-26 13:06:16.948
145.0, 46331.61232848315, 49041.15784658884, 55320.6569338628, -4275.240513711037, -7108.234716443386, -10273.55465573724, 18700.005853176815, 12669.639309601702, 0.096, 0.978, 0.152, 192.0, 0.0, 0.0, 0.0, 0.0, 0.0, 0.0, 0.0, 0.0, 0.0, 1.6878027769539907E9, 0.0, 2023-06-26 13:06:16.953
146.0, 46306.7795403933, 49028.350297015946, 54167.15045775777, -4292.049025541428, -7102.155041951542, -10261.037678842269, 18732.23706868137, 12689.711176122568, 0.096, 0.978, 0.152, 192.0, 0.0, 0.0, 0.0, 0.0, 0.0, 0.0, 0.0, 0.0, 0.0, 1.6878027769569223E9, 0.0, 2023-06-26 13:06:16.956
147.0, 46278.526935401795, 49013.933421842274, 55631.547347491665, -4374.214038159137, -7150.010126830355, -10355.317336954753, 18665.628870204553, 12593.464564498016, 0.096, 0.978, 0.152, 192.0, 0.0, 0.0, 0.0, 0.0, 0.0, 0.0, 0.0, 0.0, 0.0, 1.687802776960058E9, 0.0, 2023-06-26 13:06:16.960
148.0, 46244.82050476319, 48979.22116270318, 57605.161679406374, -4416.34707645739, -7187.494002281905, -10416.11408187319, 18621.97591328334, 12558.685250125558, 0.096, 0.978, 0.152, 192.0, 0.0, 0.0, 0.0, 0.0, 0.0, 0.0, 0.0, 0.0, 0.0, 1.6878027769649591E9, 0.0, 2023-06-26 13:06:16.964
149.0, 46313.10508407415, 49018.895509111346, 55883.47385924743, -4299.223935511582, -7123.568013139727, -10287.770365210816, 18689.634643749552, 12651.109713448253, 0.096, 0.978, 0.152, 192.0, 0.0, 0.0, 0.0, 0.0, 0.0, 0.0, 0.0, 0.0, 0.0, 1.6878027769689932E9, 0.0, 2023-06-26 13:06:16.968
150.0, 46313.39565675207, 49024.3716865029, 54086.03597712946, -4281.253132969515, -7087.335835377674, -10247.760742635815, 18739.836661796173, 12703.882182107232, 0.096, 0.978, 0.152, 192.0, 0.0, 0.0, 0.0, 0.0, 0.0, 0.0, 0.0, 0.0, 0.0, 1.6878027769730055E9, 0.0, 2023-06-26 13:06:16.973
151.0, 46291.78151986379, 49033.75941917413, 55302.86494527638, -4353.382212326791, -7124.439731173484, -10342.800360059782, 18676.64828022102, 12595.409166265628, 0.106, 0.974, 0.158, 192.0, 3.0, 80.0, 30.0, 112.0, 4.0, 240.0, 0.0, 0.0, 0.0, 1.6878027769770267E9, 0.0, 2023-06-26 13:06:16.977
152.0, 46265.652330595534, 49006.04325604955, 57392.1942582362, -4418.537547414011, -7172.093650352198, -10392.465936239474, 18635.40931170098, 12552.717334355992, 0.106, 0.974, 0.158, 192.0, 0.0, 0.0, 0.0, 0.0, 0.0, 0.0, 0.0, 0.0, 0.0, 1.6878027769810348E9, 0.0, 2023-06-26 13:06:16.981
153.0, 46293.9272873315, 49017.576756188486, 56428.29763034554, -4338.674764475199, -7146.2326820174085, -10374.964520330968, 18654.92238461046, 12606.406224537639, 0.106, 0.974, 0.158, 192.0, 0.0, 0.0, 0.0, 0.0, 0.0, 0.0, 0.0, 0.0, 0.0, 1.6878027769840803E9, 0.0, 2023-06-26 13:06:16.984
154.0, 46307.98653459389, 49032.50772148463, 54126.73850378257, -4234.917966713663, -7079.848000985146, -10228.515890659797, 18731.633571581075, 12703.256333262485, 0.106, 0.974, 0.158, 192.0, 0.0, 0.0, 0.0, 0.0, 0.0, 0.0, 0.0, 0.0, 0.0, 1.6878027769901135E9, 0.0, 2023-06-26 13:06:16.990
155.0, 46276.73879584537, 49018.627288177886, 55037.12505544723, -4330.181101582182, -7128.641859131081, -10304.42241483002, 18677.140018599035, 12620.711340989035, 0.106, 0.974, 0.158, 192.0, 0.0, 0.0, 0.0, 0.0, 0.0, 0.0, 0.0, 0.0, 0.0, 1.687802776993104E9, 0.0, 2023-06-26 13:06:16.993
156.0, 46263.551266616734, 48996.27554372258, 57095.72071978101, -4389.793204044486, -7171.3560427851735, -10362.492246924907, 18631.050721532192, 12575.15848578912, 0.106, 0.974, 0.158, 192.0, 0.0, 0.0, 0.0, 0.0, 0.0, 0.0, 0.0, 0.0, 0.0, 1.6878027769971209E9, 0.0, 2023-06-26 13:06:16.997
157.0, 46275.01771152231, 48997.437834434255, 56968.494590341405, -4349.0683256469165, -7129.066542275732, -10323.37669412812, 18646.160500783983, 12604.193401836563, 0.106, 0.974, 0.158, 192.0, 0.0, 0.0, 0.0, 0.0, 0.0, 0.0, 0.0, 0.0, 0.0, 1.687802777001194E9, 0.0, 2023-06-26 13:06:17.001
158.0, 46316.10021783116, 49037.73802968717, 54250.50011283161, -4265.897484528718, -7062.368936821096, -10232.114521517102, 18725.12921394458, 12695.522629680949, 0.106, 0.974, 0.158, 192.0, 0.0, 0.0, 0.0, 0.0, 0.0, 0.0, 0.0, 0.0, 0.0, 1.6878027770052104E9, 0.0, 2023-06-26 13:06:17.005
159.0, 46286.35004596115, 49017.88968061086, 54770.24522665086, -4332.639793472265, -7118.002428770355, -10325.097778451178, 18679.17402734447, 12619.191422366075, 0.106, 0.974, 0.158, 192.0, 0.0, 0.0, 0.0, 0.0, 0.0, 0.0, 0.0, 0.0, 0.0, 1.687802777009225E9, 0.0, 2023-06-26 13:06:17.009
160.0, 46250.52019959929, 48993.861555321404, 56717.41744487494, -4428.998163819095, -7207.1635374025755, -10419.73506447495, 18602.194619440394, 12530.924383512067, 0.106, 0.974, 0.158, 192.0, 0.0, 0.0, 0.0, 0.0, 0.0, 0.0, 0.0, 0.0, 0.0, 1.6878027770122063E9, 0.0, 2023-06-26 13:06:17.012
161.0, 46266.993435262855, 48992.185174487255, 57347.0884379254, -4428.931108585729, -7174.261769564363, -10370.874151095648, 18625.44043367391, 12571.984538076465, 0.106, 0.974, 0.158, 192.0, 0.0, 0.0, 0.0, 0.0, 0.0, 0.0, 0.0, 0.0, 0.0, 1.6878027770162225E9, 0.0, 2023-06-26 13:06:17.016
162.0, 46317.50837773185, 49038.207416320736, 54529.159310955925, -4273.430022410157, -7079.6691870295035, -10259.987146852869, 18707.292521869247, 12679.138800995208, 0.09, 0.966, 0.158, 192.0, 2.0, 208.0, 30.0, 48.0, 4.0, 240.0, 0.0, 0.0, 0.0, 1.6878027770204177E9, 0.0, 2023-06-26 13:06:17.020
163.0, 46312.90391837405, 49042.90128265635, 54556.204921746845, -4293.971275564584, -7067.867465957102, -10262.088210831667, 18714.668597539498, 12660.877425775221, 0.09, 0.966, 0.158, 192.0, 0.0, 0.0, 0.0, 0.0, 0.0, 0.0, 0.0, 0.0, 0.0, 1.687802777025282E9, 0.0, 2023-06-26 13:06:17.025
164.0, 46303.002095580356, 49038.92267214331, 56334.085027466426, -4350.901168692251, -7116.393103169573, -10343.962650771458, 18658.141035812027, 12588.793049906857, 0.09, 0.966, 0.158, 192.0, 0.0, 0.0, 0.0, 0.0, 0.0, 0.0, 0.0, 0.0, 0.0, 1.6878027770292706E9, 0.0, 2023-06-26 13:06:17.029
165.0, 46265.0711852397, 48994.21918323269, 57569.53299874461, -4395.515250625044, -7168.942054384, -10361.844046335704, 18625.50748890728, 12576.92427360109, 0.09, 0.966, 0.158, 192.0, 0.0, 0.0, 0.0, 0.0, 0.0, 0.0, 0.0, 0.0, 0.0, 1.6878027770332906E9, 0.0, 2023-06-26 13:06:17.033
166.0, 46313.68622942999, 49020.169558545305, 54895.616161300684, -4304.454243714124, -7125.579670140704, -10274.851056915648, 18686.12541987007, 12658.351678651772, 0.09, 0.966, 0.158, 192.0, 0.0, 0.0, 0.0, 0.0, 0.0, 0.0, 0.0, 0.0, 0.0, 1.6878027770373123E9, 0.0, 2023-06-26 13:06:17.037
167.0, 46319.45297949946, 49042.99068963417, 54363.48818105319, -4274.122926488272, -7058.926768174979, -10284.551714009252, 18746.251612454846, 12694.427394202638, 0.09, 0.966, 0.158, 192.0, 0.0, 0.0, 0.0, 0.0, 0.0, 0.0, 0.0, 0.0, 0.0, 1.6878027770403337E9, 0.0, 2023-06-26 13:06:17.040
168.0, 46278.459880168426, 49011.98882007466, 55962.73314508595, -4379.287884150492, -7159.643728690592, -10390.811907149782, 18657.11285556708, 12583.383927748673, 0.09, 0.966, 0.158, 192.0, 0.0, 0.0, 0.0, 0.0, 0.0, 0.0, 0.0, 0.0, 0.0, 1.6878027770443614E9, 0.0, 2023-06-26 13:06:17.044
169.0, 46264.333577672674, 49004.1657095153, 57683.77276465569, -4393.637704090798, -7118.516518892828, -10339.916985025047, 18657.35872475609, 12587.027262094887, 0.09, 0.966, 0.158, 192.0, 0.0, 0.0, 0.0, 0.0, 0.0, 0.0, 0.0, 0.0, 0.0, 1.6878027770483527E9, 0.0, 2023-06-26 13:06:17.048
170.0, 46321.44228475598, 49036.441628508765, 55412.09792042946, -4305.147147792238, -7074.68474801597, -10272.548827236751, 18707.828963736174, 12665.07955373282, 0.09, 0.966, 0.158, 192.0, 0.0, 0.0, 0.0, 0.0, 0.0, 0.0, 0.0, 0.0, 0.0, 1.687802777052396E9, 0.0, 2023-06-26 13:06:17.052
171.0, 46313.46271198544, 49046.05287862455, 54225.51086253057, -4270.8819235422525, -7046.29803255773, -10222.302105701221, 18759.70736261694, 12718.455519492092, 0.09, 0.966, 0.158, 192.0, 0.0, 0.0, 0.0, 0.0, 0.0, 0.0, 0.0, 0.0, 0.0, 1.687802777056424E9, 0.0, 2023-06-26 13:06:17.056
172.0, 46295.29074374327, 49035.21228256373, 55660.04582167218, -4358.724279251609, -7083.245466142353, -10325.768330784838, 18691.735707728352, 12618.029131654399, 0.074, 0.972, 0.16, 192.0, 2.0, 80.0, 30.0, 96.0, 5.0, 0.0, 0.0, 0.0, 0.0, 1.6878027770614336E9, 0.0, 2023-06-26 13:06:17.061
173.0, 46263.350100916636, 49005.17153801579, 57604.26760962816, -4411.943782799695, -7146.009164572855, -10362.38048820263, 18646.07109380616, 12575.985500333965, 0.074, 0.972, 0.16, 192.0, 0.0, 0.0, 0.0, 0.0, 0.0, 0.0, 0.0, 0.0, 0.0, 1.687802777065444E9, 0.0, 2023-06-26 13:06:17.065
174.0, 46312.90391837405, 49024.05876208052, 55970.198627734026, -4293.904220331218, -7096.142422693065, -10306.255257875355, 18698.396527576035, 12639.26328888694, 0.074, 0.972, 0.16, 192.0, 0.0, 0.0, 0.0, 0.0, 0.0, 0.0, 0.0, 0.0, 0.0, 1.687802777069466E9, 0.0, 2023-06-26 13:06:17.069
175.0, 46328.6842499595, 49041.94015764477, 54159.0814780094, -4278.839144568342, -7035.390381263541, -10242.97746932238, 18765.51881617532, 12710.341836254816, 0.074, 0.972, 0.16, 192.0, 0.0, 0.0, 0.0, 0.0, 0.0, 0.0, 0.0, 0.0, 0.0, 1.687802777072497E9, 0.0, 2023-06-26 13:06:17.072
176.0, 46311.942793362476, 49046.2763960691, 55337.7113148822, -4375.19751491517, -7095.449518614951, -10336.1395402121, 18699.08943165415, 12613.603486252248, 0.074, 0.972, 0.16, 192.0, 0.0, 0.0, 0.0, 0.0, 0.0, 0.0, 0.0, 0.0, 0.0, 1.6878027770765245E9, 0.0, 2023-06-26 13:06:17.076
177.0, 46271.64259810956, 49005.059779293515, 57378.91732202975, -4355.0585931609385, -7147.909062851556, -10355.585557888218, 18649.468558963366, 12579.897055613645, 0.074, 0.972, 0.16, 192.0, 0.0, 0.0, 0.0, 0.0, 0.0, 0.0, 0.0, 0.0, 0.0, 1.6878027770805204E9, 0.0, 2023-06-26 13:06:17.080
178.0, 46314.5802992082, 49023.164692302315, 56532.054428107076, -4298.441624455646, -7091.135631935076, -10283.210609341933, 18685.56662625869, 12643.64423080018, 0.074, 0.972, 0.16, 192.0, 0.0, 0.0, 0.0, 0.0, 0.0, 0.0, 0.0, 0.0, 0.0, 1.6878027770845473E9, 0.0, 2023-06-26 13:06:17.084
179.0, 46350.879532203624, 49068.29286435758, 54181.25440850907, -4273.921760788174, -7029.53422421625, -10245.525568190285, 18751.303106701747, 12706.542039697415, 0.074, 0.972, 0.16, 192.0, 0.0, 0.0, 0.0, 0.0, 0.0, 0.0, 0.0, 0.0, 0.0, 1.6878027770905905E9, 0.0, 2023-06-26 13:06:17.090
180.0, 46329.60067148217, 49057.80989620804, 55069.691547118615, -4313.976086852084, -7081.0773469301885, -10298.789775227282, 18705.303216612723, 12639.151530164663, 0.074, 0.972, 0.16, 192.0, 0.0, 0.0, 0.0, 0.0, 0.0, 0.0, 0.0, 0.0, 0.0, 1.6878027770936017E9, 0.0, 2023-06-26 13:06:17.093
181.0, 46301.169252535015, 49037.492160498165, 57069.949158424046, -4328.616479470311, -7115.431978157995, -10347.896557795591, 18659.437436990433, 12586.15554406113, 0.074, 0.972, 0.16, 192.0, 0.0, 0.0, 0.0, 0.0, 0.0, 0.0, 0.0, 0.0, 0.0, 1.6878027770976179E9, 0.0, 2023-06-26 13:06:17.097
182.0, 46319.40827601055, 49031.680706939784, 57016.036750797844, -4304.320133247392, -7121.310486949741, -10309.876240477115, 18659.45978873489, 12618.342056076772, 0.066, 0.98, 0.17, 192.0, 2.0, 16.0, 30.0, 160.0, 5.0, 80.0, 0.0, 0.0, 0.0, 1.68780277710065E9, 0.0, 2023-06-26 13:06:17.100
183.0, 46368.64916904559, 49078.4852598292, 54336.84490166246, -4216.790701960409, -7004.4779186818505, -10206.901753771515, 18756.332249204188, 12731.888917909733, 0.066, 0.98, 0.17, 192.0, 0.0, 0.0, 0.0, 0.0, 0.0, 0.0, 0.0, 0.0, 0.0, 1.687802777104643E9, 0.0, 2023-06-26 13:06:17.104
184.0, 46343.190532110995, 49069.14223064688, 54862.49087601792, -4283.823583581875, -7043.459361011906, -10281.46717327442, 18719.965960975405, 12660.832722286312, 0.066, 0.98, 0.17, 192.0, 0.0, 0.0, 0.0, 0.0, 0.0, 0.0, 0.0, 0.0, 0.0, 1.6878027771086693E9, 0.0, 2023-06-26 13:06:17.108
185.0, 46319.31886903273, 49055.77588746261, 56725.30761066766, -4353.695136749165, -7087.939332477968, -10354.557377643274, 18664.3548207706, 12593.77748892039, 0.066, 0.98, 0.17, 192.0, 0.0, 0.0, 0.0, 0.0, 0.0, 0.0, 0.0, 0.0, 0.0, 1.687802777112703E9, 0.0, 2023-06-26 13:06:17.112
186.0, 46304.27614501431, 49029.177311560794, 57386.896894800295, -4337.087790618872, -7116.124882236109, -10330.573955842729, 18646.2499077618, 12602.695834958058, 0.066, 0.98, 0.17, 192.0, 0.0, 0.0, 0.0, 0.0, 0.0, 0.0, 0.0, 0.0, 0.0, 1.6878027771187236E9, 0.0, 2023-06-26 13:06:17.118
187.0, 46356.51217180636, 49070.68450101429, 54619.30389634418, -4232.50397831249, -7043.459361011906, -10224.313762702199, 18726.380911634078, 12706.966722842066, 0.066, 0.98, 0.17, 192.0, 0.0, 0.0, 0.0, 0.0, 0.0, 0.0, 0.0, 0.0, 0.0, 1.6878027771217184E9, 0.0, 2023-06-26 13:06:17.121
188.0, 46341.447096043485, 49068.06934691303, 54652.16096069348, -4280.22495272457, -7049.650794226026, -10266.469152744909, 18724.592772077653, 12680.859885318267, 0.066, 0.98, 0.17, 192.0, 0.0, 0.0, 0.0, 0.0, 0.0, 0.0, 0.0, 0.0, 0.0, 1.6878027771247492E9, 0.0, 2023-06-26 13:06:17.124
189.0, 46329.82418892672, 49066.05768991205, 56352.77108583106, -4340.060572631428, -7074.863561971612, -10334.060827977757, 18680.336318056146, 12607.21088733803, 0.066, 0.98, 0.17, 192.0, 0.0, 0.0, 0.0, 0.0, 0.0, 0.0, 0.0, 0.0, 0.0, 1.6878027771287627E9, 0.0, 2023-06-26 13:06:17.128
190.0, 46292.04974079725, 49016.168596287804, 57633.9060227759, -4355.215055372126, -7134.050981289266, -10359.139485256612, 18639.857308847586, 12587.9213318731, 0.066, 0.98, 0.17, 192.0, 0.0, 0.0, 0.0, 0.0, 0.0, 0.0, 0.0, 0.0, 0.0, 1.687802777132785E9, 0.0, 2023-06-26 13:06:17.132
191.0, 46340.97770940992, 49050.143247859865, 55013.25339236896, -4241.511731327979, -7034.317497529686, -10233.567384906697, 18723.452833110434, 12700.440013461115, 0.066, 0.98, 0.17, 192.0, 0.0, 0.0, 0.0, 0.0, 0.0, 0.0, 0.0, 0.0, 0.0, 1.687802777136788E9, 0.0, 2023-06-26 13:06:17.136
192.0, 46329.757133693354, 49051.08202112699, 54454.07980133055, -4277.118060245283, -7033.5351864737495, -10272.548827236751, 18735.70158907194, 12694.360338969273, 0.064, 0.982, 0.178, 192.0, 2.0, 0.0, 30.0, 176.0, 5.0, 144.0, 0.0, 0.0, 0.0, 1.6878027771408243E9, 0.0, 2023-06-26 13:06:17.140
193.0, 46319.94471787748, 49052.64664323886, 56017.718436446004, -4330.918709149207, -7056.713945473904, -10324.494281350886, 18688.5617600157, 12613.670541485613, 0.064, 0.982, 0.178, 192.0, 0.0, 0.0, 0.0, 0.0, 0.0, 0.0, 0.0, 0.0, 0.0, 1.6878027771448312E9, 0.0, 2023-06-26 13:06:17.144
194.0, 46278.70574935743, 49013.2181660197, 57710.930134168884, -4378.81849751693, -7107.899440276557, -10358.848912578693, 18652.664858420474, 12594.380986020684, 0.064, 0.982, 0.178, 192.0, 0.0, 0.0, 0.0, 0.0, 0.0, 0.0, 0.0, 0.0, 0.0, 1.6878027771478548E9, 0.0, 2023-06-26 13:06:17.147
195.0, 46332.79697093928, 49048.13159085889, 55536.23950913424, -4284.292970215437, -7058.323271074685, -10273.442897014964, 18701.212847377403, 12672.969719525543, 0.064, 0.982, 0.178, 192.0, 0.0, 0.0, 0.0, 0.0, 0.0, 0.0, 0.0, 0.0, 0.0, 1.6878027771518843E9, 0.0, 2023-06-26 13:06:17.151
196.0, 46340.038936142795, 49069.11987890243, 54321.2210322882, -4243.523388328957, -7012.725712385859, -10226.325419703177, 18755.907566059537, 12720.46717649307, 0.064, 0.982, 0.178, 192.0, 0.0, 0.0, 0.0, 0.0, 0.0, 0.0, 0.0, 0.0, 0.0, 1.687802777157915E9, 0.0, 2023-06-26 13:06:17.157
197.0, 46325.59970922467, 49063.509591044145, 55688.656054574974, -4317.440607242657, -7061.787791465258, -10320.560374326751, 18693.099164140127, 12624.913468946634, 0.064, 0.982, 0.178, 192.0, 0.0, 0.0, 0.0, 0.0, 0.0, 0.0, 0.0, 0.0, 0.0, 1.6878027771619298E9, 0.0, 2023-06-26 13:06:17.161
198.0, 46297.123586788606, 49036.441628508765, 57610.50374633119, -4357.316119350925, -7093.862544758624, -10366.202636504488, 18659.16921605697, 12592.592846464258, 0.064, 0.982, 0.178, 192.0, 0.0, 0.0, 0.0, 0.0, 0.0, 0.0, 0.0, 0.0, 0.0, 1.6878027771649268E9, 0.0, 2023-06-26 13:06:17.164
199.0, 46325.37619178012, 49040.822570422, 56077.844629030784, -4293.412481953202, -7074.148306149043, -10290.452574545452, 18688.472353037876, 12649.45568435856, 0.064, 0.982, 0.178, 192.0, 0.0, 0.0, 0.0, 0.0, 0.0, 0.0, 0.0, 0.0, 0.0, 1.6878027771689522E9, 0.0, 2023-06-26 13:06:17.168
200.0, 46340.01658439834, 49060.916788687326, 54244.08516217294, -4253.961652989585, -7017.441930465929, -10236.160187263511, 18752.93478404698, 12721.294191037918, 0.064, 0.982, 0.178, 192.0, 0.0, 0.0, 0.0, 0.0, 0.0, 0.0, 0.0, 0.0, 0.0, 1.6878027771729937E9, 0.0, 2023-06-26 13:06:17.172
201.0, 46315.80964515325, 49045.78465769108, 55377.58682699047, -4341.893415676763, -7061.497218787339, -10309.652723032561, 18695.043765907736, 12626.701608503057, 0.064, 0.982, 0.178, 192.0, 0.0, 0.0, 0.0, 0.0, 0.0, 0.0, 0.0, 0.0, 0.0, 1.6878027771789963E9, 0.0, 2023-06-26 13:06:17.178
202.0, 46288.83108959569, 49026.33864001497, 57374.312862671955, -4393.190669201693, -7103.45144312995, -10368.013127805369, 18649.379151985544, 12581.416974236605, 0.064, 0.982, 0.178, 192.0, 0.0, 0.0, 0.0, 0.0, 0.0, 0.0, 0.0, 0.0, 0.0, 1.6878027771820354E9, 0.0, 2023-06-26 13:06:17.182
203.0, 46313.753284663355, 49033.021811607105, 56630.9161938329, -4327.633002714277, -7086.352358621641, -10310.703255021961, 18657.17991080045, 12620.867803200223, 0.056, 0.99, 0.176, 192.0, 1.0, 192.0, 30.0, 240.0, 5.0, 128.0, 0.0, 0.0, 0.0, 1.6878027771850443E9, 0.0, 2023-06-26 13:06:17.185
204.0, 46354.165238638554, 49075.02073943862, 54253.4058396108, -4239.857702238286, -6997.3700639450635, -10218.032922510258, 18757.628650382598, 12719.796624159411, 0.056, 0.99, 0.176, 192.0, 0.0, 0.0, 0.0, 0.0, 0.0, 0.0, 0.0, 0.0, 0.0, 1.6878027771880558E9, 0.0, 2023-06-26 13:06:17.188
205.0, 46332.014659883345, 49064.49306780018, 55106.61662895878, -4319.429912499179, -7039.950137132423, -10305.092967163679, 18718.781318519275, 12640.872614487722, 0.056, 0.99, 0.176, 192.0, 0.0, 0.0, 0.0, 0.0, 0.0, 0.0, 0.0, 0.0, 0.0, 1.6878027771930604E9, 0.0, 2023-06-26 13:06:17.193
206.0, 46300.69986590146, 49041.11314309992, 57060.80729494182, -4382.148907440771, -7085.815916754713, -10381.446526223008, 18668.244024305826, 12579.382965491173, 0.056, 0.99, 0.176, 192.0, 0.0, 0.0, 0.0, 0.0, 0.0, 0.0, 0.0, 0.0, 0.0, 1.6878027771970809E9, 0.0, 2023-06-26 13:06:17.197
207.0, 46307.42774098251, 49031.18896856177, 57081.460306818524, -4346.296709334459, -7089.056919700733, -10333.412627388552, 18669.182797572947, 12609.78133795039, 0.056, 0.99, 0.176, 192.0, 0.0, 0.0, 0.0, 0.0, 0.0, 0.0, 0.0, 0.0, 0.0, 1.687802777202118E9, 0.0, 2023-06-26 13:06:17.202
208.0, 46346.409183312564, 49065.722413745214, 54389.10328019897, -4248.999565720506, -7005.304933226697, -10216.334189931655, 18755.147606748058, 12717.94142936962, 0.056, 0.99, 0.176, 192.0, 0.0, 0.0, 0.0, 0.0, 0.0, 0.0, 0.0, 0.0, 0.0, 1.6878027772051485E9, 0.0, 2023-06-26 13:06:17.205
209.0, 46331.94760464998, 49066.41531782333, 54865.88834117512, -4302.7555111355205, -7012.211622263387, -10279.142591851067, 18737.37796990609, 12667.65000434518, 0.056, 0.99, 0.176, 192.0, 0.0, 0.0, 0.0, 0.0, 0.0, 0.0, 0.0, 0.0, 0.0, 1.687802777209205E9, 0.0, 2023-06-26 13:06:17.209
210.0, 46308.657086927546, 49051.327890316, 56677.8772089335, -4365.318043865925, -7060.267872842297, -10351.294022952798, 18680.671594222975, 12593.106936586732, 0.056, 0.99, 0.176, 192.0, 0.0, 0.0, 0.0, 0.0, 0.0, 0.0, 0.0, 0.0, 0.0, 1.6878027772122183E9, 0.0, 2023-06-26 13:06:17.212
211.0, 46297.481214699896, 49026.29393652605, 57430.102816832405, -4365.608616543844, -7088.095794689155, -10338.106493724168, 18664.98066961535, 12598.963093634022, 0.056, 0.99, 0.176, 192.0, 0.0, 0.0, 0.0, 0.0, 0.0, 0.0, 0.0, 0.0, 0.0, 1.6878027772162287E9, 0.0, 2023-06-26 13:06:17.216
212.0, 46347.30325309077, 49060.24623635367, 54668.969472523866, -4267.216237451582, -7012.122215285566, -10232.986239550859, 18740.306048429735, 12703.725719896045, 0.056, 0.99, 0.176, 192.0, 0.0, 0.0, 0.0, 0.0, 0.0, 0.0, 0.0, 0.0, 0.0, 1.6878027772202053E9, 0.0, 2023-06-26 13:06:17.220
213.0, 46331.25470057186, 49057.54167527457, 54644.60607106758, -4301.950848335129, -7018.850090366614, -10264.725716677394, 18736.66271408352, 12677.976510283532, 0.046, 0.98, 0.17, 192.0, 1.0, 112.0, 30.0, 160.0, 5.0, 80.0, 0.0, 0.0, 0.0, 1.6878027772252393E9, 0.0, 2023-06-26 13:06:17.225
214.0, 46310.333467761695, 49046.74578270266, 56309.09577716539, -4373.498782336567, -7064.425297310984, -10349.125903740634, 18673.004945874804, 12588.815401651313, 0.046, 0.98, 0.17, 192.0, 0.0, 0.0, 0.0, 0.0, 0.0, 0.0, 0.0, 0.0, 0.0, 1.687802777229248E9, 0.0, 2023-06-26 13:06:17.229
215.0, 46286.573563405705, 49019.00726783363, 57645.573633381566, -4378.863201005841, -7092.834364513679, -10348.85768280717, 18656.68817242243, 12599.097204100754, 0.046, 0.98, 0.17, 192.0, 0.0, 0.0, 0.0, 0.0, 0.0, 0.0, 0.0, 0.0, 0.0, 1.687802777233261E9, 0.0, 2023-06-26 13:06:17.233
216.0, 46340.41891579854, 49051.23848333818, 55082.58850366933, -4274.145278232727, -7022.4934247128285, -10250.97939383738, 18722.93874298796, 12693.8462488468, 0.046, 0.98, 0.17, 192.0, 0.0, 0.0, 0.0, 0.0, 0.0, 0.0, 0.0, 0.0, 0.0, 1.6878027772372775E9, 0.0, 2023-06-26 13:06:17.237
217.0, 46342.18470361051, 49066.72824224571, 54434.05263829859, -4271.12779273126, -7001.14750875801, -10233.545033162241, 18751.750141590852, 12703.7480716405, 0.046, 0.98, 0.17, 192.0, 0.0, 0.0, 0.0, 0.0, 0.0, 0.0, 0.0, 0.0, 0.0, 1.68780277724031E9, 0.0, 2023-06-26 13:06:17.240
218.0, 46323.8339214127, 49060.08977414248, 55961.459095652, -4347.838979701874, -7046.521550002283, -10340.85575829217, 18682.437382034943, 12605.154526848142, 0.046, 0.98, 0.17, 192.0, 0.0, 0.0, 0.0, 0.0, 0.0, 0.0, 0.0, 0.0, 0.0, 1.687802777244344E9, 0.0, 2023-06-26 13:06:17.244
219.0, 46279.93509530248, 49014.04518056455, 57710.304285324135, -4385.9934074870835, -7095.337759892674, -10368.393107461108, 18641.891317593017, 12576.007852078421, 0.046, 0.98, 0.17, 192.0, 0.0, 0.0, 0.0, 0.0, 0.0, 0.0, 0.0, 0.0, 0.0, 1.687802777250348E9, 0.0, 2023-06-26 13:06:17.250
220.0, 46326.136151091596, 49039.034430865584, 55601.841879110565, -4306.823528626386, -7042.945270889434, -10272.861751659126, 18690.6628239945, 12652.74139079349, 0.046, 0.98, 0.17, 192.0, 0.0, 0.0, 0.0, 0.0, 0.0, 0.0, 0.0, 0.0, 0.0, 1.6878027772543592E9, 0.0, 2023-06-26 13:06:17.254
221.0, 46337.71435471944, 49064.761288733636, 54284.675930103775, -4269.071432241372, -6990.731595841837, -10232.762722106305, 18752.443045668966, 12708.956028098588, 0.046, 0.98, 0.17, 192.0, 0.0, 0.0, 0.0, 0.0, 0.0, 0.0, 0.0, 0.0, 0.0, 1.6878027772583964E9, 0.0, 2023-06-26 13:06:17.258
222.0, 46322.850444656666, 49060.983843920694, 55628.99924862376, -4337.4454185301565, -7032.909337629001, -10331.66919132104, 18695.088469396647, 12613.759948463434, 0.046, 0.98, 0.17, 192.0, 0.0, 0.0, 0.0, 0.0, 0.0, 0.0, 0.0, 0.0, 0.0, 1.6878027772614229E9, 0.0, 2023-06-26 13:06:17.261
223.0, 46279.8233365802, 49019.72252365619, 57585.223923352234, -4393.5035936240665, -7083.4242800979955, -10379.01018607738, 18651.502567708798, 12570.129343286675, 0.042, 0.976, 0.162, 192.0, 1.0, 80.0, 30.0, 128.0, 5.0, 16.0, 0.0, 0.0, 0.0, 1.6878027772654316E9, 0.0, 2023-06-26 13:06:17.265
224.0, 46312.45688348495, 49027.009192348625, 56154.91344391268, -4327.007153869528, -7064.224131610887, -10302.74603399587, 18677.94468139943, 12627.483919558994, 0.042, 0.976, 0.162, 192.0, 0.0, 0.0, 0.0, 0.0, 0.0, 0.0, 0.0, 0.0, 0.0, 1.6878027772684238E9, 0.0, 2023-06-26 13:06:17.268
225.0, 46341.26828208784, 49062.14613463237, 54191.87148712534, -4267.819734551876, -6991.402148175496, -10231.891004072548, 18754.700571858953, 12713.13580431173, 0.042, 0.976, 0.162, 192.0, 0.0, 0.0, 0.0, 0.0, 0.0, 0.0, 0.0, 0.0, 0.0, 1.6878027772724504E9, 0.0, 2023-06-26 13:06:17.272
226.0, 46328.8854156596, 49062.41435556583, 55301.7026545647, -4340.306441820436, -7028.0143055932895, -10318.90634523706, 18695.513152541298, 12619.459643299539, 0.042, 0.976, 0.162, 192.0, 0.0, 0.0, 0.0, 0.0, 0.0, 0.0, 0.0, 0.0, 0.0, 1.6878027772764647E9, 0.0, 2023-06-26 13:06:17.276
227.0, 46294.21786000942, 49031.45718949523, 57330.79401621748, -4380.606637073354, -7069.275625857786, -10368.214293505465, 18653.82714913215, 12568.162389774609, 0.042, 0.976, 0.162, 192.0, 0.0, 0.0, 0.0, 0.0, 0.0, 0.0, 0.0, 0.0, 0.0, 1.6878027772804868E9, 0.0, 2023-06-26 13:06:17.280
228.0, 46306.69013341548, 49023.5223202136, 56681.18526711289, -4340.887587176274, -7071.443745069951, -10322.750845283372, 18666.54529172722, 12610.92127691761, 0.042, 0.976, 0.162, 192.0, 0.0, 0.0, 0.0, 0.0, 0.0, 0.0, 0.0, 0.0, 0.0, 1.6878027772855244E9, 0.0, 2023-06-26 13:06:17.285
229.0, 46351.50538104837, 49063.95662593325, 54191.37974874732, -4256.397993135213, -6987.557648129184, -10216.669466098485, 18749.917298545515, 12730.65957196469, 0.042, 0.976, 0.162, 192.0, 0.0, 0.0, 0.0, 0.0, 0.0, 0.0, 0.0, 0.0, 0.0, 1.6878027772885396E9, 0.0, 2023-06-26 13:06:17.288
230.0, 46333.71339246195, 49059.866256697926, 54972.729679671495, -4328.661182959221, -7023.3204392576745, -10297.985112426892, 18715.3167981287, 12660.832722286312, 0.042, 0.976, 0.162, 192.0, 0.0, 0.0, 0.0, 0.0, 0.0, 0.0, 0.0, 0.0, 0.0, 1.6878027772915576E9, 0.0, 2023-06-26 13:06:17.291
231.0, 46288.8757930846, 49025.28810802557, 57000.39052967913, -4370.347186368369, -7077.9704544509, -10364.10157252569, 18654.520053210264, 12589.01656735141, 0.042, 0.976, 0.162, 192.0, 0.0, 0.0, 0.0, 0.0, 0.0, 0.0, 0.0, 0.0, 0.0, 1.6878027772965777E9, 0.0, 2023-06-26 13:06:17.296
232.0, 46285.947714560956, 49002.690494381255, 57188.12283135925, -4365.183933399193, -7092.141460435565, -10338.039438490801, 18636.97393381285, 12598.337244789273, 0.042, 0.976, 0.162, 192.0, 0.0, 0.0, 0.0, 0.0, 0.0, 0.0, 0.0, 0.0, 0.0, 1.687802777300608E9, 0.0, 2023-06-26 13:06:17.300
233.0, 46353.89701770509, 49061.65439625435, 54388.991521476695, -4257.2026559356045, -6981.209752703876, -10226.683047614462, 18745.46930139891, 12723.976400372554, 0.04, 0.974, 0.158, 192.0, 1.0, 64.0, 30.0, 112.0, 4.0, 240.0, 0.0, 0.0, 0.0, 1.6878027773046024E9, 0.0, 2023-06-26 13:06:17.304
234.0, 46332.50639826136, 49055.90999792934, 54743.46783679341, -4292.205487752615, -7006.087244282633, -10277.197990083456, 18723.497536599345, 12674.847266059789, 0.04, 0.974, 0.158, 192.0, 0.0, 0.0, 0.0, 0.0, 0.0, 0.0, 0.0, 0.0, 0.0, 1.687802777308648E9, 0.0, 2023-06-26 13:06:17.308
235.0, 46300.52105194581, 49033.20062556275, 56634.9171560904, -4355.1703518832155, -7054.63523323956, -10352.90334855358, 18658.386905001033, 12594.82802090979, 0.04, 0.974, 0.158, 192.0, 0.0, 0.0, 0.0, 0.0, 0.0, 0.0, 0.0, 0.0, 0.0, 1.6878027773126607E9, 0.0, 2023-06-26 13:06:17.312
236.0, 46277.342292945665, 48998.24249723465, 57524.96362030073, -4364.96041595464, -7087.805222011236, -10353.283328209322, 18638.650314647, 12592.905770886633, 0.04, 0.974, 0.158, 192.0, 0.0, 0.0, 0.0, 0.0, 0.0, 0.0, 0.0, 0.0, 0.0, 1.6878027773176892E9, 0.0, 2023-06-26 13:06:17.317
237.0, 46337.535540763805, 49041.09079135547, 54709.00144684332, -4260.443658881624, -7008.322418728164, -10244.586794923163, 18718.89307724155, 12700.171792527652, 0.04, 0.974, 0.158, 192.0, 0.0, 0.0, 0.0, 0.0, 0.0, 0.0, 0.0, 0.0, 0.0, 1.6878027773207054E9, 0.0, 2023-06-26 13:06:17.320
238.0, 46323.968031879434, 49042.02956462259, 54523.05728471962, -4287.668083628188, -7008.300066983708, -10264.703364932939, 18722.17878367648, 12680.859885318267, 0.04, 0.974, 0.158, 192.0, 0.0, 0.0, 0.0, 0.0, 0.0, 0.0, 0.0, 0.0, 0.0, 1.6878027773237147E9, 0.0, 2023-06-26 13:06:17.323
239.0, 46309.17117705002, 49039.61557622142, 56249.617785169816, -4349.895340191762, -7057.853884441124, -10345.437865905507, 18659.79506490172, 12606.138003604176, 0.04, 0.974, 0.158, 192.0, 0.0, 0.0, 0.0, 0.0, 0.0, 0.0, 0.0, 0.0, 0.0, 1.6878027773287368E9, 0.0, 2023-06-26 13:06:17.328
240.0, 46282.75141510385, 49008.3678374729, 57696.98264562877, -4372.1353259247935, -7094.980131981389, -10361.195845746499, 18632.88356457753, 12591.877590641689, 0.04, 0.974, 0.158, 192.0, 0.0, 0.0, 0.0, 0.0, 0.0, 0.0, 0.0, 0.0, 0.0, 1.6878027773337624E9, 0.0, 2023-06-26 13:06:17.333
241.0, 46334.02631688432, 49038.475637254196, 55151.25306263603, -4273.742946832532, -7028.997782349323, -10258.131952063079, 18696.161353130505, 12677.060088760863, 0.04, 0.974, 0.158, 192.0, 0.0, 0.0, 0.0, 0.0, 0.0, 0.0, 0.0, 0.0, 0.0, 1.6878027773388019E9, 0.0, 2023-06-26 13:06:17.338
242.0, 46339.16721810904, 49054.99357640667, 54279.40091841232, -4260.823638537364, -6989.189325474421, -10238.373009964587, 18736.215679194414, 12710.274781021451, 0.04, 0.974, 0.158, 192.0, 0.0, 0.0, 0.0, 0.0, 0.0, 0.0, 0.0, 0.0, 0.0, 1.6878027773418016E9, 0.0, 2023-06-26 13:06:17.341
243.0, 46318.29068878778, 49048.22099783671, 55809.422529867, -4333.2209388281035, -7036.127988830565, -10330.842176776192, 18671.775599929762, 12617.045654898366, 0.04, 0.974, 0.158, 192.0, 0.0, 0.0, 0.0, 0.0, 0.0, 0.0, 0.0, 0.0, 0.0, 1.6878027773448079E9, 0.0, 2023-06-26 13:06:17.344
244.0, 46276.671740612, 49006.44558744974, 57692.24407580424, -4381.545410340477, -7090.263913901319, -10373.556360430284, 18626.91564880796, 12568.698831641535, 0.036000000000000004, 0.968, 0.156, 192.0, 1.0, 32.0, 30.0, 64.0, 4.0, 224.0, 0.0, 0.0, 0.0, 1.6878027773478124E9, 0.0, 2023-06-26 13:06:17.347
245.0, 46330.181816838005, 49035.23463430818, 55666.6395862865, -4298.151051777727, -7041.961794133401, -10286.295150076765, 18675.731858698353, 12640.269117387428, 0.036000000000000004, 0.968, 0.156, 192.0, 0.0, 0.0, 0.0, 0.0, 0.0, 0.0, 0.0, 0.0, 0.0, 1.6878027773518333E9, 0.0, 2023-06-26 13:06:17.351
246.0, 46347.48206704642, 49062.727279988205, 54130.91827999572, -4257.783801291443, -6986.350653928596, -10239.714114631906, 18739.054350740236, 12718.723740425557, 0.036000000000000004, 0.968, 0.156, 192.0, 0.0, 0.0, 0.0, 0.0, 0.0, 0.0, 0.0, 0.0, 0.0, 1.6878027773568685E9, 0.0, 2023-06-26 13:06:17.356
247.0, 46323.56570047924, 49054.88181768439, 55470.01129031317, -4322.469749745101, -7038.29610804273, -10322.527327838818, 18675.396582531524, 12629.383817837694, 0.036000000000000004, 0.968, 0.156, 192.0, 0.0, 0.0, 0.0, 0.0, 0.0, 0.0, 0.0, 0.0, 0.0, 1.6878027773608792E9, 0.0, 2023-06-26 13:06:17.360
248.0, 46281.030330780784, 49016.12389279889, 57571.43289702331, -4370.034261945994, -7089.079271445188, -10370.740040628916, 18628.77084359775, 12579.293558513351, 0.036000000000000004, 0.968, 0.156, 192.0, 0.0, 0.0, 0.0, 0.0, 0.0, 0.0, 0.0, 0.0, 0.0, 1.6878027773648996E9, 0.0, 2023-06-26 13:06:17.364
249.0, 46321.03995335579, 49032.820645907006, 56228.36127619282, -4302.867269857797, -7058.345622819141, -10304.981208441402, 18660.040934090728, 12640.939669721089, 0.036000000000000004, 0.968, 0.156, 192.0, 0.0, 0.0, 0.0, 0.0, 0.0, 0.0, 0.0, 0.0, 0.0, 1.6878027773679247E9, 0.0, 2023-06-26 13:06:17.367
250.0, 46345.80568621227, 49058.122820630415, 54111.8745937198, -4247.256129652993, -6994.017302276767, -10235.176710507478, 18735.411016394024, 12719.863679392778, 0.036000000000000004, 0.968, 0.156, 192.0, 0.0, 0.0, 0.0, 0.0, 0.0, 0.0, 0.0, 0.0, 0.0, 1.6878027773719425E9, 0.0, 2023-06-26 13:06:17.371
251.0, 46327.47725575892, 49054.23361709519, 55159.50085634004, -4319.005229354529, -7039.324288287675, -10322.013237716346, 18686.75126871482, 12629.607335282248, 0.036000000000000004, 0.968, 0.156, 192.0, 0.0, 0.0, 0.0, 0.0, 0.0, 0.0, 0.0, 0.0, 0.0, 1.6878027773759542E9, 0.0, 2023-06-26 13:06:17.375
252.0, 46300.69986590146, 49036.240462808666, 57301.133251325286, -4352.801066970953, -7069.700309002436, -10352.232796219922, 18656.50935846679, 12600.281846556885, 0.036000000000000004, 0.968, 0.156, 192.0, 0.0, 0.0, 0.0, 0.0, 0.0, 0.0, 0.0, 0.0, 0.0, 1.687802777379968E9, 0.0, 2023-06-26 13:06:17.379
253.0, 46316.10021783116, 49027.70209642674, 56775.91196011448, -4321.218052055604, -7064.671166499993, -10309.719778265928, 18664.332469026147, 12635.843471985278, 0.036000000000000004, 0.968, 0.156, 192.0, 0.0, 0.0, 0.0, 0.0, 0.0, 0.0, 0.0, 0.0, 0.0, 1.6878027773839931E9, 0.0, 2023-06-26 13:06:17.383
254.0, 46353.114706649154, 49059.441573553275, 54200.499260485085, -4241.154103416694, -6987.758813829281, -10220.35750393361, 18752.04071426877, 12732.604173732303, 0.04, 0.972, 0.158, 192.0, 1.0, 64.0, 30.0, 96.0, 4.0, 240.0, 0.0, 0.0, 0.0, 1.687802777389016E9, 0.0, 2023-06-26 13:06:17.389
255.0, 46325.06326735774, 49048.08688736998, 54896.62198980117, -4312.23265078457, -7028.640154438038, -10302.94719969597, 18707.873667225085, 12651.668507059636, 0.04, 0.972, 0.158, 192.0, 0.0, 0.0, 0.0, 0.0, 0.0, 0.0, 0.0, 0.0, 0.0, 1.687802777393051E9, 0.0, 2023-06-26 13:06:17.393
0.0, 46292.45207219745, 49026.6739161818, 56991.203962707994, -4365.295692121469, -7075.2658933718085, -10364.52625567034, 18649.625021174554, 12583.49568647095, 0.04, 0.972, 0.158, 192.0, 0.0, 0.0, 0.0, 0.0, 0.0, 0.0, 0.0, 0.0, 0.0, 1.6878027773970587E9, 0.0, 2023-06-26 13:06:17.397
1.0, 46295.223688509905, 49009.6195351624, 57274.73584112357, -4346.43081980119, -7090.018044712311, -10341.90629028157, 18641.6007449151, 12595.431518010082, 0.04, 0.972, 0.158, 192.0, 0.0, 0.0, 0.0, 0.0, 0.0, 0.0, 0.0, 0.0, 0.0, 1.6878027774010794E9, 0.0, 2023-06-26 13:06:17.401
2.0, 46345.582168767716, 49048.51157051463, 54470.03894687164, -4246.831446508342, -7007.316590227675, -10235.333172718665, 18727.297333156745, 12704.910362352177, 0.04, 0.972, 0.158, 192.0, 0.0, 0.0, 0.0, 0.0, 0.0, 0.0, 0.0, 0.0, 0.0, 1.6878027774040985E9, 0.0, 2023-06-26 13:06:17.404
3.0, 46334.16042735105, 49054.16656186182, 54688.34843496662, -4286.863420827797, -7016.480805454351, -10275.901588905048, 18722.75992903232, 12674.623748615235, 0.04, 0.972, 0.158, 192.0, 0.0, 0.0, 0.0, 0.0, 0.0, 0.0, 0.0, 0.0, 0.0, 1.687802777409125E9, 0.0, 2023-06-26 13:06:17.409
4.0, 46309.99819159487, 49038.85561690994, 56592.24767592522, -4351.750534981553, -7068.314500846208, -10351.517540397352, 18659.124512568058, 12593.889247642666, 0.04, 0.972, 0.158, 192.0, 0.0, 0.0, 0.0, 0.0, 0.0, 0.0, 0.0, 0.0, 0.0, 1.68780277741421E9, 0.0, 2023-06-26 13:06:17.414
5.0, 46285.67949362749, 49002.37756995888, 57618.01393246817, -4363.552256053956, -7108.12295772111, -10359.251243978888, 18629.21787848686, 12577.907750357122, 0.04, 0.972, 0.158, 192.0, 0.0, 0.0, 0.0, 0.0, 0.0, 0.0, 0.0, 0.0, 0.0, 1.6878027774182327E9, 0.0, 2023-06-26 13:06:17.418
6.0, 46348.82317171373, 49049.6291577374, 54830.460826213464, -4256.152123946205, -7011.67518039646, -10245.391457723554, 18730.851260525138, 12693.89095233571, 0.04, 0.972, 0.158, 192.0, 0.0, 0.0, 0.0, 0.0, 0.0, 0.0, 0.0, 0.0, 0.0, 1.687802777421219E9, 0.0, 2023-06-26 13:06:17.421
7.0, 46336.50736051886, 49053.786582206085, 54476.655063230406, -4273.564132876889, -7009.887040840035, -10256.79084739576, 18742.22829845289, 12693.622731402247, 0.04, 0.972, 0.158, 192.0, 0.0, 0.0, 0.0, 0.0, 0.0, 0.0, 0.0, 0.0, 0.0, 1.6878027774242244E9, 0.0, 2023-06-26 13:06:17.424
8.0, 46323.85627315716, 49050.009137393135, 56205.49544161504, -4339.725296464598, -7049.874311670579, -10347.896557795591, 18680.068097122683, 12615.771605464412, 0.044, 0.98, 0.158, 192.0, 1.0, 96.0, 30.0, 160.0, 4.0, 240.0, 0.0, 0.0, 0.0, 1.6878027774282E9, 0.0, 2023-06-26 13:06:17.428
9.0, 46290.70863612994, 49014.82749162048, 57773.24679771028, -4360.311253107936, -7095.114242448121, -10353.082162509223, 18646.40636997299, 12593.375157520195, 0.044, 0.98, 0.158, 192.0, 0.0, 0.0, 0.0, 0.0, 0.0, 0.0, 0.0, 0.0, 0.0, 1.6878027774322357E9, 0.0, 2023-06-26 13:06:17.432
10.0, 46343.30229083327, 49045.85171292445, 55290.19150617022, -4266.746850818021, -7035.368029519085, -10245.950251334936, 18708.007777691815, 12681.8433620743, 0.044, 0.98, 0.158, 192.0, 0.0, 0.0, 0.0, 0.0, 0.0, 0.0, 0.0, 0.0, 0.0, 1.687802777436254E9, 0.0, 2023-06-26 13:06:17.436
11.0, 46351.70654674847, 49065.54359978958, 54314.9178403518, -4257.761449546987, -7003.3603314590855, -10236.316649474698, 18748.218565966912, 12707.771385642456, 0.044, 0.98, 0.158, 192.0, 0.0, 0.0, 0.0, 0.0, 0.0, 0.0, 0.0, 0.0, 0.0, 1.6878027774402783E9, 0.0, 2023-06-26 13:06:17.440
12.0, 46335.97091865193, 49063.151963132856, 55836.177567980005, -4326.828339913885, -7045.403962779518, -10324.51663309534, 18689.411126305, 12618.92320143261, 0.044, 0.98, 0.158, 192.0, 0.0, 0.0, 0.0, 0.0, 0.0, 0.0, 0.0, 0.0, 0.0, 1.6878027774442933E9, 0.0, 2023-06-26 13:06:17.444
13.0, 46289.18871750697, 49018.02379107759, 57765.93777727339, -4365.72037526612, -7099.048149472255, -10363.922758570046, 18647.367494984566, 12581.416974236605, 0.044, 0.98, 0.158, 192.0, 0.0, 0.0, 0.0, 0.0, 0.0, 0.0, 0.0, 0.0, 0.0, 1.687802777449322E9, 0.0, 2023-06-26 13:06:17.449
14.0, 46331.05353487177, 49031.971279617705, 55835.64112611308, -4289.478574929068, -7053.294128572242, -10275.454554015942, 18690.863989694597, 12652.897853004677, 0.044, 0.98, 0.158, 192.0, 0.0, 0.0, 0.0, 0.0, 0.0, 0.0, 0.0, 0.0, 0.0, 1.6878027774523327E9, 0.0, 2023-06-26 13:06:17.452
15.0, 46345.47041004544, 49055.597073506964, 54222.06869388446, -4256.062716968384, -7001.460433180384, -10237.031905297268, 18754.477054414398, 12711.727644411045, 0.044, 0.98, 0.158, 192.0, 0.0, 0.0, 0.0, 0.0, 0.0, 0.0, 0.0, 0.0, 0.0, 1.6878027774553545E9, 0.0, 2023-06-26 13:06:17.455
16.0, 46326.3820202806, 49052.15490486084, 55513.194860600815, -4323.207357312126, -7050.209587837409, -10325.924792996026, 18699.581170032165, 12622.566535778826, 0.044, 0.98, 0.158, 192.0, 0.0, 0.0, 0.0, 0.0, 0.0, 0.0, 0.0, 0.0, 0.0, 1.6878027774603846E9, 0.0, 2023-06-26 13:06:17.460
17.0, 46271.530839387284, 48999.85182283543, 57631.804958797096, -4382.640645818788, -7112.258030445341, -10375.05392730879, 18644.573526927656, 12569.950529331032, 0.044, 0.98, 0.158, 192.0, 0.0, 0.0, 0.0, 0.0, 0.0, 0.0, 0.0, 0.0, 0.0, 1.6878027774647267E9, 0.0, 2023-06-26 13:06:17.464
18.0, 46301.41512172403, 49006.04325604955, 56421.18977560876, -4329.264680059514, -7095.918905248512, -10314.972438212924, 18661.918480624972, 12618.766739221424, 0.05, 0.978, 0.16, 192.0, 1.0, 144.0, 30.0, 144.0, 5.0, 0.0, 0.0, 0.0, 0.0, 1.6878027774684205E9, 0.0, 2023-06-26 13:06:17.468
19.0, 46351.013642670354, 49058.413393308336, 54247.32616511895, -4237.823693492853, -6996.163069744476, -10220.536317889253, 18761.674316129007, 12725.697484695613, 0.05, 0.978, 0.16, 192.0, 0.0, 0.0, 0.0, 0.0, 0.0, 0.0, 0.0, 0.0, 0.0, 1.6878027774744377E9, 0.0, 2023-06-26 13:06:17.474
20.0, 46335.36742155164, 49058.79337296407, 55224.16445304924, -4305.527127447978, -7039.324288287675, -10297.85100196016, 18714.13215567257, 12647.712248291045, 0.05, 0.978, 0.16, 192.0, 0.0, 0.0, 0.0, 0.0, 0.0, 0.0, 0.0, 0.0, 0.0, 1.6878027774774654E9, 0.0, 2023-06-26 13:06:17.477
21.0, 46295.40250246555, 49027.1209510709, 57342.52868205651, -4351.258796603536, -7091.627370313093, -10353.1939212315, 18661.605556202598, 12591.54231447486, 0.05, 0.978, 0.16, 192.0, 0.0, 0.0, 0.0, 0.0, 0.0, 0.0, 0.0, 0.0, 0.0, 1.6878027774814596E9, 0.0, 2023-06-26 13:06:17.481
22.0, 46310.7805026508, 49021.622421934895, 56935.59282250319, -4312.478519973579, -7095.047187214755, -10305.60705728615, 18665.22653880436, 12624.108806146241, 0.05, 0.978, 0.16, 192.0, 0.0, 0.0, 0.0, 0.0, 0.0, 0.0, 0.0, 0.0, 0.0, 1.6878027774854777E9, 0.0, 2023-06-26 13:06:17.485
23.0, 46353.7405554939, 49060.96149217624, 54325.62432594589, -4232.772199245954, -7011.183442018443, -10209.78512880625, 18752.979487535893, 12732.246545821017, 0.05, 0.978, 0.16, 192.0, 0.0, 0.0, 0.0, 0.0, 0.0, 0.0, 0.0, 0.0, 0.0, 1.6878027774895287E9, 0.0, 2023-06-26 13:06:17.489
24.0, 46333.758095950856, 49054.23361709519, 54951.316708483304, -4287.668083628188, -7038.899605143024, -10280.818972685216, 18720.770623775796, 12664.632518843713, 0.05, 0.978, 0.16, 192.0, 0.0, 0.0, 0.0, 0.0, 0.0, 0.0, 0.0, 0.0, 0.0, 1.6878027774935305E9, 0.0, 2023-06-26 13:06:17.493
25.0, 46305.796063637266, 49032.91005288483, 56982.24091318142, -4342.988651155073, -7091.917942991012, -10348.1424269846, 18659.25862303479, 12589.463602240516, 0.05, 0.978, 0.16, 192.0, 0.0, 0.0, 0.0, 0.0, 0.0, 0.0, 0.0, 0.0, 0.0, 1.6878027774975495E9, 0.0, 2023-06-26 13:06:17.497
26.0, 46301.99626707986, 49013.53109044208, 57353.771609517535, -4330.091694604361, -7105.776024553303, -10325.187185429, 18655.592936944122, 12606.249762326452, 0.05, 0.978, 0.16, 192.0, 0.0, 0.0, 0.0, 0.0, 0.0, 0.0, 0.0, 0.0, 0.0, 1.6878027775025868E9, 0.0, 2023-06-26 13:06:17.502
27.0, 46344.82220945624, 49045.15880884633, 54559.334165970584, -4233.286289368426, -7019.364180489085, -10220.02222776678, 18746.81040606623, 12722.970571872065, 0.05, 0.978, 0.16, 192.0, 0.0, 0.0, 0.0, 0.0, 0.0, 0.0, 0.0, 0.0, 0.0, 1.6878027775055933E9, 0.0, 2023-06-26 13:06:17.505
28.0, 46335.725049462926, 49051.17142810481, 54738.28223207978, -4274.748775333021, -7032.842282395635, -10274.851056915648, 18735.05338848274, 12680.993995784998, 0.05, 0.978, 0.16, 192.0, 0.0, 0.0, 0.0, 0.0, 0.0, 0.0, 0.0, 0.0, 0.0, 1.6878027775106237E9, 0.0, 2023-06-26 13:06:17.510
29.0, 46314.669706186025, 49040.33083204399, 56597.58974285004, -4338.741819708564, -7082.64196904206, -10346.041363005801, 18673.899015653016, 12596.191477321563, 0.048, 0.988, 0.152, 192.0, 1.0, 128.0, 30.0, 224.0, 4.0, 192.0, 0.0, 0.0, 0.0, 1.6878027775136237E9, 0.0, 2023-06-26 13:06:17.513
30.0, 46290.64158089657, 49009.28425899557, 57645.014839770185, -4351.527017537001, -7110.626353100104, -10346.71191533946, 18651.97195434236, 12589.374195262695, 0.048, 0.988, 0.152, 192.0, 0.0, 0.0, 0.0, 0.0, 0.0, 0.0, 0.0, 0.0, 0.0, 1.6878027775166416E9, 0.0, 2023-06-26 13:06:17.516
31.0, 46348.10791589117, 49051.64081473838, 54897.24783864592, -4249.021917464962, -7028.81896839368, -10241.636364655062, 18727.99023723486, 12694.025062802442, 0.048, 0.988, 0.152, 192.0, 0.0, 0.0, 0.0, 0.0, 0.0, 0.0, 0.0, 0.0, 0.0, 1.6878027775206497E9, 0.0, 2023-06-26 13:06:17.520
32.0, 46340.50832277636, 49056.08881188498, 54528.26524117771, -4266.165705462183, -7023.655715424504, -10252.141684549057, 18743.301182186744, 12694.98618781402, 0.048, 0.988, 0.152, 192.0, 0.0, 0.0, 0.0, 0.0, 0.0, 0.0, 0.0, 0.0, 0.0, 1.6878027775246897E9, 0.0, 2023-06-26 13:06:17.524
33.0, 46317.57543296521, 49044.3764977904, 56203.39437763624, -4340.820531942908, -7066.1687333784985, -10340.81105480326, 18681.342146556635, 12604.439271025572, 0.048, 0.988, 0.152, 192.0, 0.0, 0.0, 0.0, 0.0, 0.0, 0.0, 0.0, 0.0, 0.0, 1.6878027775317297E9, 0.0, 2023-06-26 13:06:17.531
34.0, 46283.913705815525, 49004.85861359342, 57778.119478001536, -4371.308311379947, -7112.54860312326, -10360.078258523734, 18648.97682058535, 12578.399488735138, 0.048, 0.988, 0.152, 192.0, 0.0, 0.0, 0.0, 0.0, 0.0, 0.0, 0.0, 0.0, 0.0, 1.687802777534736E9, 0.0, 2023-06-26 13:06:17.534
35.0, 46341.514151276846, 49036.35222153094, 55331.05049503452, -4270.658406097699, -7047.817951180691, -10254.086286316668, 18711.56170506021, 12675.383707926716, 0.048, 0.988, 0.152, 192.0, 0.0, 0.0, 0.0, 0.0, 0.0, 0.0, 0.0, 0.0, 0.0, 1.6878027775377464E9, 0.0, 2023-06-26 13:06:17.537
36.0, 46336.10502911866, 49041.627233222396, 54352.75934371464, -4266.031594995451, -7019.587697933638, -10240.02703905428, 18750.163167734525, 12706.676150164147, 0.048, 0.988, 0.152, 192.0, 0.0, 0.0, 0.0, 0.0, 0.0, 0.0, 0.0, 0.0, 0.0, 1.6878027775417936E9, 0.0, 2023-06-26 13:06:17.541
37.0, 46328.19251158149, 49045.44938152425, 55801.8229367522, -4333.690325461665, -7058.949119919434, -10326.125958696122, 18695.401393819022, 12615.324570575307, 0.048, 0.988, 0.152, 192.0, 0.0, 0.0, 0.0, 0.0, 0.0, 0.0, 0.0, 0.0, 0.0, 1.687802777544764E9, 0.0, 2023-06-26 13:06:17.544
38.0, 46287.55704016174, 49008.1666717728, 57682.58812219955, -4373.632892803299, -7102.69148381847, -10360.301775968288, 18648.418026973966, 12580.29938701384, 0.048, 0.988, 0.152, 192.0, 0.0, 0.0, 0.0, 0.0, 0.0, 0.0, 0.0, 0.0, 0.0, 1.6878027775478141E9, 0.0, 2023-06-26 13:06:17.547
39.0, 46320.481159744406, 49015.7215613987, 55838.03276276979, -4303.582525680366, -7071.555503792228, -10286.049280887757, 18687.622986748574, 12646.304088390361, 0.05, 0.978, 0.152, 192.0, 1.0, 144.0, 30.0, 144.0, 4.0, 192.0, 0.0, 0.0, 0.0, 1.6878027775528233E9, 0.0, 2023-06-26 13:06:17.552
40.0, 46340.195398353986, 49044.28709081258, 54242.229967383144, -4255.347461145814, -7009.305895484197, -10228.493538915342, 18758.388609694077, 12715.818013646367, 0.05, 0.978, 0.152, 192.0, 0.0, 0.0, 0.0, 0.0, 0.0, 0.0, 0.0, 0.0, 0.0, 1.6878027775568447E9, 0.0, 2023-06-26 13:06:17.556
41.0, 46330.45003777147, 49049.740916459676, 55490.66430218986, -4320.3016305329365, -7046.63330872456, -10304.42241483002, 18709.4159375925, 12636.469320830027, 0.05, 0.978, 0.152, 192.0, 0.0, 0.0, 0.0, 0.0, 0.0, 0.0, 0.0, 0.0, 0.0, 1.6878027775608695E9, 0.0, 2023-06-26 13:06:17.560
42.0, 46290.9768570634, 49016.99561083265, 57506.85870729193, -4363.172276398215, -7097.952913993945, -10350.019973518845, 18661.002059102306, 12590.312968529817, 0.05, 0.978, 0.152, 192.0, 0.0, 0.0, 0.0, 0.0, 0.0, 0.0, 0.0, 0.0, 0.0, 1.6878027775638769E9, 0.0, 2023-06-26 13:06:17.563
43.0, 46322.716334189936, 49024.12581731389, 56357.46495216667, -4302.263772757504, -7078.663358529015, -10287.300978577254, 18681.945643656927, 12639.889137731689, 0.05, 0.978, 0.152, 192.0, 0.0, 0.0, 0.0, 0.0, 0.0, 0.0, 0.0, 0.0, 0.0, 1.687802777567881E9, 0.0, 2023-06-26 13:06:17.567
44.0, 46354.7910874833, 49056.87112294092, 54213.53032750253, -4234.761504502476, -7009.037674550734, -10213.339056174644, 18758.880348072096, 12723.842289905822, 0.05, 0.978, 0.152, 192.0, 0.0, 0.0, 0.0, 0.0, 0.0, 0.0, 0.0, 0.0, 0.0, 1.6878027775729053E9, 0.0, 2023-06-26 13:06:17.572
45.0, 46343.50345653337, 49057.47462004121, 55203.17616500571, -4302.844918113341, -7047.482675013862, -10299.66149326104, 18707.73955675835, 12636.446969085571, 0.05, 0.978, 0.152, 192.0, 0.0, 0.0, 0.0, 0.0, 0.0, 0.0, 0.0, 0.0, 0.0, 1.6878027775769286E9, 0.0, 2023-06-26 13:06:17.576
46.0, 46310.10995031714, 49034.29586104106, 57187.251113325496, -4351.057630903439, -7085.9723789659, -10357.776028844837, 18661.560852713686, 12582.199285292541, 0.05, 0.978, 0.152, 192.0, 0.0, 0.0, 0.0, 0.0, 0.0, 0.0, 0.0, 0.0, 0.0, 1.6878027775799408E9, 0.0, 2023-06-26 13:06:17.579
47.0, 46316.413142253536, 49019.99074458966, 56854.09836221914, -4323.4755782455895, -7096.947085493456, -10319.554545826262, 18658.722181167865, 12606.11565185972, 0.05, 0.978, 0.152, 192.0, 0.0, 0.0, 0.0, 0.0, 0.0, 0.0, 0.0, 0.0, 0.0, 1.6878027775849996E9, 0.0, 2023-06-26 13:06:17.584
48.0, 46350.70071824798, 49050.83615193798, 54323.09857882245, -4242.830484250842, -7015.229107764853, -10226.50423365882, 18742.250650197348, 12711.459423477581, 0.05, 0.978, 0.152, 192.0, 0.0, 0.0, 0.0, 0.0, 0.0, 0.0, 0.0, 0.0, 0.0, 1.687802777587974E9, 0.0, 2023-06-26 13:06:17.587
49.0, 46330.83001742721, 49048.28805307008, 54992.242752580976, -4304.141319291749, -7043.1017331006215, -10298.052167660257, 18713.863934739107, 12645.231204656508, 0.038, 0.978, 0.152, 192.0, 1.0, 48.0, 30.0, 144.0, 4.0, 192.0, 0.0, 0.0, 0.0, 1.687802777593017E9, 0.0, 2023-06-26 13:06:17.593
50.0, 46307.07011307122, 49029.98197436118, 56851.23733892886, -4352.041107659472, -7080.16092540752, -10357.820732333748, 18669.607480717597, 12584.568570204803, 0.038, 0.978, 0.152, 192.0, 0.0, 0.0, 0.0, 0.0, 0.0, 0.0, 0.0, 0.0, 0.0, 1.6878027775960164E9, 0.0, 2023-06-26 13:06:17.596
51.0, 46298.241174011375, 49003.47280543719, 57264.23052122957, -4347.280186090492, -7101.775062295803, -10341.57101411474, 18657.805759645194, 12596.593808721758, 0.038, 0.978, 0.152, 192.0, 0.0, 0.0, 0.0, 0.0, 0.0, 0.0, 0.0, 0.0, 0.0, 1.6878027776000464E9, 0.0, 2023-06-26 13:06:17.600
52.0, 46345.582168767716, 49037.40275352034, 54531.595651101554, -4244.551568573901, -7019.140663044533, -10233.768550606794, 18740.015475751814, 12703.770423384956, 0.038, 0.978, 0.152, 192.0, 0.0, 0.0, 0.0, 0.0, 0.0, 0.0, 0.0, 0.0, 0.0, 1.6878027776040647E9, 0.0, 2023-06-26 13:06:17.604
53.0, 46325.55500573576, 49033.67001219631, 54789.80300304926, -4291.46788018559, -7033.244613795831, -10281.847152930159, 18726.827946523186, 12665.615995599746, 0.038, 0.978, 0.152, 192.0, 0.0, 0.0, 0.0, 0.0, 0.0, 0.0, 0.0, 0.0, 0.0, 1.687802777608101E9, 0.0, 2023-06-26 13:06:17.608
54.0, 46304.96904909242, 49023.298802769044, 56500.9855033142, -4353.426915815701, -7075.467059071906, -10359.72063061245, 18668.758114428296, 12584.00977659342, 0.038, 0.978, 0.152, 192.0, 0.0, 0.0, 0.0, 0.0, 0.0, 0.0, 0.0, 0.0, 0.0, 1.6878027776120996E9, 0.0, 2023-06-26 13:06:17.612
55.0, 46293.748473375854, 49001.30468622502, 57517.989876030675, -4355.840904216874, -7100.076329717199, -10357.105476511178, 18652.88837586503, 12579.025337579887, 0.038, 0.978, 0.152, 192.0, 0.0, 0.0, 0.0, 0.0, 0.0, 0.0, 0.0, 0.0, 0.0, 1.6878027776161208E9, 0.0, 2023-06-26 13:06:17.616
56.0, 46343.45875304446, 49032.597128462454, 54833.21009078147, -4256.643862324222, -7024.035695080244, -10248.811274625215, 18728.45962386842, 12685.263178975962, 0.038, 0.978, 0.152, 192.0, 0.0, 0.0, 0.0, 0.0, 0.0, 0.0, 0.0, 0.0, 0.0, 1.687802777619225E9, 0.0, 2023-06-26 13:06:17.619
57.0, 46333.825151184225, 49040.53199774409, 54573.0804888106, -4270.613702608789, -7013.619782164072, -10258.713097418917, 18749.269097956312, 12691.745184868001, 0.038, 0.978, 0.152, 192.0, 0.0, 0.0, 0.0, 0.0, 0.0, 0.0, 0.0, 0.0, 0.0, 1.6878027776242073E9, 0.0, 2023-06-26 13:06:17.624
58.0, 46322.06813360073, 49039.07913435449, 56105.449033433084, -4329.063514359416, -7056.870407685091, -10333.300868666276, 18690.439306549946, 12611.54712576236, 0.038, 0.978, 0.152, 192.0, 0.0, 0.0, 0.0, 0.0, 0.0, 0.0, 0.0, 0.0, 0.0, 1.6878027776281955E9, 0.0, 2023-06-26 13:06:17.628
59.0, 46284.047816282255, 48996.320247211486, 57610.749615520195, -4359.528942052, -7104.12199546361, -10355.540854399307, 18653.82714913215, 12587.697814428546, 0.04, 0.978, 0.15, 192.0, 1.0, 64.0, 30.0, 144.0, 4.0, 176.0, 0.0, 0.0, 0.0, 1.687802777632212E9, 0.0, 2023-06-26 13:06:17.632
60.0, 46335.03214538481, 49025.13164581438, 55266.43160181423, -4267.4174031516795, -7044.576948234671, -10256.701440417939, 18713.729824272374, 12679.250559717484, 0.04, 0.978, 0.15, 192.0, 0.0, 0.0, 0.0, 0.0, 0.0, 0.0, 0.0, 0.0, 0.0, 1.6878027776362212E9, 0.0, 2023-06-26 13:06:17.636
61.0, 46327.07492435872, 49028.976145860695, 54437.293641244614, -4266.098650228817, -7024.840357880636, -10251.426428726487, 18746.832757810684, 12697.020196559453, 0.04, 0.978, 0.15, 192.0, 0.0, 0.0, 0.0, 0.0, 0.0, 0.0, 0.0, 0.0, 0.0, 1.6878027776402595E9, 0.0, 2023-06-26 13:06:17.640
62.0, 46310.15465380605, 49023.432913235774, 55825.78400680829, -4335.232595829081, -7076.294073616752, -10344.588499616206, 18674.681326708953, 12597.532581988882, 0.04, 0.978, 0.15, 192.0, 0.0, 0.0, 0.0, 0.0, 0.0, 0.0, 0.0, 0.0, 0.0, 1.687802777643257E9, 0.0, 2023-06-26 13:06:17.643
63.0, 46276.33646444517, 48991.46991866469, 57569.77886793362, -4367.664977033732, -7118.114187492632, -10374.361023230675, 18630.648390132, 12569.279976997374, 0.04, 0.978, 0.15, 192.0, 0.0, 0.0, 0.0, 0.0, 0.0, 0.0, 0.0, 0.0, 0.0, 1.687802777647277E9, 0.0, 2023-06-26 13:06:17.647
64.0, 46324.683287702, 49018.828453877984, 55781.52755278678, -4283.398900437224, -7067.621596768093, -10285.132859365089, 18687.198303603924, 12650.8861960037, 0.04, 0.978, 0.15, 192.0, 0.0, 0.0, 0.0, 0.0, 0.0, 0.0, 0.0, 0.0, 0.0, 1.6878027776512942E9, 0.0, 2023-06-26 13:06:17.651
65.0, 46336.686174474504, 49040.442590766266, 54341.98580288718, -4242.338745872825, -7011.317552485175, -10233.097998273135, 18759.506196916842, 12719.953086370599, 0.04, 0.978, 0.15, 192.0, 0.0, 0.0, 0.0, 0.0, 0.0, 0.0, 0.0, 0.0, 0.0, 1.6878027776573565E9, 0.0, 2023-06-26 13:06:17.657
66.0, 46322.582223723206, 49036.66514595332, 55586.84385858105, -4315.697171175143, -7062.570102521194, -10327.936449997003, 18690.729879227863, 12621.650114256157, 0.04, 0.978, 0.15, 192.0, 0.0, 0.0, 0.0, 0.0, 0.0, 0.0, 0.0, 0.0, 0.0, 1.6878027776603465E9, 0.0, 2023-06-26 13:06:17.660
67.0, 46283.51137441533, 49001.148224013836, 57376.771554562045, -4356.62321527281, -7108.771158310314, -10365.822656848748, 18651.659029919985, 12583.361576004218, 0.04, 0.978, 0.15, 192.0, 0.0, 0.0, 0.0, 0.0, 0.0, 0.0, 0.0, 0.0, 0.0, 1.6878027776653712E9, 0.0, 2023-06-26 13:06:17.665
68.0, 46312.76980790732, 49008.94898282874, 56281.916055907735, -4302.911973346707, -7093.370806380607, -10303.304827607255, 18667.864044650083, 12630.032018426899, 0.04, 0.978, 0.15, 192.0, 0.0, 0.0, 0.0, 0.0, 0.0, 0.0, 0.0, 0.0, 0.0, 1.6878027776704028E9, 0.0, 2023-06-26 13:06:17.670
69.0, 46335.25566282936, 49035.72637268619, 54298.15403201032, -4247.323184886359, -7021.4428927234285, -10237.478940186375, 18741.513042630322, 12708.307827509383, 0.04, 0.978, 0.15, 192.0, 0.0, 0.0, 0.0, 0.0, 0.0, 0.0, 0.0, 0.0, 0.0, 1.6878027776734166E9, 0.0, 2023-06-26 13:06:17.673
70.0, 46313.909746874546, 49025.824549892495, 55408.186365149784, -4316.278316530981, -7064.358242077618, -10328.629354075118, 18686.37128905908, 12621.8289282118, 0.05, 0.974, 0.15, 192.0, 1.0, 144.0, 30.0, 112.0, 4.0, 176.0, 0.0, 0.0, 0.0, 1.687802777676437E9, 0.0, 2023-06-26 13:06:17.676
71.0, 46283.86900232661, 49000.097692024436, 57100.81691751682, -4364.714546765631, -7108.88291703259, -10380.284235511332, 18641.220765259357, 12572.990366576954, 0.05, 0.974, 0.15, 192.0, 0.0, 0.0, 0.0, 0.0, 0.0, 0.0, 0.0, 0.0, 0.0, 1.6878027776794412E9, 0.0, 2023-06-26 13:06:17.679
72.0, 46301.48217695739, 48999.98593330216, 56738.18221547392, -4329.242328315059, -7108.212364698931, -10337.435941390508, 18650.96612584187, 12598.337244789273, 0.05, 0.974, 0.15, 192.0, 0.0, 0.0, 0.0, 0.0, 0.0, 0.0, 0.0, 0.0, 0.0, 1.687802777683458E9, 0.0, 2023-06-26 13:06:17.683
73.0, 46347.30325309077, 49043.66124196783, 54316.50481420813, -4242.226987150549, -7016.905488599002, -10244.944422834447, 18740.306048429735, 12691.968702312553, 0.05, 0.974, 0.15, 192.0, 0.0, 0.0, 0.0, 0.0, 0.0, 0.0, 0.0, 0.0, 0.0, 1.687802777688465E9, 0.0, 2023-06-26 13:06:17.688
74.0, 46330.65120347157, 49041.537826244574, 55212.89917384377, -4296.765243621498, -7053.53999776125, -10305.338836352686, 18704.83382997916, 12642.727809277512, 0.05, 0.974, 0.15, 192.0, 0.0, 0.0, 0.0, 0.0, 0.0, 0.0, 0.0, 0.0, 0.0, 1.6878027776925025E9, 0.0, 2023-06-26 13:06:17.692
75.0, 46310.892261373076, 49025.2210527922, 56771.62042517906, -4341.8487121878525, -7095.248352914853, -10361.061735279767, 18651.279050264246, 12579.405317235627, 0.05, 0.974, 0.15, 192.0, 0.0, 0.0, 0.0, 0.0, 0.0, 0.0, 0.0, 0.0, 0.0, 1.6878027776965415E9, 0.0, 2023-06-26 13:06:17.696
76.0, 46298.35293273365, 49000.12004376889, 57131.170586487126, -4336.3278313073915, -7117.711856092436, -10352.85864506467, 18639.7008466364, 12581.528732958883, 0.05, 0.974, 0.15, 192.0, 0.0, 0.0, 0.0, 0.0, 0.0, 0.0, 0.0, 0.0, 0.0, 1.687802777699534E9, 0.0, 2023-06-26 13:06:17.699
77.0, 46348.53259903582, 49041.0237361221, 54512.46255784781, -4235.610870791777, -7031.523529472773, -10242.485730944363, 18728.861955268618, 12699.724757638545, 0.05, 0.974, 0.15, 192.0, 0.0, 0.0, 0.0, 0.0, 0.0, 0.0, 0.0, 0.0, 0.0, 1.6878027777036111E9, 0.0, 2023-06-26 13:06:17.703
78.0, 46326.761999936345, 49037.40275352034, 55101.87805913426, -4283.287141714948, -7050.388401793051, -10294.118260636124, 18712.500478327333, 12654.8871582612, 0.05, 0.974, 0.15, 192.0, 0.0, 0.0, 0.0, 0.0, 0.0, 0.0, 0.0, 0.0, 0.0, 1.6878027777075872E9, 0.0, 2023-06-26 13:06:17.707
79.0, 46309.03706658329, 49025.332811514476, 56527.651134449385, -4330.896357404752, -7087.872277244602, -10353.439790420509, 18658.297498023214, 12592.63754995317, 0.05, 0.974, 0.15, 192.0, 0.0, 0.0, 0.0, 0.0, 0.0, 0.0, 0.0, 0.0, 0.0, 1.6878027777116077E9, 0.0, 2023-06-26 13:06:17.711
80.0, 46287.199412250455, 48994.21918323269, 57411.46146195668, -4339.233558086581, -7117.845966559168, -10354.132694498623, 18639.477329191843, 12586.669634183603, 0.058, 0.974, 0.14200000000000002, 192.0, 1.0, 208.0, 30.0, 112.0, 4.0, 112.0, 0.0, 0.0, 0.0, 1.6878027777156224E9, 0.0, 2023-06-26 13:06:17.715
81.0, 46349.38196532512, 49041.38136403339, 54794.094537984674, -4233.643917279711, -7033.557538218205, -10244.877367601082, 18725.4197866225, 12694.695615136101, 0.058, 0.974, 0.14200000000000002, 192.0, 0.0, 0.0, 0.0, 0.0, 0.0, 0.0, 0.0, 0.0, 0.0, 1.6878027777206447E9, 0.0, 2023-06-26 13:06:17.720
82.0, 46321.799912667266, 49033.737067429676, 54914.19046094304, -4265.964539762084, -7038.743142931837, -10274.247559815354, 18730.448929124945, 12678.17767598363, 0.058, 0.974, 0.14200000000000002, 192.0, 0.0, 0.0, 0.0, 0.0, 0.0, 0.0, 0.0, 0.0, 0.0, 1.6878027777246797E9, 0.0, 2023-06-26 13:06:17.724
83.0, 46305.17021479252, 49022.76236090212, 56281.96075939665, -4329.376438781791, -7089.9733412234, -10352.277499708833, 18663.907785881496, 12588.122497573197, 0.058, 0.974, 0.14200000000000002, 192.0, 0.0, 0.0, 0.0, 0.0, 0.0, 0.0, 0.0, 0.0, 0.0, 1.6878027777276917E9, 0.0, 2023-06-26 13:06:17.727
84.0, 46284.07016802671, 48996.92374431178, 57507.015169503116, -4346.09554363436, -7113.040341501277, -10359.117133512156, 18648.485082207335, 12581.416974236605, 0.058, 0.974, 0.14200000000000002, 192.0, 0.0, 0.0, 0.0, 0.0, 0.0, 0.0, 0.0, 0.0, 0.0, 1.6878027777327273E9, 0.0, 2023-06-26 13:06:17.732
85.0, 46341.00006115437, 49031.14426507286, 55190.03333926599, -4257.3814698912465, -7051.617747738093, -10260.367126508609, 18711.628760293577, 12671.65096660268, 0.058, 0.974, 0.14200000000000002, 192.0, 0.0, 0.0, 0.0, 0.0, 0.0, 0.0, 0.0, 0.0, 0.0, 1.687802777735734E9, 0.0, 2023-06-26 13:06:17.735
86.0, 46325.13032259111, 49035.43580000828, 54667.33779517863, -4254.475743112057, -7035.368029519085, -10254.958004350425, 18741.937725774973, 12696.148478525696, 0.058, 0.974, 0.14200000000000002, 192.0, 0.0, 0.0, 0.0, 0.0, 0.0, 0.0, 0.0, 0.0, 0.0, 1.6878027777407568E9, 0.0, 2023-06-26 13:06:17.740
87.0, 46307.22657528241, 49025.31045977002, 56044.83110247029, -4323.162653823216, -7089.548658078749, -10342.308621681765, 18670.32273654017, 12599.946570390055, 0.058, 0.974, 0.14200000000000002, 192.0, 0.0, 0.0, 0.0, 0.0, 0.0, 0.0, 0.0, 0.0, 0.0, 1.6878027777447517E9, 0.0, 2023-06-26 13:06:17.744
88.0, 46280.78446159178, 48997.32607571198, 57476.48268657717, -4347.794276212964, -7124.327972451208, -10367.029651049335, 18644.77469262775, 12582.981596348476, 0.058, 0.974, 0.14200000000000002, 192.0, 0.0, 0.0, 0.0, 0.0, 0.0, 0.0, 0.0, 0.0, 0.0, 1.6878027777498004E9, 0.0, 2023-06-26 13:06:17.749
89.0, 46327.812531925745, 49022.069456824, 55696.68033083443, -4270.680757842155, -7085.994730710356, -10285.80341169875, 18685.186646602946, 12651.892024504188, 0.058, 0.974, 0.14200000000000002, 192.0, 0.0, 0.0, 0.0, 0.0, 0.0, 0.0, 0.0, 0.0, 0.0, 1.6878027777558172E9, 0.0, 2023-06-26 13:06:17.755
90.0, 46336.66382273005, 49042.02956462259, 54409.756292075675, -4230.268803866959, -7029.087189327144, -10239.110617531613, 18745.93868803247, 12715.214516546073, 0.066, 0.97, 0.136, 192.0, 2.0, 16.0, 30.0, 80.0, 4.0, 64.0, 0.0, 0.0, 0.0, 1.687802777758833E9, 0.0, 2023-06-26 13:06:17.758
91.0, 46320.12353183312, 49036.307518042035, 55750.83860764964, -4304.9906855810505, -7084.430108598484, -10329.076388964224, 18678.034088377248, 12612.240029840474, 0.066, 0.97, 0.136, 192.0, 0.0, 0.0, 0.0, 0.0, 0.0, 0.0, 0.0, 0.0, 0.0, 1.6878027777618484E9, 0.0, 2023-06-26 13:06:17.761
92.0, 46296.2295170104, 49011.83235786347, 57315.25955382104, -4342.09458137686, -7122.204556727953, -10372.52818018534, 18635.565773912167, 12568.698831641535, 0.066, 0.97, 0.136, 192.0, 0.0, 0.0, 0.0, 0.0, 0.0, 0.0, 0.0, 0.0, 0.0, 1.6878027777648547E9, 0.0, 2023-06-26 13:06:17.764
93.0, 46322.33635453419, 49013.84401486445, 56261.777134153504, -4294.150089520227, -7111.967457767422, -10318.772234770327, 18648.038047318227, 12610.809518195334, 0.066, 0.97, 0.136, 192.0, 0.0, 0.0, 0.0, 0.0, 0.0, 0.0, 0.0, 0.0, 0.0, 1.6878027777688718E9, 0.0, 2023-06-26 13:06:17.768
94.0, 46350.72306999243, 49046.34345130247, 54319.83522413197, -4229.866472466764, -7039.212529565398, -10250.778228137282, 18726.760891289818, 12690.135859267219, 0.066, 0.97, 0.136, 192.0, 0.0, 0.0, 0.0, 0.0, 0.0, 0.0, 0.0, 0.0, 0.0, 1.6878027777718787E9, 0.0, 2023-06-26 13:06:17.771
95.0, 46323.051610356764, 49031.3230790285, 55540.01695394718, -4306.242383270548, -7091.135631935076, -10337.771217557338, 18666.96997487187, 12602.382910535684, 0.066, 0.97, 0.136, 192.0, 0.0, 0.0, 0.0, 0.0, 0.0, 0.0, 0.0, 0.0, 0.0, 1.687802777775928E9, 0.0, 2023-06-26 13:06:17.775
96.0, 46298.84467111167, 49011.9664683302, 57111.25518217745, -4343.413334299724, -7121.176376483009, -10379.43486922203, 18622.490003405812, 12555.377191946172, 0.066, 0.97, 0.136, 192.0, 0.0, 0.0, 0.0, 0.0, 0.0, 0.0, 0.0, 0.0, 0.0, 1.6878027777789173E9, 0.0, 2023-06-26 13:06:17.778
97.0, 46315.49672073087, 49010.89358459635, 56780.53877121673, -4312.545575206945, -7119.321181693218, -10344.923775783036, 18637.376265213046, 12581.864009125711, 0.066, 0.97, 0.136, 192.0, 0.0, 0.0, 0.0, 0.0, 0.0, 0.0, 0.0, 0.0, 0.0, 1.6878027777829514E9, 0.0, 2023-06-26 13:06:17.782
98.0, 46360.736651508414, 49051.10437287145, 54351.1276663694, -4221.842196207309, -7035.0104016078, -10240.205853009922, 18727.65496106803, 12701.51289719497, 0.066, 0.97, 0.136, 192.0, 0.0, 0.0, 0.0, 0.0, 0.0, 0.0, 0.0, 0.0, 0.0, 1.6878027777879825E9, 0.0, 2023-06-26 13:06:17.787
99.0, 46335.41212504055, 49043.21420707872, 55276.065203674465, -4282.616589381289, -7070.013233424811, -10306.724644508917, 18691.959225172905, 12641.945498221578, 0.066, 0.97, 0.136, 192.0, 0.0, 0.0, 0.0, 0.0, 0.0, 0.0, 0.0, 0.0, 0.0, 1.687802777792003E9, 0.0, 2023-06-26 13:06:17.792
100.0, 46309.12647356111, 49023.14234055786, 56797.14611734702, -4335.0984853623495, -7108.458233887939, -10372.327014485243, 18646.384018228535, 12573.39269797715, 0.066, 0.976, 0.134, 192.0, 2.0, 16.0, 30.0, 128.0, 4.0, 48.0, 0.0, 0.0, 0.0, 1.6878027777960167E9, 0.0, 2023-06-26 13:06:17.796
101.0, 46298.01765656682, 48999.06951177949, 57220.5552125639, -4339.948813909151, -7130.921737065522, -10364.213331247965, 18637.175099512948, 12573.504456699427, 0.066, 0.976, 0.134, 192.0, 0.0, 0.0, 0.0, 0.0, 0.0, 0.0, 0.0, 0.0, 0.0, 1.687802777800034E9, 0.0, 2023-06-26 13:06:17.800
102.0, 46352.198285126484, 49040.643756466365, 54560.0270700487, -4234.180359146638, -7043.816988923191, -10255.002707839336, 18721.88821099856, 12686.760745854468, 0.066, 0.976, 0.134, 192.0, 0.0, 0.0, 0.0, 0.0, 0.0, 0.0, 0.0, 0.0, 0.0, 1.6878027778040578E9, 0.0, 2023-06-26 13:06:17.804
103.0, 46327.41020052555, 49033.446494751755, 55058.292157446405, -4279.867324813285, -7064.961739177912, -10307.104624164656, 18708.70068176993, 12644.784169767401, 0.066, 0.976, 0.134, 192.0, 0.0, 0.0, 0.0, 0.0, 0.0, 0.0, 0.0, 0.0, 0.0, 1.687802777808082E9, 0.0, 2023-06-26 13:06:17.808
104.0, 46309.9311363615, 49025.10929406992, 56537.41884677635, -4336.640755729765, -7108.771158310314, -10372.796401118803, 18654.07301832116, 12577.483067212472, 0.066, 0.976, 0.134, 192.0, 0.0, 0.0, 0.0, 0.0, 0.0, 0.0, 0.0, 0.0, 0.0, 1.687802777811076E9, 0.0, 2023-06-26 13:06:17.811
105.0, 46292.519127430816, 48997.54959315653, 57517.34167544147, -4346.967261668117, -7131.301716721263, -10372.081145296233, 18641.757207126288, 12575.96314858951, 0.066, 0.976, 0.134, 192.0, 0.0, 0.0, 0.0, 0.0, 0.0, 0.0, 0.0, 0.0, 0.0, 1.687802777815094E9, 0.0, 2023-06-26 13:06:17.815
106.0, 46342.31881407724, 49030.630174950384, 54908.691931807036, -4250.497132599012, -7055.082268128666, -10265.932710877982, 18719.116594686104, 12672.232111958518, 0.066, 0.976, 0.134, 192.0, 0.0, 0.0, 0.0, 0.0, 0.0, 0.0, 0.0, 0.0, 0.0, 1.6878027778212047E9, 0.0, 2023-06-26 13:06:17.821
107.0, 46323.38688652359, 49030.96545111721, 54803.30345670026, -4271.418365409179, -7049.092000614643, -10286.071632632213, 18738.875536784595, 12673.282643947918, 0.066, 0.976, 0.134, 192.0, 0.0, 0.0, 0.0, 0.0, 0.0, 0.0, 0.0, 0.0, 0.0, 1.6878027778241944E9, 0.0, 2023-06-26 13:06:17.824
108.0, 46310.08759857269, 49023.54467195805, 56225.433197669176, -4338.473598775101, -7097.997617482855, -10363.363964958664, 18674.83778892014, 12577.080735812277, 0.066, 0.976, 0.134, 192.0, 0.0, 0.0, 0.0, 0.0, 0.0, 0.0, 0.0, 0.0, 0.0, 1.6878027778282042E9, 0.0, 2023-06-26 13:06:17.828
109.0, 46281.56677264771, 48991.984008787156, 57610.79431900911, -4363.48520082059, -7139.527158680816, -10384.508715213386, 18646.227556017348, 12549.252813965419, 0.066, 0.976, 0.134, 192.0, 0.0, 0.0, 0.0, 0.0, 0.0, 0.0, 0.0, 0.0, 0.0, 1.687802777832196E9, 0.0, 2023-06-26 13:06:17.832
110.0, 46335.143904107084, 49023.61172719142, 55352.396410989335, -4260.220141437071, -7071.77902123678, -10279.813144184727, 18711.159373660015, 12655.31184140585, 0.066, 0.976, 0.134, 192.0, 0.0, 0.0, 0.0, 0.0, 0.0, 0.0, 0.0, 0.0, 0.0, 1.6878027778351982E9, 0.0, 2023-06-26 13:06:17.835
111.0, 46332.8863779171, 49034.40761976333, 54553.410953689934, -4250.899463999208, -7037.491445242339, -10261.708231175928, 18758.343906205166, 12693.46626919106, 0.056, 0.988, 0.138, 192.0, 1.0, 192.0, 30.0, 224.0, 4.0, 80.0, 0.0, 0.0, 0.0, 1.6878027778392246E9, 0.0, 2023-06-26 13:06:17.839
112.0, 46315.6308311976, 49027.34446851545, 55943.84592102122, -4323.766150923509, -7095.360111637129, -10353.708011353972, 18687.98061465986, 12589.262436540419, 0.056, 0.988, 0.138, 192.0, 0.0, 0.0, 0.0, 0.0, 0.0, 0.0, 0.0, 0.0, 0.0, 1.6878027778432605E9, 0.0, 2023-06-26 13:06:17.843
113.0, 46284.49485117136, 48996.543764656046, 57565.308519042555, -4350.968223925617, -7126.585498641193, -10370.695337140005, 18661.784370158242, 12569.279976997374, 0.056, 0.988, 0.138, 192.0, 0.0, 0.0, 0.0, 0.0, 0.0, 0.0, 0.0, 0.0, 0.0, 1.6878027778472495E9, 0.0, 2023-06-26 13:06:17.847
114.0, 46324.48212200191, 49010.20068051823, 55899.27654257733, -4285.812888838397, -7092.812012769225, -10300.041472916779, 18689.83580944965, 12626.299277102862, 0.056, 0.988, 0.138, 192.0, 0.0, 0.0, 0.0, 0.0, 0.0, 0.0, 0.0, 0.0, 0.0, 1.687802777853288E9, 0.0, 2023-06-26 13:06:17.853
115.0, 46329.46656101544, 49023.879948124886, 54440.579347679544, -4254.408687878691, -7047.3262128026745, -10262.959928865424, 18746.028095010293, 12680.301091706884, 0.056, 0.988, 0.138, 192.0, 0.0, 0.0, 0.0, 0.0, 0.0, 0.0, 0.0, 0.0, 0.0, 1.6878027778563087E9, 0.0, 2023-06-26 13:06:17.856
116.0, 46317.798950409764, 49026.092770825955, 55719.635572390034, -4323.453226501135, -7092.45438485794, -10352.09868575319, 18691.5121902838, 12584.099183571243, 0.056, 0.988, 0.138, 192.0, 0.0, 0.0, 0.0, 0.0, 0.0, 0.0, 0.0, 0.0, 0.0, 1.6878027778603375E9, 0.0, 2023-06-26 13:06:17.860
117.0, 46298.48704320038, 49011.921764841296, 57365.75214454558, -4346.721392479109, -7119.611754371137, -10379.05488956629, 18661.31498352468, 12552.873796567179, 0.056, 0.988, 0.138, 192.0, 0.0, 0.0, 0.0, 0.0, 0.0, 0.0, 0.0, 0.0, 0.0, 1.6878027778633556E9, 0.0, 2023-06-26 13:06:17.863
118.0, 46326.69494470298, 49017.95673584423, 56393.96535086219, -4293.881868586764, -7099.40577738354, -10315.263010890843, 18685.79014370324, 12609.02137863891, 0.056, 0.988, 0.138, 192.0, 0.0, 0.0, 0.0, 0.0, 0.0, 0.0, 0.0, 0.0, 0.0, 1.687802777867352E9, 0.0, 2023-06-26 13:06:17.867
119.0, 46353.405279327075, 49045.2258640797, 54315.94602059675, -4227.519539298956, -7025.354448003108, -10237.568347164197, 18768.71511563243, 12702.026987317442, 0.056, 0.988, 0.138, 192.0, 0.0, 0.0, 0.0, 0.0, 0.0, 0.0, 0.0, 0.0, 0.0, 1.6878027778713813E9, 0.0, 2023-06-26 13:06:17.871
120.0, 46329.51126450435, 49037.24629130916, 55435.187272451796, -4305.683589659166, -7078.64100678456, -10324.76250228435, 18713.08162368317, 12613.49172752997, 0.056, 0.988, 0.138, 192.0, 0.0, 0.0, 0.0, 0.0, 0.0, 0.0, 0.0, 0.0, 0.0, 1.687802777875406E9, 0.0, 2023-06-26 13:06:17.875
121.0, 46313.26154628534, 49027.67974468228, 57049.452608758525, -4339.993517398062, -7103.697312318959, -10367.00729930488, 18674.278995308756, 12567.402430463128, 0.052000000000000005, 0.982, 0.146, 192.0, 1.0, 160.0, 30.0, 176.0, 4.0, 144.0, 0.0, 0.0, 0.0, 1.6878027778794217E9, 0.0, 2023-06-26 13:06:17.879
122.0, 46320.816435911234, 49014.2686980091, 56866.36946992511, -4318.513490976512, -7114.157928724043, -10335.312525667254, 18671.149751085013, 12588.25660803993, 0.052000000000000005, 0.982, 0.146, 192.0, 0.0, 0.0, 0.0, 0.0, 0.0, 0.0, 0.0, 0.0, 0.0, 1.6878027778854468E9, 0.0, 2023-06-26 13:06:17.885
123.0, 46362.07775617573, 49047.3269280585, 54362.16942813032, -4231.386391089724, -7025.957945103401, -10236.45075994143, 18761.09317077317, 12697.444879704104, 0.052000000000000005, 0.982, 0.146, 192.0, 0.0, 0.0, 0.0, 0.0, 0.0, 0.0, 0.0, 0.0, 0.0, 1.6878027778884711E9, 0.0, 2023-06-26 13:06:17.888
124.0, 46329.0865813597, 49033.06651509601, 55219.82821462491, -4299.2909907449475, -7058.747954219336, -10306.389368342087, 18725.46449011141, 12629.942611449076, 0.052000000000000005, 0.982, 0.146, 192.0, 0.0, 0.0, 0.0, 0.0, 0.0, 0.0, 0.0, 0.0, 0.0, 1.6878027778924968E9, 0.0, 2023-06-26 13:06:17.892
125.0, 46301.9292118465, 49014.760436387114, 56776.604864192595, -4354.790372227475, -7106.468928631417, -10375.568017431262, 18669.182797572947, 12557.992346047444, 0.052000000000000005, 0.982, 0.146, 192.0, 0.0, 0.0, 0.0, 0.0, 0.0, 0.0, 0.0, 0.0, 0.0, 1.6878027778955064E9, 0.0, 2023-06-26 13:06:17.895
126.0, 46288.652275640045, 48987.04427326254, 57286.71637615161, -4353.985709427084, -7134.542719667283, -10363.699241125494, 18651.368457242068, 12559.668726881591, 0.052000000000000005, 0.982, 0.146, 192.0, 0.0, 0.0, 0.0, 0.0, 0.0, 0.0, 0.0, 0.0, 0.0, 1.6878027778995235E9, 0.0, 2023-06-26 13:06:17.899
127.0, 46346.09625889019, 49032.15009357335, 54591.09599484158, -4242.204635406093, -7042.230015066864, -10248.185425780466, 18741.915374030516, 12675.60722537127, 0.052000000000000005, 0.982, 0.146, 192.0, 0.0, 0.0, 0.0, 0.0, 0.0, 0.0, 0.0, 0.0, 0.0, 1.6878027779035292E9, 0.0, 2023-06-26 13:06:17.903
128.0, 46323.56570047924, 49024.59520394745, 55027.02206695343, -4284.672949871177, -7056.803352451725, -10288.88795243358, 18737.46737688391, 12651.9367279931, 0.052000000000000005, 0.982, 0.146, 192.0, 0.0, 0.0, 0.0, 0.0, 0.0, 0.0, 0.0, 0.0, 0.0, 1.6878027779095745E9, 0.0, 2023-06-26 13:06:17.909
129.0, 46308.14299680507, 49013.64284916435, 56458.47248536021, -4343.413334299724, -7096.768271537813, -10363.363964958664, 18677.51999825478, 12569.659956653113, 0.052000000000000005, 0.982, 0.146, 192.0, 0.0, 0.0, 0.0, 0.0, 0.0, 0.0, 0.0, 0.0, 0.0, 1.6878027779125793E9, 0.0, 2023-06-26 13:06:17.912
130.0, 46283.39961569305, 48983.803270316515, 57487.65855880482, -4357.137305395282, -7131.681696377003, -10371.075316795745, 18654.83297763264, 12565.323718228785, 0.052000000000000005, 0.982, 0.146, 192.0, 0.0, 0.0, 0.0, 0.0, 0.0, 0.0, 0.0, 0.0, 0.0, 1.687802777916607E9, 0.0, 2023-06-26 13:06:17.916
131.0, 46339.59190125369, 49021.93534635727, 54906.0097224724, -4257.739097802531, -7054.389364050551, -10263.339908521166, 18730.851260525138, 12671.539207880403, 0.052000000000000005, 0.976, 0.148, 192.0, 1.0, 160.0, 30.0, 128.0, 4.0, 160.0, 0.0, 0.0, 0.0, 1.6878027779196253E9, 0.0, 2023-06-26 13:06:17.919
132.0, 46326.53848249179, 49023.94700335825, 54804.46574741194, -4273.698243343621, -7045.135741846054, -10275.879237160592, 18749.559670634233, 12672.656795103168, 0.052000000000000005, 0.976, 0.148, 192.0, 0.0, 0.0, 0.0, 0.0, 0.0, 0.0, 0.0, 0.0, 0.0, 1.6878027779236262E9, 0.0, 2023-06-26 13:06:17.923
133.0, 46321.62109871163, 49024.66225918082, 56155.516941012975, -4329.555252737433, -7093.817841269713, -10351.76340958636, 18683.5102657688, 12583.093355070754, 0.052000000000000005, 0.976, 0.148, 192.0, 0.0, 0.0, 0.0, 0.0, 0.0, 0.0, 0.0, 0.0, 0.0, 1.6878027779276533E9, 0.0, 2023-06-26 13:06:17.927
134.0, 46294.15080477605, 48994.576811143976, 57519.21922197571, -4356.533808294989, -7131.704048121459, -10374.20456101949, 18649.334448496636, 12562.350936216228, 0.052000000000000005, 0.976, 0.148, 192.0, 0.0, 0.0, 0.0, 0.0, 0.0, 0.0, 0.0, 0.0, 0.0, 1.68780277793167E9, 0.0, 2023-06-26 13:06:17.931
135.0, 46339.36838380914, 49018.67199166679, 55327.67538162177, -4271.373661920269, -7079.4903730738615, -10286.853943688147, 18701.481068310866, 12643.241899399985, 0.052000000000000005, 0.976, 0.148, 192.0, 0.0, 0.0, 0.0, 0.0, 0.0, 0.0, 0.0, 0.0, 0.0, 1.6878027779377103E9, 0.0, 2023-06-26 13:06:17.937
136.0, 46330.40533428256, 49023.49996846914, 54595.11930884353, -4268.5573421189, -7050.388401793051, -10275.208684826934, 18746.072798499205, 12670.64513810219, 0.052000000000000005, 0.976, 0.148, 192.0, 0.0, 0.0, 0.0, 0.0, 0.0, 0.0, 0.0, 0.0, 0.0, 1.68780277794176E9, 0.0, 2023-06-26 13:06:17.941
137.0, 46323.185720823494, 49023.36585800241, 55918.76726374236, -4332.550386494445, -7096.1647744375205, -10358.267767222855, 18677.56470174369, 12574.465581711005, 0.052000000000000005, 0.976, 0.148, 192.0, 0.0, 0.0, 0.0, 0.0, 0.0, 0.0, 0.0, 0.0, 0.0, 1.6878027779447486E9, 0.0, 2023-06-26 13:06:17.944
138.0, 46292.04974079725, 48990.41938667529, 57453.75096246612, -4359.506590307545, -7131.815806843735, -10374.830409864237, 18648.909765351986, 12560.026354792877, 0.052000000000000005, 0.976, 0.148, 192.0, 0.0, 0.0, 0.0, 0.0, 0.0, 0.0, 0.0, 0.0, 0.0, 1.687802777947763E9, 0.0, 2023-06-26 13:06:17.947
139.0, 46332.52875000581, 49005.59622116044, 55848.91806231953, -4289.836202840353, -7099.517536105816, -10301.203763628455, 18687.019489648283, 12621.091320644775, 0.052000000000000005, 0.976, 0.148, 192.0, 0.0, 0.0, 0.0, 0.0, 0.0, 0.0, 0.0, 0.0, 0.0, 1.6878027779517708E9, 0.0, 2023-06-26 13:06:17.951
140.0, 46334.518055262335, 49020.54953820104, 54447.01665008267, -4253.961652989585, -7045.694535457437, -10255.2709287728, 18751.5266241463, 12684.346757453295, 0.052000000000000005, 0.976, 0.148, 192.0, 0.0, 0.0, 0.0, 0.0, 0.0, 0.0, 0.0, 0.0, 0.0, 1.6878027779558E9, 0.0, 2023-06-26 13:06:17.955
141.0, 46316.63665969809, 49017.777921888584, 55744.401305246516, -4324.056723601428, -7094.376634881096, -10341.481607136919, 18686.393640803533, 12589.530657473882, 0.058, 0.974, 0.14400000000000002, 192.0, 1.0, 208.0, 30.0, 112.0, 4.0, 128.0, 0.0, 0.0, 0.0, 1.6878027779678528E9, 0.0, 2023-06-26 13:06:17.967
142.0, 46292.38501696409, 48994.0627210215, 57275.048765545944, -4356.377346083802, -7128.530100408805, -10377.222046520954, 18646.004038572795, 12551.040953521842, 0.058, 0.974, 0.14400000000000002, 192.0, 0.0, 0.0, 0.0, 0.0, 0.0, 0.0, 0.0, 0.0, 0.0, 1.6878027779708753E9, 0.0, 2023-06-26 13:06:17.970
143.0, 46312.38982825158, 48992.98983728765, 56383.30356875701, -4312.1432438067495, -7122.919812550523, -10329.232851175411, 18662.11964632507, 12590.536485974371, 0.058, 0.974, 0.14400000000000002, 192.0, 0.0, 0.0, 0.0, 0.0, 0.0, 0.0, 0.0, 0.0, 0.0, 1.6878027779749064E9, 0.0, 2023-06-26 13:06:17.974
144.0, 46340.664784987544, 49026.49510222615, 54368.56202704454, -4241.891710983719, -7046.3874395355515, -10250.97939383738, 18746.98922002187, 12680.345795195795, 0.058, 0.974, 0.14400000000000002, 192.0, 0.0, 0.0, 0.0, 0.0, 0.0, 0.0, 0.0, 0.0, 0.0, 1.687802777977918E9, 0.0, 2023-06-26 13:06:17.977
145.0, 46325.30913654675, 49026.383343503876, 55555.216140176795, -4307.069397815394, -7092.4096813690285, -10327.802339530272, 18695.446097307933, 12602.606427980236, 0.058, 0.974, 0.14400000000000002, 192.0, 0.0, 0.0, 0.0, 0.0, 0.0, 0.0, 0.0, 0.0, 0.0, 1.6878027779812489E9, 0.0, 2023-06-26 13:06:17.981
146.0, 46313.21684279643, 49018.962564344714, 56994.10968948719, -4335.813741184919, -7113.7108938349365, -10363.989813803413, 18659.236271290334, 12568.497665941439, 0.058, 0.974, 0.14400000000000002, 192.0, 0.0, 0.0, 0.0, 0.0, 0.0, 0.0, 0.0, 0.0, 0.0, 1.6878027779849536E9, 0.0, 2023-06-26 13:06:17.984
147.0, 46308.92530786101, 48997.32607571198, 56846.7669900378, -4323.050895100939, -7133.782760355803, -10343.314450182253, 18649.848538619106, 12580.72407015849, 0.058, 0.974, 0.14400000000000002, 192.0, 0.0, 0.0, 0.0, 0.0, 0.0, 0.0, 0.0, 0.0, 0.0, 1.6878027779879603E9, 0.0, 2023-06-26 13:06:17.987
148.0, 46350.946587436985, 49034.832302907984, 54382.50951558465, -4229.106513155283, -7047.862654669601, -10240.272908243289, 18740.931897274484, 12691.745184868001, 0.058, 0.974, 0.14400000000000002, 192.0, 0.0, 0.0, 0.0, 0.0, 0.0, 0.0, 0.0, 0.0, 0.0, 1.6878027779909697E9, 0.0, 2023-06-26 13:06:17.990
149.0, 46315.1837963085, 49015.542747443054, 55323.83088157546, -4300.90031634573, -7089.191030167464, -10318.772234770327, 18697.32364384218, 12625.136986391186, 0.058, 0.974, 0.14400000000000002, 192.0, 0.0, 0.0, 0.0, 0.0, 0.0, 0.0, 0.0, 0.0, 0.0, 1.6878027779939897E9, 0.0, 2023-06-26 13:06:17.993
150.0, 46314.22267129692, 49019.811930634016, 56716.74689254128, -4335.970203396107, -7118.069484003721, -10371.164723773567, 18652.329582253646, 12567.693003141047, 0.058, 0.974, 0.14400000000000002, 192.0, 0.0, 0.0, 0.0, 0.0, 0.0, 0.0, 0.0, 0.0, 0.0, 1.687802777998036E9, 0.0, 2023-06-26 13:06:17.998
151.0, 46307.89712761607, 49003.092825781445, 57229.71942779058, -4328.460017259124, -7135.481492934406, -10347.829502562226, 18650.876718864052, 12581.8193056368, 0.058, 0.974, 0.14400000000000002, 192.0, 0.0, 0.0, 0.0, 0.0, 0.0, 0.0, 0.0, 0.0, 0.0, 1.6878027780010152E9, 0.0, 2023-06-26 13:06:18.001
152.0, 46358.61323578516, 49039.9732041327, 54581.19417204788, -4233.286289368426, -7054.814047195202, -10241.435198954965, 18735.768644305306, 12694.136821524718, 0.064, 0.978, 0.134, 192.0, 2.0, 0.0, 30.0, 144.0, 4.0, 48.0, 0.0, 0.0, 0.0, 1.6878027780040247E9, 0.0, 2023-06-26 13:06:18.004
