%OpenBCI Raw EEG Data
%Number of channels = 8
%Sample Rate = 250 Hz
%Board = OpenBCI_GUI$BoardCytonSerial
Sample Index, EXG Channel 0, EXG Channel 1, EXG Channel 2, EXG Channel 3, EXG Channel 4, EXG Channel 5, EXG Channel 6, EXG Channel 7, Accel Channel 0, Accel Channel 1, Accel Channel 2, Other, Other, Other, Other, Other, Other, Other, Analog Channel 0, Analog Channel 1, Analog Channel 2, Timestamp, Other, Timestamp (Formatted)
62.0, 46514.06961847182, 48991.02288377558, 54805.9856660349, -4176.356396240759, -6957.673365792438, -10160.410125304476, 18875.73526808444, 12753.860682709299, 0.0, 0.0, 0.0, 192.0, 0.0, 0.0, 0.0, 0.0, 0.0, 0.0, 0.0, 0.0, 0.0, 1.687802851428285E9, 0.0, 2023-06-26 13:07:31.428
63.0, 46489.974437949, 48983.13271798286, 54874.58316976824, -4197.434091262114, -6949.559682555161, -10181.577227303653, 18897.192942761536, 12756.542892043935, 0.0, 0.0, 0.0, 192.0, 0.0, 0.0, 0.0, 0.0, 0.0, 0.0, 0.0, 0.0, 0.0, 1.6878028514283075E9, 0.0, 2023-06-26 13:07:31.428
64.0, 46486.48756581397, 48983.82562206097, 56052.74362000747, -4255.190998934627, -6992.005645275789, -10257.796675896248, 18834.406892586576, 12664.520760121437, 0.0, 0.0, 0.0, 192.0, 0.0, 0.0, 0.0, 0.0, 0.0, 0.0, 0.0, 0.0, 0.0, 1.6878028514283185E9, 0.0, 2023-06-26 13:07:31.428
1.0, 46968.592341970485, 49902.81759534092, 49918.19559552617, -3174.1488783537006, -6619.6479343948295, -9508.387387798713, 19728.633133010047, 13268.733116237298, 0.074, 0.984, 0.11, 192.0, 2.0, 80.0, 30.0, 192.0, 3.0, 112.0, 0.0, 0.0, 0.0, 1.6878028515313416E9, 0.0, 2023-06-26 13:07:31.531
2.0, 46947.44759171577, 49892.11110974683, 50326.80783591364, -3218.271221908477, -6632.07550431198, -9551.995641231018, 19722.866382940578, 13245.554357237144, 0.074, 0.984, 0.11, 192.0, 0.0, 0.0, 0.0, 0.0, 0.0, 0.0, 0.0, 0.0, 0.0, 1.687802851534361E9, 0.0, 2023-06-26 13:07:31.534
3.0, 46904.33107666148, 49856.46007734061, 52173.28544536656, -3275.424632480697, -6673.806211210038, -9613.194717549648, 19683.46025746587, 13189.786754821152, 0.074, 0.984, 0.11, 192.0, 0.0, 0.0, 0.0, 0.0, 0.0, 0.0, 0.0, 0.0, 0.0, 1.6878028515383828E9, 0.0, 2023-06-26 13:07:31.538
4.0, 46891.72469278869, 49831.64964099522, 52771.32872001275, -3290.914391388225, -6705.56804008103, -9630.00322938004, 19647.675114592927, 13162.070591696573, 0.074, 0.984, 0.11, 192.0, 0.0, 0.0, 0.0, 0.0, 0.0, 0.0, 0.0, 0.0, 0.0, 1.6878028515423975E9, 0.0, 2023-06-26 13:07:31.542
5.0, 46961.21626630024, 49886.322007932904, 50216.56903226007, -3192.522012295963, -6629.281536255066, -9516.948105925096, 19711.288179312727, 13261.111171378037, 0.074, 0.984, 0.11, 192.0, 0.0, 0.0, 0.0, 0.0, 0.0, 0.0, 0.0, 0.0, 0.0, 1.687802851545391E9, 0.0, 2023-06-26 13:07:31.545
6.0, 46937.344603221965, 49872.285112414975, 50119.94244097977, -3229.380038902764, -6630.0414955665465, -9538.182263157638, 19724.721577730368, 13266.609700514044, 0.074, 0.984, 0.11, 192.0, 0.0, 0.0, 0.0, 0.0, 0.0, 0.0, 0.0, 0.0, 0.0, 1.6878028515494375E9, 0.0, 2023-06-26 13:07:31.549
7.0, 46890.89767824384, 49831.38142006176, 51840.69148787159, -3306.3370950623867, -6684.758565993138, -9621.218993809103, 19667.83638809161, 13184.824667552075, 0.074, 0.984, 0.11, 192.0, 0.0, 0.0, 0.0, 0.0, 0.0, 0.0, 0.0, 0.0, 0.0, 1.6878028515534332E9, 0.0, 2023-06-26 13:07:31.553
8.0, 46889.91420148781, 49820.74198970103, 52975.71307131208, -3298.5363362474845, -6702.192926668278, -9623.09654034335, 19642.467158134838, 13172.732373801753, 0.082, 0.976, 0.082, 192.0, 2.0, 144.0, 30.0, 128.0, 2.0, 144.0, 0.0, 0.0, 0.0, 1.6878028515584807E9, 0.0, 2023-06-26 13:07:31.558
9.0, 46965.57485646902, 49883.55039162045, 50591.89952515358, -3207.855308992304, -6616.608097148907, -9525.21825137356, 19704.157972831486, 13258.987755654784, 0.082, 0.976, 0.082, 192.0, 0.0, 0.0, 0.0, 0.0, 0.0, 0.0, 0.0, 0.0, 0.0, 1.6878028515614989E9, 0.0, 2023-06-26 13:07:31.561
10.0, 46954.331929008, 49882.902191031244, 49930.801979398966, -3222.8309777773593, -6602.124166741868, -9527.65459151919, 19730.57773477766, 13276.310357607646, 0.082, 0.976, 0.082, 192.0, 0.0, 0.0, 0.0, 0.0, 0.0, 0.0, 0.0, 0.0, 0.0, 1.6878028515655053E9, 0.0, 2023-06-26 13:07:31.565
11.0, 46922.21247222573, 49856.99651920754, 51513.46194904589, -3275.335225502876, -6647.1182283304015, -9583.153973001716, 19679.526350441738, 13204.248333483736, 0.082, 0.976, 0.082, 192.0, 0.0, 0.0, 0.0, 0.0, 0.0, 0.0, 0.0, 0.0, 0.0, 1.6878028515695248E9, 0.0, 2023-06-26 13:07:31.569
12.0, 46889.55657357652, 49822.19485309063, 53018.91899334419, -3306.7170747181267, -6688.692473017272, -9610.646618681743, 19642.780082557212, 13175.526341858667, 0.082, 0.976, 0.082, 192.0, 0.0, 0.0, 0.0, 0.0, 0.0, 0.0, 0.0, 0.0, 0.0, 1.6878028515735517E9, 0.0, 2023-06-26 13:07:31.573
13.0, 46965.8877808914, 49882.58926660887, 51038.48737937062, -3212.2138991610886, -6623.067751296491, -9519.183280370627, 19693.853818637588, 13254.070371874615, 0.082, 0.976, 0.082, 192.0, 0.0, 0.0, 0.0, 0.0, 0.0, 0.0, 0.0, 0.0, 0.0, 1.6878028515785685E9, 0.0, 2023-06-26 13:07:31.578
14.0, 46966.06659484704, 49884.84679279885, 49780.57590491485, -3196.3218088533654, -6583.415756632777, -9495.73630043701, 19742.446511083428, 13297.924494495928, 0.082, 0.976, 0.082, 192.0, 0.0, 0.0, 0.0, 0.0, 0.0, 0.0, 0.0, 0.0, 0.0, 1.6878028515825884E9, 0.0, 2023-06-26 13:07:31.582
15.0, 46909.91901277531, 49835.20356836362, 51167.59105534447, -3291.875516399803, -6653.533178989074, -9600.700092399133, 19681.78387663172, 13208.115185274504, 0.082, 0.976, 0.082, 192.0, 0.0, 0.0, 0.0, 0.0, 0.0, 0.0, 0.0, 0.0, 0.0, 1.687802851585598E9, 0.0, 2023-06-26 13:07:31.585
16.0, 46867.651864010324, 49793.96459984357, 52946.879320964734, -3341.719906535138, -6711.357141894954, -9657.67468901571, 19631.31363765164, 13155.610937548989, 0.082, 0.976, 0.082, 192.0, 0.0, 0.0, 0.0, 0.0, 0.0, 0.0, 0.0, 0.0, 0.0, 1.6878028515896053E9, 0.0, 2023-06-26 13:07:31.589
17.0, 46935.91409157683, 49842.28907135595, 51563.596911859146, -3251.172989746689, -6663.2561878271335, -9568.670042594676, 19664.349515956583, 13213.814880110607, 0.082, 0.976, 0.082, 192.0, 0.0, 0.0, 0.0, 0.0, 0.0, 0.0, 0.0, 0.0, 0.0, 1.687802851593638E9, 0.0, 2023-06-26 13:07:31.593
18.0, 46976.68367346331, 49884.75738582103, 49743.69552656359, -3184.2518668474995, -6577.783117030039, -9495.959817881563, 19744.70403727341, 13300.830221275119, 0.088, 0.99, 0.08600000000000001, 192.0, 2.0, 192.0, 30.0, 240.0, 2.0, 176.0, 0.0, 0.0, 0.0, 1.687802851597644E9, 0.0, 2023-06-26 13:07:31.597
19.0, 46939.53507417859, 49857.957644219125, 50844.67540319865, -3266.5733416763956, -6632.410780478809, -9583.243379979538, 19700.581693718636, 13226.510670961223, 0.088, 0.99, 0.08600000000000001, 192.0, 0.0, 0.0, 0.0, 0.0, 0.0, 0.0, 0.0, 0.0, 0.0, 1.6878028516016605E9, 0.0, 2023-06-26 13:07:31.601
20.0, 46883.5663060625, 49807.35329477231, 52725.26177469036, -3326.386609838797, -6696.403824854354, -9641.112046374326, 19643.338876168596, 13163.679917297355, 0.088, 0.99, 0.08600000000000001, 192.0, 0.0, 0.0, 0.0, 0.0, 0.0, 0.0, 0.0, 0.0, 0.0, 1.6878028516057055E9, 0.0, 2023-06-26 13:07:31.605
21.0, 46918.546786135055, 49818.37270478877, 52038.839702467885, -3282.0183970950125, -6675.437888555275, -9593.681644640166, 19648.904460537968, 13191.70900484431, 0.088, 0.99, 0.08600000000000001, 192.0, 0.0, 0.0, 0.0, 0.0, 0.0, 0.0, 0.0, 0.0, 0.0, 1.6878028516107297E9, 0.0, 2023-06-26 13:07:31.610
22.0, 46975.320217051536, 49871.41339438122, 49787.52729744045, -3189.7727477279604, -6583.125183954858, -9501.771271439942, 19735.562173791193, 13288.62616880252, 0.088, 0.99, 0.08600000000000001, 192.0, 0.0, 0.0, 0.0, 0.0, 0.0, 0.0, 0.0, 0.0, 0.0, 1.6878028516137416E9, 0.0, 2023-06-26 13:07:31.613
23.0, 46911.215413953716, 49818.663277466694, 50584.81402216125, -3290.579115221395, -6642.98315560617, -9599.940133087652, 19689.56228370217, 13214.530135933177, 0.088, 0.99, 0.08600000000000001, 192.0, 0.0, 0.0, 0.0, 0.0, 0.0, 0.0, 0.0, 0.0, 0.0, 1.6878028516177373E9, 0.0, 2023-06-26 13:07:31.617
24.0, 46876.525506559075, 49793.27169576546, 52460.97474825082, -3339.060048944956, -6695.062720187035, -9643.034296397484, 19642.35539941256, 13161.690612040831, 0.088, 0.99, 0.08600000000000001, 192.0, 0.0, 0.0, 0.0, 0.0, 0.0, 0.0, 0.0, 0.0, 0.0, 1.687802851622782E9, 0.0, 2023-06-26 13:07:31.622
25.0, 46909.6731435863, 49818.931498400154, 52468.88726578799, -3315.1883858666883, -6691.0841096739905, -9618.045046096451, 19630.531326595705, 13167.546769088123, 0.088, 0.99, 0.08600000000000001, 192.0, 0.0, 0.0, 0.0, 0.0, 0.0, 0.0, 0.0, 0.0, 0.0, 1.6878028516258028E9, 0.0, 2023-06-26 13:07:31.625
26.0, 46973.688539706294, 49870.63108332528, 49979.01469218906, -3207.520032825474, -6600.06780625198, -9511.650742489188, 19712.517525257772, 13272.376450583513, 0.088, 0.99, 0.08600000000000001, 192.0, 0.0, 0.0, 0.0, 0.0, 0.0, 0.0, 0.0, 0.0, 0.0, 1.6878028516298106E9, 0.0, 2023-06-26 13:07:31.629
27.0, 46950.062745817035, 49861.511571587514, 50342.54346401018, -3240.9135390417027, -6602.079463252958, -9535.03066718944, 19724.98979866383, 13265.492113291279, 0.088, 0.99, 0.08600000000000001, 192.0, 0.0, 0.0, 0.0, 0.0, 0.0, 0.0, 0.0, 0.0, 0.0, 1.6878028516338363E9, 0.0, 2023-06-26 13:07:31.633
28.0, 46898.74314054765, 49813.79059717544, 52126.88322387734, -3313.2661358435316, -6652.907330144326, -9613.172365805194, 19671.971460815843, 13192.692481600343, 0.088, 0.99, 0.08600000000000001, 192.0, 0.0, 0.0, 0.0, 0.0, 0.0, 0.0, 0.0, 0.0, 0.0, 1.6878028516378608E9, 0.0, 2023-06-26 13:07:31.637
29.0, 46895.92682074628, 49795.886849866736, 52784.33743528574, -3316.685952745194, -6683.573923537007, -9626.203432822638, 19637.102739465565, 13170.98893773424, 0.08600000000000001, 0.98, 0.082, 192.0, 2.0, 176.0, 30.0, 160.0, 2.0, 144.0, 0.0, 0.0, 0.0, 1.687802851642887E9, 0.0, 2023-06-26 13:07:31.642
30.0, 46983.67976947782, 49875.59317059436, 50239.36781160448, -3186.3082273373875, -6580.241808920123, -9494.97634112553, 19727.113214387085, 13285.698090278876, 0.08600000000000001, 0.98, 0.082, 192.0, 0.0, 0.0, 0.0, 0.0, 0.0, 0.0, 0.0, 0.0, 0.0, 1.6878028516458902E9, 0.0, 2023-06-26 13:07:31.645
31.0, 46958.62346394342, 49863.187952421664, 50122.08820844749, -3219.031181219957, -6578.140744941324, -9517.305733836381, 19746.268659385285, 13289.408479858457, 0.08600000000000001, 0.98, 0.082, 192.0, 0.0, 0.0, 0.0, 0.0, 0.0, 0.0, 0.0, 0.0, 0.0, 1.6878028516498883E9, 0.0, 2023-06-26 13:07:31.649
32.0, 46908.264983685614, 49814.43879776464, 51803.878164753696, -3304.7277694616046, -6643.251376539633, -9608.925534358685, 19683.23674002132, 13204.5165544172, 0.08600000000000001, 0.98, 0.082, 192.0, 0.0, 0.0, 0.0, 0.0, 0.0, 0.0, 0.0, 0.0, 0.0, 1.6878028516541657E9, 0.0, 2023-06-26 13:07:31.654
33.0, 46878.7159775157, 49777.200791502095, 52961.31854788287, -3328.286508117498, -6695.912086476337, -9637.826339939396, 19631.179527184908, 13162.584681819044, 0.08600000000000001, 0.98, 0.082, 192.0, 0.0, 0.0, 0.0, 0.0, 0.0, 0.0, 0.0, 0.0, 0.0, 1.6878028516589646E9, 0.0, 2023-06-26 13:07:31.658
34.0, 46944.72067889222, 49829.45917003861, 50628.198758149, -3229.5812046028623, -6625.325277486477, -9541.378562614747, 19691.171609302954, 13247.744828193765, 0.08600000000000001, 0.98, 0.082, 192.0, 0.0, 0.0, 0.0, 0.0, 0.0, 0.0, 0.0, 0.0, 0.0, 1.6878028516629794E9, 0.0, 2023-06-26 13:07:31.662
35.0, 46938.70805963374, 49834.734181730055, 49970.141049640304, -3231.659916837206, -6596.044492250025, -9523.877146706242, 19732.8576127121, 13279.014918686738, 0.08600000000000001, 0.98, 0.082, 192.0, 0.0, 0.0, 0.0, 0.0, 0.0, 0.0, 0.0, 0.0, 0.0, 1.6878028516680205E9, 0.0, 2023-06-26 13:07:31.668
36.0, 46898.5196231031, 49804.8051959044, 51525.04015267374, -3317.647077756772, -6651.208597565723, -9619.453205997135, 19672.70906838287, 13192.42426066688, 0.08600000000000001, 0.98, 0.082, 192.0, 0.0, 0.0, 0.0, 0.0, 0.0, 0.0, 0.0, 0.0, 0.0, 1.6878028516710317E9, 0.0, 2023-06-26 13:07:31.671
37.0, 46884.214506651704, 49782.67696889365, 53035.70515343013, -3323.5032348040622, -6679.841182212971, -9623.789444421463, 19648.099797737577, 13177.873275026473, 0.08600000000000001, 0.98, 0.082, 192.0, 0.0, 0.0, 0.0, 0.0, 0.0, 0.0, 0.0, 0.0, 0.0, 1.6878028516740136E9, 0.0, 2023-06-26 13:07:31.674
38.0, 46949.727469650206, 49823.71477171359, 51094.27733353106, -3228.463617380097, -6620.45259719522, -9544.328992882847, 19687.595330190103, 13235.831348399086, 0.08600000000000001, 0.98, 0.082, 192.0, 0.0, 0.0, 0.0, 0.0, 0.0, 0.0, 0.0, 0.0, 0.0, 1.687802851678043E9, 0.0, 2023-06-26 13:07:31.678
39.0, 46968.36882452593, 49857.37649886328, 49831.9625654176, -3184.721253481061, -6562.8297999894385, -9488.807259655865, 19754.941136233945, 13305.34527365509, 0.092, 0.982, 0.074, 192.0, 2.0, 224.0, 30.0, 176.0, 2.0, 80.0, 0.0, 0.0, 0.0, 1.6878028516820788E9, 0.0, 2023-06-26 13:07:31.682
40.0, 46919.28439370208, 49813.16474833069, 51198.816442348536, -3292.3449030333645, -6642.290251528055, -9598.911952842707, 19688.80232439069, 13211.579705665077, 0.092, 0.982, 0.074, 192.0, 0.0, 0.0, 0.0, 0.0, 0.0, 0.0, 0.0, 0.0, 0.0, 1.6878028516860807E9, 0.0, 2023-06-26 13:07:31.686
41.0, 46871.004625678615, 49764.28148320693, 52938.229195860535, -3343.977432725124, -6696.180307409801, -9647.974031922107, 19635.269896420228, 13159.768362017676, 0.092, 0.982, 0.074, 192.0, 0.0, 0.0, 0.0, 0.0, 0.0, 0.0, 0.0, 0.0, 0.0, 1.6878028516901026E9, 0.0, 2023-06-26 13:07:31.690
42.0, 46927.19691123926, 49804.112291826284, 51585.121641769605, -3243.461637909608, -6634.131864801868, -9563.909121025697, 19668.149312513986, 13217.346455734547, 0.092, 0.982, 0.074, 192.0, 0.0, 0.0, 0.0, 0.0, 0.0, 0.0, 0.0, 0.0, 0.0, 1.6878028516941075E9, 0.0, 2023-06-26 13:07:31.694
43.0, 46954.15311505236, 49835.58354801936, 49777.40195720219, -3201.06037867789, -6573.536285583531, -9502.307713306871, 19739.697246515425, 13290.369604870035, 0.092, 0.982, 0.074, 192.0, 0.0, 0.0, 0.0, 0.0, 0.0, 0.0, 0.0, 0.0, 0.0, 1.6878028516982048E9, 0.0, 2023-06-26 13:07:31.698
44.0, 46924.44764667126, 49817.053951865906, 50934.618822886805, -3264.7628503755154, -6607.332123199955, -9577.364871187792, 19709.075356611655, 13229.081121573583, 0.092, 0.982, 0.074, 192.0, 0.0, 0.0, 0.0, 0.0, 0.0, 0.0, 0.0, 0.0, 0.0, 1.6878028517022E9, 0.0, 2023-06-26 13:07:31.702
45.0, 46863.27092209708, 49760.03465176042, 52743.612556888176, -3329.314688362442, -6672.0627751425245, -9639.346258562358, 19656.526405397228, 13174.699327313821, 0.092, 0.982, 0.074, 192.0, 0.0, 0.0, 0.0, 0.0, 0.0, 0.0, 0.0, 0.0, 0.0, 1.6878028517052448E9, 0.0, 2023-06-26 13:07:31.705
46.0, 46888.23782065366, 49764.840276818315, 52076.83766804191, -3303.7219409611157, -6674.141487376868, -9607.450319224634, 19645.350533169574, 13185.651682096921, 0.092, 0.982, 0.074, 192.0, 0.0, 0.0, 0.0, 0.0, 0.0, 0.0, 0.0, 0.0, 0.0, 1.6878028517092204E9, 0.0, 2023-06-26 13:07:31.709
47.0, 46952.87906561841, 49826.486388026045, 49841.50676030001, -3223.836806277848, -6596.8715067948715, -9508.677960476633, 19723.93926667443, 13278.34436635308, 0.092, 0.982, 0.074, 192.0, 0.0, 0.0, 0.0, 0.0, 0.0, 0.0, 0.0, 0.0, 0.0, 1.6878028517142265E9, 0.0, 2023-06-26 13:07:31.714
48.0, 46925.34171644947, 49822.68659146865, 50725.29473606285, -3279.0903185713673, -6644.972460862692, -9573.520371141478, 19701.6992809414, 13231.293944274657, 0.092, 0.982, 0.074, 192.0, 0.0, 0.0, 0.0, 0.0, 0.0, 0.0, 0.0, 0.0, 0.0, 1.6878028517182536E9, 0.0, 2023-06-26 13:07:31.718
49.0, 46899.30193415903, 49799.53018421295, 52552.12516213956, -3321.1339498918, -6666.720708217706, -9634.272412571003, 19662.919004311443, 13178.499123871223, 0.094, 0.978, 0.078, 192.0, 2.0, 240.0, 30.0, 144.0, 2.0, 112.0, 0.0, 0.0, 0.0, 1.6878028517222614E9, 0.0, 2023-06-26 13:07:31.722
50.0, 46890.85297475493, 49770.361157698775, 52547.18542661494, -3322.60916502585, -6680.623493268907, -9627.455130512135, 19633.12412895252, 13167.74793478822, 0.094, 0.978, 0.078, 192.0, 0.0, 0.0, 0.0, 0.0, 0.0, 0.0, 0.0, 0.0, 0.0, 1.6878028517252796E9, 0.0, 2023-06-26 13:07:31.725
51.0, 46963.496144234676, 49834.108332885306, 50046.44990521073, -3212.146843927723, -6594.010483504592, -9528.727475253043, 19710.975254890356, 13262.698145234364, 0.094, 0.978, 0.078, 192.0, 0.0, 0.0, 0.0, 0.0, 0.0, 0.0, 0.0, 0.0, 0.0, 1.6878028517292807E9, 0.0, 2023-06-26 13:07:31.729
52.0, 46950.57683593951, 49838.66808875419, 50462.08059335716, -3245.942681544147, -6606.862736566393, -9550.27455690796, 19721.011188150787, 13251.835197429085, 0.094, 0.978, 0.078, 192.0, 0.0, 0.0, 0.0, 0.0, 0.0, 0.0, 0.0, 0.0, 0.0, 1.6878028517353241E9, 0.0, 2023-06-26 13:07:31.735
53.0, 46904.353428405935, 49796.17742254465, 52197.78295728957, -3312.5732317654174, -6662.585635493474, -9624.012961866018, 19669.0433822922, 13185.94225477484, 0.094, 0.978, 0.078, 192.0, 0.0, 0.0, 0.0, 0.0, 0.0, 0.0, 0.0, 0.0, 0.0, 1.687802851738346E9, 0.0, 2023-06-26 13:07:31.738
54.0, 46891.99291372215, 49771.45639317708, 52832.32663063129, -3319.546976035473, -6699.80129001156, -9619.967296119607, 19633.906440008457, 13174.766382547186, 0.094, 0.978, 0.078, 192.0, 0.0, 0.0, 0.0, 0.0, 0.0, 0.0, 0.0, 0.0, 0.0, 1.6878028517433705E9, 0.0, 2023-06-26 13:07:31.743
55.0, 46992.28519109311, 49863.16560067721, 50280.89735280244, -3183.8271837028487, -6591.350625914411, -9501.860678417765, 19717.703129971404, 13278.34436635308, 0.094, 0.978, 0.078, 192.0, 0.0, 0.0, 0.0, 0.0, 0.0, 0.0, 0.0, 0.0, 0.0, 1.6878028517494216E9, 0.0, 2023-06-26 13:07:31.749
56.0, 46988.88772593591, 49869.982882736076, 50211.71870371327, -3201.77563450046, -6572.06107044948, -9513.997675656996, 19749.9119937315, 13284.334633867102, 0.094, 0.978, 0.078, 192.0, 0.0, 0.0, 0.0, 0.0, 0.0, 0.0, 0.0, 0.0, 0.0, 1.6878028517524147E9, 0.0, 2023-06-26 13:07:31.752
57.0, 46917.60801286793, 49804.62638194876, 51859.534008447416, -3295.7200164461156, -6650.672155698795, -9607.964409347107, 19676.88884459601, 13193.072461256083, 0.094, 0.978, 0.078, 192.0, 0.0, 0.0, 0.0, 0.0, 0.0, 0.0, 0.0, 0.0, 0.0, 1.687802851755426E9, 0.0, 2023-06-26 13:07:31.755
58.0, 46904.08520747247, 49784.01807356097, 52992.09689999782, -3320.999839425068, -6687.217257883222, -9625.175252577694, 19636.58864934309, 13163.970489975274, 0.094, 0.978, 0.078, 192.0, 0.0, 0.0, 0.0, 0.0, 0.0, 0.0, 0.0, 0.0, 0.0, 1.687802851758451E9, 0.0, 2023-06-26 13:07:31.758
59.0, 46991.815804459555, 49852.973205205584, 50672.2093429815, -3195.226573375055, -6604.873431309871, -9513.282419834426, 19702.52629548625, 13255.43382828639, 0.1, 0.98, 0.07200000000000001, 192.0, 3.0, 32.0, 30.0, 160.0, 2.0, 64.0, 0.0, 0.0, 0.0, 1.6878028517624652E9, 0.0, 2023-06-26 13:07:31.762
60.0, 46968.56999022603, 49840.43387656616, 49994.14682318531, -3212.8844514947477, -6597.475003895164, -9520.36792282676, 19729.169574876974, 13270.208331371348, 0.1, 0.98, 0.07200000000000001, 192.0, 0.0, 0.0, 0.0, 0.0, 0.0, 0.0, 0.0, 0.0, 0.0, 1.687802851765472E9, 0.0, 2023-06-26 13:07:31.765
61.0, 46940.47384744571, 49821.54665250143, 51497.54750699372, -3278.9562081046356, -6640.278594527077, -9600.990665077052, 19687.014184834265, 13196.268760713192, 0.1, 0.98, 0.07200000000000001, 192.0, 0.0, 0.0, 0.0, 0.0, 0.0, 0.0, 0.0, 0.0, 0.0, 1.6878028517695E9, 0.0, 2023-06-26 13:07:31.769
62.0, 46900.35246614843, 49776.12790776824, 52997.01428377799, -3321.580984780906, -6695.822679498516, -9634.406523037735, 19642.087178479098, 13158.360202116992, 0.1, 0.98, 0.07200000000000001, 192.0, 0.0, 0.0, 0.0, 0.0, 0.0, 0.0, 0.0, 0.0, 0.0, 1.6878028517885993E9, 0.0, 2023-06-26 13:07:31.788
63.0, 46971.810993172054, 49833.907167185214, 51119.803025699024, -3222.1604254437, -6621.614887906896, -9537.84698699081, 19695.083164582633, 13234.713761176321, 0.1, 0.98, 0.07200000000000001, 192.0, 0.0, 0.0, 0.0, 0.0, 0.0, 0.0, 0.0, 0.0, 0.0, 1.687802851791606E9, 0.0, 2023-06-26 13:07:31.791
64.0, 46983.94799041128, 49857.06357444091, 49870.49697285855, -3182.3743203132535, -6568.2836256365335, -9488.360224766759, 19759.90322350302, 13300.316131152646, 0.1, 0.98, 0.07200000000000001, 192.0, 0.0, 0.0, 0.0, 0.0, 0.0, 0.0, 0.0, 0.0, 0.0, 1.6878028517956388E9, 0.0, 2023-06-26 13:07:31.795
65.0, 46939.89270208987, 49822.217204835084, 51203.82323310652, -3261.9912340630576, -6630.220309522189, -9585.27738872497, 19702.436888508426, 13215.155984777926, 0.1, 0.98, 0.07200000000000001, 192.0, 0.0, 0.0, 0.0, 0.0, 0.0, 0.0, 0.0, 0.0, 0.0, 1.6878028517986708E9, 0.0, 2023-06-26 13:07:31.798
66.0, 46907.348562162944, 49791.260038764485, 52918.783178184414, -3308.8851939302917, -6676.84604845596, -9624.392941521757, 19664.483626423316, 13176.867446525985, 0.1, 0.98, 0.07200000000000001, 192.0, 0.0, 0.0, 0.0, 0.0, 0.0, 0.0, 0.0, 0.0, 0.0, 1.6878028518016684E9, 0.0, 2023-06-26 13:07:31.801
67.0, 46961.64094944489, 49822.48542576855, 51614.424778750516, -3243.5957483763395, -6645.93358587427, -9565.250225693015, 19683.70612665488, 13219.715740646809, 0.1, 0.98, 0.07200000000000001, 192.0, 0.0, 0.0, 0.0, 0.0, 0.0, 0.0, 0.0, 0.0, 0.0, 1.6878028518056731E9, 0.0, 2023-06-26 13:07:31.805
68.0, 46981.91398166585, 49848.74872550354, 49795.97625684455, -3188.2751808494545, -6579.101869952902, -9502.307713306871, 19751.744836776834, 13292.940055482395, 0.1, 0.98, 0.07200000000000001, 192.0, 0.0, 0.0, 0.0, 0.0, 0.0, 0.0, 0.0, 0.0, 0.0, 1.6878028518086917E9, 0.0, 2023-06-26 13:07:31.808
69.0, 46959.33871976599, 49838.24340560954, 50921.16307272471, -3254.0116612925126, -6624.185338519256, -9589.099537026828, 19712.56222874668, 13226.75654015023, 0.10200000000000001, 0.994, 0.068, 192.0, 3.0, 48.0, 31.0, 16.0, 2.0, 32.0, 0.0, 0.0, 0.0, 1.6878028518116908E9, 0.0, 2023-06-26 13:07:31.811
70.0, 46901.827681282484, 49779.167745014165, 52709.973181482936, -3309.555746263951, -6687.619589283418, -9648.733991233586, 19658.873338565034, 13173.648795324421, 0.10200000000000001, 0.994, 0.068, 192.0, 0.0, 0.0, 0.0, 0.0, 0.0, 0.0, 0.0, 0.0, 0.0, 1.6878028518147256E9, 0.0, 2023-06-26 13:07:31.814
71.0, 46934.058896787035, 49796.69151266712, 52094.272028717045, -3257.8561613388256, -6676.041385655569, -9583.109269512805, 19657.532233897717, 13200.448536926335, 0.10200000000000001, 0.994, 0.068, 192.0, 0.0, 0.0, 0.0, 0.0, 0.0, 0.0, 0.0, 0.0, 0.0, 1.687802851818744E9, 0.0, 2023-06-26 13:07:31.818
72.0, 47000.756502241675, 49864.68551930017, 49852.52617031648, -3151.6630234316617, -6567.367204113866, -9467.215474512039, 19758.360953135605, 13313.123680725537, 0.10200000000000001, 0.994, 0.068, 192.0, 0.0, 0.0, 0.0, 0.0, 0.0, 0.0, 0.0, 0.0, 0.0, 1.6878028518217652E9, 0.0, 2023-06-26 13:07:31.821
73.0, 46967.92178963683, 49843.78663823446, 50658.9547585195, -3219.9923062315356, -6601.7441870861285, -9533.376638099748, 19739.853708726612, 13267.347308081069, 0.10200000000000001, 0.994, 0.068, 192.0, 0.0, 0.0, 0.0, 0.0, 0.0, 0.0, 0.0, 0.0, 0.0, 1.687802851824777E9, 0.0, 2023-06-26 13:07:31.824
74.0, 46921.4748646587, 49798.949038857114, 52439.09239042907, -3277.9503796041467, -6653.153199333335, -9601.102423799328, 19687.237702278817, 13206.148231762438, 0.10200000000000001, 0.994, 0.068, 192.0, 0.0, 0.0, 0.0, 0.0, 0.0, 0.0, 0.0, 0.0, 0.0, 1.6878028518287847E9, 0.0, 2023-06-26 13:07:31.828
75.0, 46929.56619615152, 49789.82952711934, 52499.17387952493, -3259.26432123951, -6670.408746052832, -9583.153973001716, 19664.014239789754, 13204.94123756185, 0.10200000000000001, 0.994, 0.068, 192.0, 0.0, 0.0, 0.0, 0.0, 0.0, 0.0, 0.0, 0.0, 0.0, 1.6878028518318057E9, 0.0, 2023-06-26 13:07:31.831
76.0, 46992.48635679321, 49847.16175164721, 50001.07586396645, -3168.136259095223, -6590.501259625109, -9487.44380324409, 19739.741950004336, 13297.924494495928, 0.10200000000000001, 0.994, 0.068, 192.0, 0.0, 0.0, 0.0, 0.0, 0.0, 0.0, 0.0, 0.0, 0.0, 1.687802851834823E9, 0.0, 2023-06-26 13:07:31.834
77.0, 46972.794469928085, 49842.04320216694, 50384.3412261416, -3217.354800385809, -6608.114434255891, -9529.621545031256, 19729.191926621428, 13271.258863360747, 0.10200000000000001, 0.994, 0.068, 192.0, 0.0, 0.0, 0.0, 0.0, 0.0, 0.0, 0.0, 0.0, 0.0, 1.6878028518378377E9, 0.0, 2023-06-26 13:07:31.837
78.0, 46924.78292283809, 49796.13271905574, 52113.60628767089, -3287.2487052975544, -6664.530237261086, -9607.584429691367, 19674.02782130573, 13195.441746168346, 0.10200000000000001, 0.994, 0.068, 192.0, 0.0, 0.0, 0.0, 0.0, 0.0, 0.0, 0.0, 0.0, 0.0, 1.6878028518418517E9, 0.0, 2023-06-26 13:07:31.841
79.0, 46923.10654200394, 49784.71097763908, 52818.401493835634, -3281.5043069725407, -6687.440775327776, -9601.370644732791, 19651.832539061612, 13182.56714136209, 0.10200000000000001, 0.994, 0.068, 192.0, 0.0, 0.0, 0.0, 0.0, 0.0, 0.0, 0.0, 0.0, 0.0, 1.687802851844866E9, 0.0, 2023-06-26 13:07:31.844
80.0, 47004.2433743767, 49856.50478082953, 50291.91676281891, -3176.562866754874, -6599.821937062971, -9499.826669672331, 19717.837240438133, 13272.555264539154, 0.106, 0.988, 0.06, 192.0, 3.0, 80.0, 30.0, 224.0, 1.0, 224.0, 0.0, 0.0, 0.0, 1.6878028518478813E9, 0.0, 2023-06-26 13:07:31.847
81.0, 46984.01504564465, 49851.520341815994, 50135.52160686512, -3214.8290532623596, -6592.669378837273, -9531.253222376494, 19736.94798194742, 13271.035345916194, 0.106, 0.988, 0.06, 192.0, 0.0, 0.0, 0.0, 0.0, 0.0, 0.0, 0.0, 0.0, 0.0, 1.6878028518519056E9, 0.0, 2023-06-26 13:07:31.851
82.0, 46940.80912361254, 49826.19581534813, 51731.14558829613, -3292.903696644747, -6668.061812885024, -9611.272467526493, 19664.528329912227, 13177.292129670637, 0.106, 0.988, 0.06, 192.0, 0.0, 0.0, 0.0, 0.0, 0.0, 0.0, 0.0, 0.0, 0.0, 1.6878028518549216E9, 0.0, 2023-06-26 13:07:31.854
83.0, 46911.1707104648, 49799.9548673576, 52944.75590524148, -3322.497406303574, -6697.052025443558, -9627.611592723322, 19630.240753917784, 13157.935518972341, 0.106, 0.988, 0.06, 192.0, 0.0, 0.0, 0.0, 0.0, 0.0, 0.0, 0.0, 0.0, 0.0, 1.687802851857926E9, 0.0, 2023-06-26 13:07:31.857
84.0, 46981.26578107665, 49857.24238839655, 50678.42312794008, -3212.5491753279184, -6618.485643683153, -9530.873242720752, 19689.629338935538, 13240.748732179252, 0.106, 0.988, 0.06, 192.0, 0.0, 0.0, 0.0, 0.0, 0.0, 0.0, 0.0, 0.0, 0.0, 1.6878028518609347E9, 0.0, 2023-06-26 13:07:31.860
85.0, 46984.57383925603, 49877.33660666187, 49983.10506142439, -3194.48896580803, -6598.2573149511, -9522.558393783378, 19724.56511551918, 13262.318165578625, 0.106, 0.988, 0.06, 192.0, 0.0, 0.0, 0.0, 0.0, 0.0, 0.0, 0.0, 0.0, 0.0, 1.6878028518649633E9, 0.0, 2023-06-26 13:07:31.864
86.0, 46957.21530404274, 49863.411469866216, 51435.63317485251, -3271.088394056367, -6663.502057016141, -9618.492080985556, 19657.55458564217, 13171.4583243678, 0.106, 0.988, 0.06, 192.0, 0.0, 0.0, 0.0, 0.0, 0.0, 0.0, 0.0, 0.0, 0.0, 1.6878028518689833E9, 0.0, 2023-06-26 13:07:31.868
87.0, 46924.626460626896, 49832.09667588433, 52977.7023765686, -3311.835624198392, -6711.066569217035, -9633.691267215165, 19618.327274123105, 13145.373838588457, 0.106, 0.988, 0.06, 192.0, 0.0, 0.0, 0.0, 0.0, 0.0, 0.0, 0.0, 0.0, 0.0, 1.687802851873016E9, 0.0, 2023-06-26 13:07:31.873
88.0, 46985.78083345662, 49878.297731673454, 51182.27615145161, -3225.9155185121917, -6650.180417320778, -9549.291080151927, 19665.60121364608, 13210.395063208945, 0.106, 0.988, 0.06, 192.0, 0.0, 0.0, 0.0, 0.0, 0.0, 0.0, 0.0, 0.0, 0.0, 1.6878028518790572E9, 0.0, 2023-06-26 13:07:31.879
89.0, 46986.45138579028, 49889.94299053466, 49849.77690574848, -3199.4734048215637, -6603.197050475723, -9512.03072214493, 19730.91301094449, 13272.890540705985, 0.106, 0.988, 0.06, 192.0, 0.0, 0.0, 0.0, 0.0, 0.0, 0.0, 0.0, 0.0, 0.0, 1.6878028518830588E9, 0.0, 2023-06-26 13:07:31.883
90.0, 46965.44074600229, 49882.276342186495, 51143.98761319967, -3256.4703531825967, -6627.672210654285, -9577.767202587987, 19700.000548362797, 13211.84792659854, 0.1, 0.988, 0.062, 192.0, 3.0, 32.0, 30.0, 224.0, 1.0, 240.0, 0.0, 0.0, 0.0, 1.6878028518860612E9, 0.0, 2023-06-26 13:07:31.886
91.0, 46925.36406819392, 49845.15009464623, 52883.1321457782, -3304.7948246949704, -6685.652635771351, -9631.701961958643, 19647.384541915006, 13155.990917204728, 0.1, 0.988, 0.062, 192.0, 0.0, 0.0, 0.0, 0.0, 0.0, 0.0, 0.0, 0.0, 0.0, 1.6878028518900957E9, 0.0, 2023-06-26 13:07:31.890
92.0, 46958.39994649887, 49860.68455704267, 51668.91833173255, -3249.4519054236303, -6663.077373871491, -9575.46497290909, 19665.37769620153, 13199.979150292773, 0.1, 0.988, 0.062, 192.0, 0.0, 0.0, 0.0, 0.0, 0.0, 0.0, 0.0, 0.0, 0.0, 1.687802851893093E9, 0.0, 2023-06-26 13:07:31.893
93.0, 46991.56993527054, 49902.68348487419, 49814.34939078682, -3189.303361094399, -6589.562486357986, -9505.481661019523, 19741.86536572759, 13284.379337356013, 0.1, 0.988, 0.062, 192.0, 0.0, 0.0, 0.0, 0.0, 0.0, 0.0, 0.0, 0.0, 0.0, 1.687802851897162E9, 0.0, 2023-06-26 13:07:31.897
94.0, 46970.626350715924, 49898.570763894415, 50858.51113301649, -3233.6045186048173, -6623.961821074703, -9556.197769188615, 19714.864458425578, 13231.539813463667, 0.1, 0.988, 0.062, 192.0, 0.0, 0.0, 0.0, 0.0, 0.0, 0.0, 0.0, 0.0, 0.0, 1.6878028519012148E9, 0.0, 2023-06-26 13:07:31.901
95.0, 46925.34171644947, 49858.89641748624, 52655.52433198981, -3291.294371043965, -6674.834391454982, -9619.877889141786, 19665.467103179348, 13174.498161613723, 0.1, 0.988, 0.062, 192.0, 0.0, 0.0, 0.0, 0.0, 0.0, 0.0, 0.0, 0.0, 0.0, 1.6878028519071975E9, 0.0, 2023-06-26 13:07:31.907
96.0, 46945.83826611499, 49865.82545826739, 52146.17277934227, -3251.932949058169, -6679.1706298793115, -9577.878961310264, 19659.454483920872, 13196.380519435468, 0.1, 0.988, 0.062, 192.0, 0.0, 0.0, 0.0, 0.0, 0.0, 0.0, 0.0, 0.0, 0.0, 1.6878028519101946E9, 0.0, 2023-06-26 13:07:31.910
97.0, 46993.67099924934, 49915.423979213716, 49888.40072016725, -3180.1838493566333, -6595.1727742162675, -9486.97441661053, 19738.691418014936, 13289.810811258652, 0.1, 0.988, 0.062, 192.0, 0.0, 0.0, 0.0, 0.0, 0.0, 0.0, 0.0, 0.0, 0.0, 1.687802851914225E9, 0.0, 2023-06-26 13:07:31.914
98.0, 46961.52919072261, 49900.40360693975, 50610.809100962775, -3256.448001438141, -6638.64691718184, -9563.640900092232, 19699.08412684013, 13219.112243546515, 0.1, 0.988, 0.062, 192.0, 0.0, 0.0, 0.0, 0.0, 0.0, 0.0, 0.0, 0.0, 0.0, 1.6878028519173267E9, 0.0, 2023-06-26 13:07:31.917
99.0, 46918.90441404634, 49862.45034485464, 52380.73198565626, -3290.1544320767443, -6693.542801564075, -9615.47459548409, 19648.390370415495, 13162.808199263598, 0.1, 0.988, 0.062, 192.0, 0.0, 0.0, 0.0, 0.0, 0.0, 0.0, 0.0, 0.0, 0.0, 1.6878028519222496E9, 0.0, 2023-06-26 13:07:31.922
100.0, 46940.987937568185, 49870.675786814194, 52564.709194267896, -3264.137001530767, -6692.760490508139, -9585.411499191701, 19654.9394315409, 13188.490353642745, 0.096, 0.99, 0.064, 192.0, 3.0, 0.0, 30.0, 240.0, 2.0, 0.0, 0.0, 0.0, 0.0, 1.687802851925275E9, 0.0, 2023-06-26 13:07:31.925
101.0, 47013.56405181457, 49938.40157251377, 50074.14371659085, -3164.62703521574, -6595.083367238447, -9484.001634597973, 19744.636982040047, 13291.263674648248, 0.096, 0.99, 0.064, 192.0, 0.0, 0.0, 0.0, 0.0, 0.0, 0.0, 0.0, 0.0, 0.0, 1.6878028519293065E9, 0.0, 2023-06-26 13:07:31.929
102.0, 46975.29786530708, 49912.36179022334, 50397.081720481125, -3213.6667625506834, -6612.338913957944, -9533.488396822024, 19735.42806332446, 13251.09758986206, 0.096, 0.99, 0.064, 192.0, 0.0, 0.0, 0.0, 0.0, 0.0, 0.0, 0.0, 0.0, 0.0, 1.6878028519332952E9, 0.0, 2023-06-26 13:07:31.933
103.0, 46931.10846651894, 49872.30746415943, 52064.94653999169, -3286.8016704084484, -6673.582693765485, -9608.61260993631, 19678.65463240798, 13179.057917482605, 0.096, 0.99, 0.064, 192.0, 0.0, 0.0, 0.0, 0.0, 0.0, 0.0, 0.0, 0.0, 0.0, 1.6878028519383297E9, 0.0, 2023-06-26 13:07:31.938
104.0, 46920.44668441376, 49851.945024960645, 52841.35673539123, -3297.999894380557, -6713.145281451379, -9616.748644918043, 19639.248506933272, 13157.443780594323, 0.096, 0.99, 0.064, 192.0, 0.0, 0.0, 0.0, 0.0, 0.0, 0.0, 0.0, 0.0, 0.0, 1.687802851942332E9, 0.0, 2023-06-26 13:07:31.942
105.0, 47000.35417084148, 49919.9837350826, 50352.48999029279, -3197.5064513094967, -6636.881129369871, -9522.737207739021, 19694.032632593233, 13237.194804810859, 0.096, 0.99, 0.064, 192.0, 0.0, 0.0, 0.0, 0.0, 0.0, 0.0, 0.0, 0.0, 0.0, 1.687802851945357E9, 0.0, 2023-06-26 13:07:31.945
106.0, 46987.9936561577, 49922.04009557248, 50168.11045028096, -3216.460730607597, -6615.132882014857, -9542.943184726619, 19722.687568984937, 13238.155929822438, 0.096, 0.99, 0.064, 192.0, 0.0, 0.0, 0.0, 0.0, 0.0, 0.0, 0.0, 0.0, 0.0, 1.6878028519493625E9, 0.0, 2023-06-26 13:07:31.949
107.0, 46941.971414324216, 49885.76321432152, 51730.78796038484, -3281.3254930168982, -6659.121115102901, -9608.61260993631, 19686.053059822687, 13187.261007697703, 0.096, 0.99, 0.064, 192.0, 0.0, 0.0, 0.0, 0.0, 0.0, 0.0, 0.0, 0.0, 0.0, 1.6878028519533997E9, 0.0, 2023-06-26 13:07:31.953
108.0, 46908.10852147442, 49845.82064697989, 52957.80932400338, -3318.0941126458783, -6710.954810494758, -9640.687363229676, 19637.0356842322, 13152.325231114059, 0.096, 0.99, 0.064, 192.0, 0.0, 0.0, 0.0, 0.0, 0.0, 0.0, 0.0, 0.0, 0.0, 1.6878028519574022E9, 0.0, 2023-06-26 13:07:31.957
109.0, 46987.01017940166, 49912.272383245516, 50744.114904894224, -3211.453939849608, -6632.589594434452, -9535.343591611814, 19697.206580305887, 13229.95283960734, 0.096, 0.99, 0.064, 192.0, 0.0, 0.0, 0.0, 0.0, 0.0, 0.0, 0.0, 0.0, 0.0, 1.6878028519614303E9, 0.0, 2023-06-26 13:07:31.961
110.0, 47007.57378430054, 49947.40932552926, 49977.85240147739, -3184.095404636312, -6591.551791614508, -9513.349475067793, 19749.95669722041, 13268.375488326014, 0.094, 0.988, 0.058, 192.0, 2.0, 240.0, 30.0, 224.0, 1.0, 208.0, 0.0, 0.0, 0.0, 1.687802851965452E9, 0.0, 2023-06-26 13:07:31.965
111.0, 46955.874199375416, 49904.650438386256, 51410.9344972294, -3265.522809686996, -6655.41072552332, -9587.311397470403, 19692.602120948093, 13198.794507836641, 0.094, 0.988, 0.058, 192.0, 0.0, 0.0, 0.0, 0.0, 0.0, 0.0, 0.0, 0.0, 0.0, 1.687802851970488E9, 0.0, 2023-06-26 13:07:31.970
112.0, 46918.546786135055, 49865.6689960562, 52978.68585332464, -3307.521737518518, -6711.647714572873, -9617.530955973978, 19644.99290525829, 13163.41169636389, 0.094, 0.988, 0.058, 192.0, 0.0, 0.0, 0.0, 0.0, 0.0, 0.0, 0.0, 0.0, 0.0, 1.6878028519734924E9, 0.0, 2023-06-26 13:07:31.973
113.0, 46983.12097586644, 49913.76995012402, 51223.559823460564, -3225.490835367541, -6658.115286602412, -9545.22306266106, 19680.733344642325, 13216.228868511782, 0.094, 0.988, 0.058, 192.0, 0.0, 0.0, 0.0, 0.0, 0.0, 0.0, 0.0, 0.0, 0.0, 1.687802851977509E9, 0.0, 2023-06-26 13:07:31.977
114.0, 46993.67099924934, 49936.12169457933, 49868.842943768854, -3194.8912972082258, -6603.018236520081, -9506.062806375361, 19743.877022728568, 13276.667985518932, 0.094, 0.988, 0.058, 192.0, 0.0, 0.0, 0.0, 0.0, 0.0, 0.0, 0.0, 0.0, 0.0, 1.6878028519815392E9, 0.0, 2023-06-26 13:07:31.981
115.0, 46951.91794060683, 49902.97405755211, 51120.74179896615, -3266.7074521431273, -6637.685792170262, -9575.487324653546, 19720.22887709485, 13216.519441189701, 0.094, 0.988, 0.058, 192.0, 0.0, 0.0, 0.0, 0.0, 0.0, 0.0, 0.0, 0.0, 0.0, 1.6878028519855385E9, 0.0, 2023-06-26 13:07:31.985
116.0, 46910.70132383124, 49865.40077512274, 52848.55399710584, -3316.395380067275, -6695.397996353865, -9621.241345553559, 19666.092952024097, 13161.154170173904, 0.094, 0.988, 0.058, 192.0, 0.0, 0.0, 0.0, 0.0, 0.0, 0.0, 0.0, 0.0, 0.0, 1.6878028519895716E9, 0.0, 2023-06-26 13:07:31.989
117.0, 46971.69923444978, 49912.71941813462, 51713.08537877624, -3246.0544402664236, -6675.9966821666585, -9564.89259778173, 19668.931623569923, 13190.434955410357, 0.094, 0.988, 0.058, 192.0, 0.0, 0.0, 0.0, 0.0, 0.0, 0.0, 0.0, 0.0, 0.0, 1.6878028519935896E9, 0.0, 2023-06-26 13:07:31.993
118.0, 47013.608755303474, 49961.17800011373, 49818.99855363352, -3173.813602186871, -6595.038663749536, -9482.25819853046, 19749.844938498132, 13282.144162910481, 0.094, 0.988, 0.058, 192.0, 0.0, 0.0, 0.0, 0.0, 0.0, 0.0, 0.0, 0.0, 0.0, 1.6878028519975984E9, 0.0, 2023-06-26 13:07:31.997
119.0, 46972.6380077169, 49929.23735728709, 50838.72983917354, -3253.78814384796, -6636.07646656948, -9569.251187950515, 19712.405766535496, 13206.550563162633, 0.094, 0.988, 0.058, 192.0, 0.0, 0.0, 0.0, 0.0, 0.0, 0.0, 0.0, 0.0, 0.0, 1.6878028520016232E9, 0.0, 2023-06-26 13:07:32.001
120.0, 46920.87136755841, 49879.57178110741, 52594.07938648217, -3314.718999233127, -6686.993740438669, -9639.681534729187, 19666.383524702018, 13146.871405466964, 0.094, 0.988, 0.058, 192.0, 0.0, 0.0, 0.0, 0.0, 0.0, 0.0, 0.0, 0.0, 0.0, 1.6878028520046406E9, 0.0, 2023-06-26 13:07:32.004
121.0, 46950.01804232813, 49895.37446443731, 52172.83841047745, -3266.752155632038, -6690.234743384689, -9580.158839244705, 19665.198882245884, 13187.931560031362, 0.09, 0.99, 0.054, 192.0, 2.0, 208.0, 30.0, 240.0, 1.0, 176.0, 0.0, 0.0, 0.0, 1.6878028520096505E9, 0.0, 2023-06-26 13:07:32.009
122.0, 47003.617525531954, 49947.990470885095, 49897.095548760364, -3175.4899830210193, -6595.016312005081, -9488.248466044482, 19755.38817112305, 13287.665043790943, 0.09, 0.99, 0.054, 192.0, 0.0, 0.0, 0.0, 0.0, 0.0, 0.0, 0.0, 0.0, 0.0, 1.687802852013672E9, 0.0, 2023-06-26 13:07:32.013
123.0, 46981.534002010114, 49941.352002781874, 50600.72846421343, -3224.239137678044, -6627.694562398739, -9546.541815583923, 19732.365874334082, 13239.452331000844, 0.09, 0.99, 0.054, 192.0, 0.0, 0.0, 0.0, 0.0, 0.0, 0.0, 0.0, 0.0, 0.0, 1.687802852017718E9, 0.0, 2023-06-26 13:07:32.017
124.0, 46939.75859162314, 49905.81272909793, 52339.4036101584, -3280.096147071856, -6684.490345059675, -9607.539726202456, 19683.48260921033, 13180.309615172102, 0.09, 0.99, 0.054, 192.0, 0.0, 0.0, 0.0, 0.0, 0.0, 0.0, 0.0, 0.0, 0.0, 1.6878028520217795E9, 0.0, 2023-06-26 13:07:32.021
125.0, 46942.26198700214, 49900.33655170639, 52588.98318874636, -3276.251647025543, -6700.650656300862, -9608.031464580472, 19657.37577168653, 13166.719754543275, 0.09, 0.99, 0.054, 192.0, 0.0, 0.0, 0.0, 0.0, 0.0, 0.0, 0.0, 0.0, 0.0, 1.6878028520257447E9, 0.0, 2023-06-26 13:07:32.025
126.0, 47013.42994134784, 49965.201314115686, 50112.92399322081, -3165.2528840604887, -6610.528422657064, -9489.746032922987, 19742.222993638872, 13272.443505816878, 0.09, 0.99, 0.054, 192.0, 0.0, 0.0, 0.0, 0.0, 0.0, 0.0, 0.0, 0.0, 0.0, 1.6878028520287876E9, 0.0, 2023-06-26 13:07:32.028
127.0, 47000.4435778193, 49968.822296717444, 50406.49180489681, -3186.5093930374856, -6605.253410965612, -9504.095852863295, 19766.85461602862, 13274.76808724023, 0.09, 0.99, 0.054, 192.0, 0.0, 0.0, 0.0, 0.0, 0.0, 0.0, 0.0, 0.0, 0.0, 1.6878028520328023E9, 0.0, 2023-06-26 13:07:32.032
128.0, 46949.079269061, 49924.90111886276, 52067.561694092954, -3264.941664331158, -6673.94032167677, -9591.155897516715, 19698.23476055083, 13191.284321699659, 0.09, 0.99, 0.054, 192.0, 0.0, 0.0, 0.0, 0.0, 0.0, 0.0, 0.0, 0.0, 0.0, 1.6878028520368068E9, 0.0, 2023-06-26 13:07:32.036
129.0, 46931.08611477448, 49894.77096733701, 52883.690939389584, -3280.520830216507, -6709.077263960513, -9604.477537212078, 19658.336896698107, 13173.51468485769, 0.09, 0.99, 0.054, 192.0, 0.0, 0.0, 0.0, 0.0, 0.0, 0.0, 0.0, 0.0, 0.0, 1.6878028520418236E9, 0.0, 2023-06-26 13:07:32.041
130.0, 47012.49116808071, 49965.78245947152, 50417.51121491328, -3169.812639929371, -6624.520614686086, -9500.050187116884, 19726.532069031247, 13259.233624843791, 0.09, 0.99, 0.054, 192.0, 0.0, 0.0, 0.0, 0.0, 0.0, 0.0, 0.0, 0.0, 0.0, 1.6878028520458367E9, 0.0, 2023-06-26 13:07:32.045
131.0, 47017.52031058315, 49988.93886672722, 50184.94131385581, -3166.3928230277093, -6604.851079565416, -9488.695500933589, 19762.71954330439, 13287.173305412925, 0.092, 0.99, 0.058, 192.0, 2.0, 224.0, 30.0, 240.0, 1.0, 208.0, 0.0, 0.0, 0.0, 1.6878028520498548E9, 0.0, 2023-06-26 13:07:32.049
132.0, 46972.14626933888, 49950.62797673082, 51719.88030909065, -3251.3518037023314, -6662.60798723793, -9585.746775358532, 19703.33095828664, 13197.051071769129, 0.092, 0.99, 0.058, 192.0, 0.0, 0.0, 0.0, 0.0, 0.0, 0.0, 0.0, 0.0, 0.0, 1.6878028520538728E9, 0.0, 2023-06-26 13:07:32.053
133.0, 46916.311611689525, 49888.288961444974, 52990.57698137486, -3305.5324322619954, -6723.04710424508, -9626.71752294511, 19651.60902161706, 13159.947175973319, 0.092, 0.99, 0.058, 192.0, 0.0, 0.0, 0.0, 0.0, 0.0, 0.0, 0.0, 0.0, 0.0, 1.687802852056899E9, 0.0, 2023-06-26 13:07:32.056
134.0, 46997.9401824403, 49950.98560464211, 50810.23136499302, -3209.554041570907, -6664.820809939005, -9540.149216669704, 19683.884940610522, 13220.229830769282, 0.092, 0.99, 0.058, 192.0, 0.0, 0.0, 0.0, 0.0, 0.0, 0.0, 0.0, 0.0, 0.0, 1.6878028520609045E9, 0.0, 2023-06-26 13:07:32.060
135.0, 46994.877993449925, 49960.52979952453, 49987.73187252663, -3192.0973291513124, -6617.54687041603, -9507.73918720951, 19747.14037741904, 13269.537779037688, 0.092, 0.99, 0.058, 192.0, 0.0, 0.0, 0.0, 0.0, 0.0, 0.0, 0.0, 0.0, 0.0, 1.687802852064925E9, 0.0, 2023-06-26 13:07:32.064
136.0, 46962.57972271201, 49937.84277890239, 51422.60210783507, -3258.9513968171354, -6650.001603365136, -9573.028632763462, 19730.644790011025, 13219.335760991069, 0.092, 0.99, 0.058, 192.0, 0.0, 0.0, 0.0, 0.0, 0.0, 0.0, 0.0, 0.0, 0.0, 1.687802852070974E9, 0.0, 2023-06-26 13:07:32.070
137.0, 46940.71971663472, 49915.66984840272, 52974.17080094467, -3293.7530629340486, -6701.969409223725, -9614.871098383797, 19675.078353295132, 13169.714888300286, 0.092, 0.99, 0.058, 192.0, 0.0, 0.0, 0.0, 0.0, 0.0, 0.0, 0.0, 0.0, 0.0, 1.687802852074984E9, 0.0, 2023-06-26 13:07:32.074
138.0, 46986.63019974592, 49945.50942725056, 51241.865902169455, -3221.266355665488, -6660.663385470318, -9548.709934796088, 19694.904350626988, 13209.948028319839, 0.092, 0.99, 0.058, 192.0, 0.0, 0.0, 0.0, 0.0, 0.0, 0.0, 0.0, 0.0, 0.0, 1.687802852079007E9, 0.0, 2023-06-26 13:07:32.079
139.0, 47012.781740758626, 49983.999131202596, 49837.48344629806, -3175.400576043198, -6602.794719075528, -9495.557486481368, 19756.05872345671, 13268.889578448485, 0.092, 0.99, 0.058, 192.0, 0.0, 0.0, 0.0, 0.0, 0.0, 0.0, 0.0, 0.0, 0.0, 1.6878028520820277E9, 0.0, 2023-06-26 13:07:32.082
140.0, 46958.64581568787, 49938.066296346944, 51110.03531337206, -3259.7560596175267, -6655.477780756686, -9571.821638562875, 19710.081185112143, 13201.90140031593, 0.092, 0.99, 0.058, 192.0, 0.0, 0.0, 0.0, 0.0, 0.0, 0.0, 0.0, 0.0, 0.0, 1.6878028520860453E9, 0.0, 2023-06-26 13:07:32.086
141.0, 46918.81500706852, 49901.74471160707, 52848.97868025049, -3310.5615747644397, -6713.2346884292, -9623.700037443643, 19656.74992284178, 13152.057010180595, 0.10200000000000001, 0.976, 0.064, 192.0, 3.0, 48.0, 30.0, 128.0, 2.0, 0.0, 0.0, 0.0, 0.0, 1.6878028520890486E9, 0.0, 2023-06-26 13:07:32.089
142.0, 46980.93050490982, 49948.01282262956, 51783.69453951056, -3240.6006146193286, -6686.189077638278, -9562.970347758574, 19670.60800440407, 13189.742051332243, 0.10200000000000001, 0.976, 0.064, 192.0, 0.0, 0.0, 0.0, 0.0, 0.0, 0.0, 0.0, 0.0, 0.0, 1.6878028520930722E9, 0.0, 2023-06-26 13:07:32.093
143.0, 47030.819598534064, 49998.058378464986, 49829.68268748316, -3162.034232858924, -6613.12122501388, -9477.676090917123, 19752.28127864376, 13281.920645465929, 0.10200000000000001, 0.976, 0.064, 192.0, 0.0, 0.0, 0.0, 0.0, 0.0, 0.0, 0.0, 0.0, 0.0, 1.687802852097118E9, 0.0, 2023-06-26 13:07:32.097
144.0, 46983.63506598891, 49959.83689544641, 50826.30226925639, -3240.265338452499, -6653.756696433627, -9566.636033849243, 19708.203638577896, 13206.215286995804, 0.10200000000000001, 0.976, 0.064, 192.0, 0.0, 0.0, 0.0, 0.0, 0.0, 0.0, 0.0, 0.0, 0.0, 1.6878028521082044E9, 0.0, 2023-06-26 13:07:32.108
145.0, 46940.45149570126, 49921.034267072, 52604.964686031904, -3287.382815764286, -6697.409653354843, -9606.556249446423, 19665.467103179348, 13168.910225499896, 0.10200000000000001, 0.976, 0.064, 192.0, 0.0, 0.0, 0.0, 0.0, 0.0, 0.0, 0.0, 0.0, 0.0, 1.6878028521292596E9, 0.0, 2023-06-26 13:07:32.129
146.0, 46981.37753979892, 49947.61049122936, 52234.328059474, -3240.466504152597, -6695.84503124297, -9559.148199456717, 19657.532233897717, 13191.41843216639, 0.10200000000000001, 0.976, 0.064, 192.0, 0.0, 0.0, 0.0, 0.0, 0.0, 0.0, 0.0, 0.0, 0.0, 1.6878028521322672E9, 0.0, 2023-06-26 13:07:32.132
147.0, 47031.89248226792, 49996.98549473113, 49900.35890345084, -3152.7359071655164, -6613.031818036058, -9467.573102423323, 19736.545650547225, 13283.529971066711, 0.10200000000000001, 0.976, 0.064, 192.0, 0.0, 0.0, 0.0, 0.0, 0.0, 0.0, 0.0, 0.0, 0.0, 1.687802852135289E9, 0.0, 2023-06-26 13:07:32.135
148.0, 47003.88574646542, 49986.27900913704, 50597.91214441206, -3204.971933957569, -6635.428265980276, -9520.256164104481, 19729.303685343708, 13245.66611595942, 0.10200000000000001, 0.976, 0.064, 192.0, 0.0, 0.0, 0.0, 0.0, 0.0, 0.0, 0.0, 0.0, 0.0, 1.6878028521383321E9, 0.0, 2023-06-26 13:07:32.138
149.0, 46957.550580209565, 49943.92245339423, 52333.32393566656, -3269.367309733309, -6690.078281173502, -9588.250170737527, 19678.453466707884, 13183.260045440204, 0.10200000000000001, 0.976, 0.064, 192.0, 0.0, 0.0, 0.0, 0.0, 0.0, 0.0, 0.0, 0.0, 0.0, 1.6878028521413052E9, 0.0, 2023-06-26 13:07:32.141
150.0, 46953.25904527415, 49924.65524967376, 52625.662401397516, -3265.0310713089793, -6713.27939191811, -9588.5630951599, 19653.911251295955, 13174.408754635902, 0.10200000000000001, 0.976, 0.064, 192.0, 0.0, 0.0, 0.0, 0.0, 0.0, 0.0, 0.0, 0.0, 0.0, 1.6878028521453352E9, 0.0, 2023-06-26 13:07:32.145
151.0, 47022.3482873855, 49984.96025621417, 50115.87442348891, -3174.8194306873597, -6639.004545093125, -9507.180393598128, 19707.801307177702, 13242.134540335483, 0.10400000000000001, 0.97, 0.062, 192.0, 3.0, 64.0, 30.0, 80.0, 1.0, 240.0, 0.0, 0.0, 0.0, 1.687802852148348E9, 0.0, 2023-06-26 13:07:32.148
152.0, 47015.46395009327, 49995.44322436371, 50375.691101037395, -3198.467576321075, -6637.775199148083, -9516.434015802624, 19726.554420775705, 13246.224909570803, 0.10400000000000001, 0.97, 0.062, 192.0, 0.0, 0.0, 0.0, 0.0, 0.0, 0.0, 0.0, 0.0, 0.0, 1.6878028521513708E9, 0.0, 2023-06-26 13:07:32.151
153.0, 46990.29588583659, 49978.187677644215, 52024.91456567223, -3253.586978147862, -6679.640016512873, -9576.649615365222, 19686.61185343407, 13185.159943718905, 0.10400000000000001, 0.97, 0.062, 192.0, 0.0, 0.0, 0.0, 0.0, 0.0, 0.0, 0.0, 0.0, 0.0, 1.6878028521544077E9, 0.0, 2023-06-26 13:07:32.154
154.0, 46962.020929100625, 49939.742677181086, 52880.31582597683, -3269.5461236889514, -6718.241479187189, -9588.09370852634, 19649.93264078291, 13163.568158575077, 0.10400000000000001, 0.97, 0.062, 192.0, 0.0, 0.0, 0.0, 0.0, 0.0, 0.0, 0.0, 0.0, 0.0, 1.6878028521589775E9, 0.0, 2023-06-26 13:07:32.158
155.0, 47022.92943274134, 49988.08950043792, 50432.039848809225, -3179.9603319120806, -6645.7100684297175, -9504.989922641507, 19703.509772242283, 13239.072351345105, 0.10400000000000001, 0.97, 0.062, 192.0, 0.0, 0.0, 0.0, 0.0, 0.0, 0.0, 0.0, 0.0, 0.0, 1.6878028521614373E9, 0.0, 2023-06-26 13:07:32.161
156.0, 47000.15300514138, 49977.159497399276, 50158.94623505429, -3201.8203379893707, -6629.16977753279, -9517.5963065143, 19738.222031381374, 13248.303621805147, 0.10400000000000001, 0.97, 0.062, 192.0, 0.0, 0.0, 0.0, 0.0, 0.0, 0.0, 0.0, 0.0, 0.0, 1.6878028521644423E9, 0.0, 2023-06-26 13:07:32.164
157.0, 46971.36395828295, 49956.12650586683, 51715.007628799394, -3266.618045165306, -6681.294045602566, -9587.311397470403, 19687.438867978915, 13179.415545393891, 0.10400000000000001, 0.97, 0.062, 192.0, 0.0, 0.0, 0.0, 0.0, 0.0, 0.0, 0.0, 0.0, 0.0, 1.6878028521674373E9, 0.0, 2023-06-26 13:07:32.167
158.0, 46954.398984241365, 49934.60177595637, 53002.468109425085, -3285.1699930632108, -6713.592316340485, -9605.57277269039, 19660.549719399183, 13163.635213808444, 0.10400000000000001, 0.97, 0.062, 192.0, 0.0, 0.0, 0.0, 0.0, 0.0, 0.0, 0.0, 0.0, 0.0, 1.6878028521714723E9, 0.0, 2023-06-26 13:07:32.171
159.0, 47008.11022616747, 49970.18575312922, 50844.31777528737, -3209.39757935972, -6660.7974959370495, -9536.438827090124, 19692.736231414823, 13215.066577800106, 0.10400000000000001, 0.97, 0.062, 192.0, 0.0, 0.0, 0.0, 0.0, 0.0, 0.0, 0.0, 0.0, 0.0, 1.6878028521744876E9, 0.0, 2023-06-26 13:07:32.174
160.0, 47006.03151393313, 49981.09340442341, 50008.8542710369, -3196.075939664357, -6625.302925742022, -9507.515669764956, 19737.10444415861, 13257.91487192093, 0.10400000000000001, 0.97, 0.062, 192.0, 0.0, 0.0, 0.0, 0.0, 0.0, 0.0, 0.0, 0.0, 0.0, 1.6878028521775105E9, 0.0, 2023-06-26 13:07:32.177
161.0, 46969.86639140444, 49951.5891017424, 51421.193947934386, -3269.6131789223173, -6669.112344874424, -9587.065528281395, 19696.714841927867, 13186.121068730483, 0.10400000000000001, 0.97, 0.062, 192.0, 0.0, 0.0, 0.0, 0.0, 0.0, 0.0, 0.0, 0.0, 0.0, 1.6878028521805036E9, 0.0, 2023-06-26 13:07:32.180
162.0, 46933.56715840902, 49913.16645302373, 52997.75189134501, -3316.1495108782665, -6719.470825132231, -9631.500796258546, 19648.144501226485, 13142.222242620259, 0.096, 0.966, 0.06, 192.0, 3.0, 0.0, 30.0, 48.0, 1.0, 224.0, 0.0, 0.0, 0.0, 1.6878028521845336E9, 0.0, 2023-06-26 13:07:32.184
163.0, 46996.50967079517, 49962.72027048114, 51349.40014474394, -3227.077809223868, -6664.977272150192, -9541.959707970585, 19689.092897068607, 13212.09379578755, 0.096, 0.966, 0.06, 192.0, 0.0, 0.0, 0.0, 0.0, 0.0, 0.0, 0.0, 0.0, 0.0, 1.6878028521875637E9, 0.0, 2023-06-26 13:07:32.187
164.0, 47017.76617977217, 49992.60455281789, 49878.32008341791, -3180.2509045899997, -6600.961876030193, -9488.11435557775, 19760.35025839213, 13278.970215197829, 0.096, 0.966, 0.06, 192.0, 0.0, 0.0, 0.0, 0.0, 0.0, 0.0, 0.0, 0.0, 0.0, 1.6878028521905713E9, 0.0, 2023-06-26 13:07:32.190
165.0, 46963.1832198123, 49947.45402901817, 51118.8642524319, -3269.8590481113256, -6659.8587226699265, -9582.885752068252, 19708.56126648918, 13197.721624102787, 0.096, 0.966, 0.06, 192.0, 0.0, 0.0, 0.0, 0.0, 0.0, 0.0, 0.0, 0.0, 0.0, 1.6878028521935904E9, 0.0, 2023-06-26 13:07:32.193
166.0, 46931.15317000785, 49920.676639160716, 52840.8202935243, -3304.526603761507, -6700.740063278683, -9619.006171108029, 19673.75960037227, 13162.092943441028, 0.096, 0.966, 0.06, 192.0, 0.0, 0.0, 0.0, 0.0, 0.0, 0.0, 0.0, 0.0, 0.0, 1.6878028521975937E9, 0.0, 2023-06-26 13:07:32.197
167.0, 46974.87318216243, 49947.63284297381, 51839.037458781895, -3238.745419829538, -6683.663330514829, -9555.035478476939, 19685.248397022297, 13203.980112550273, 0.096, 0.966, 0.06, 192.0, 0.0, 0.0, 0.0, 0.0, 0.0, 0.0, 0.0, 0.0, 0.0, 1.6878028522008295E9, 0.0, 2023-06-26 13:07:32.200
168.0, 47021.87890075194, 49994.415044118774, 49869.31233040242, -3162.8612474037704, -6601.49831789712, -9476.111468805251, 19766.653450328526, 13292.783593271208, 0.096, 0.966, 0.06, 192.0, 0.0, 0.0, 0.0, 0.0, 0.0, 0.0, 0.0, 0.0, 0.0, 1.6878028522036307E9, 0.0, 2023-06-26 13:07:32.203
169.0, 46989.04418814709, 49971.52685779654, 50852.94554864711, -3237.426666906675, -6646.8276556524825, -9557.963557000585, 19723.425176551962, 13219.13459529097, 0.096, 0.966, 0.06, 192.0, 0.0, 0.0, 0.0, 0.0, 0.0, 0.0, 0.0, 0.0, 0.0, 1.6878028522066455E9, 0.0, 2023-06-26 13:07:32.206
170.0, 46946.17354228182, 49934.89234863429, 52596.33691267215, -3290.2438390545653, -6696.649694043362, -9615.698112928643, 19681.403896975982, 13162.182350418849, 0.096, 0.966, 0.06, 192.0, 0.0, 0.0, 0.0, 0.0, 0.0, 0.0, 0.0, 0.0, 0.0, 1.687802852210674E9, 0.0, 2023-06-26 13:07:32.210
171.0, 46959.42812674381, 49933.104209077865, 52286.049996143585, -3256.1797805046776, -6692.4922695746745, -9587.199638748127, 19680.353364986582, 13180.399022149924, 0.096, 0.966, 0.06, 192.0, 0.0, 0.0, 0.0, 0.0, 0.0, 0.0, 0.0, 0.0, 0.0, 1.6878028522136827E9, 0.0, 2023-06-26 13:07:32.213
172.0, 47008.087874423014, 49978.72411951114, 49953.53370351002, -3167.9797968840357, -6612.338913957944, -9497.949123138085, 19750.895470487532, 13274.276348862213, 0.082, 0.988, 0.062, 192.0, 2.0, 144.0, 30.0, 224.0, 1.0, 240.0, 0.0, 0.0, 0.0, 1.687802852216687E9, 0.0, 2023-06-26 13:07:32.216
173.0, 46980.10349036497, 49961.24505534709, 50622.18613889052, -3225.4461318786302, -6644.1230945733905, -9559.863455279286, 19726.62147600907, 13222.263839514713, 0.082, 0.988, 0.062, 192.0, 0.0, 0.0, 0.0, 0.0, 0.0, 0.0, 0.0, 0.0, 0.0, 1.6878028522197337E9, 0.0, 2023-06-26 13:07:32.219
174.0, 46938.395135211365, 49924.096456062376, 52317.18597616983, -3285.7958419079596, -6692.939304463781, -9625.532880488978, 19679.682812652925, 13157.063800938584, 0.082, 0.988, 0.062, 192.0, 0.0, 0.0, 0.0, 0.0, 0.0, 0.0, 0.0, 0.0, 0.0, 1.687802852223722E9, 0.0, 2023-06-26 13:07:32.223
175.0, 46941.09969629046, 49917.32387749242, 52657.13365759059, -3270.3060830004315, -6709.390188382887, -9605.528069201479, 19662.337858955605, 13156.482655582746, 0.082, 0.988, 0.062, 192.0, 0.0, 0.0, 0.0, 0.0, 0.0, 0.0, 0.0, 0.0, 0.0, 1.6878028522267296E9, 0.0, 2023-06-26 13:07:32.226
176.0, 47021.230700162734, 49990.68230279473, 50148.66443260485, -3152.199465298589, -6614.708198870207, -9484.560428209357, 19745.307534373707, 13268.733116237298, 0.082, 0.988, 0.062, 192.0, 0.0, 0.0, 0.0, 0.0, 0.0, 0.0, 0.0, 0.0, 0.0, 1.687802852229769E9, 0.0, 2023-06-26 13:07:32.229
177.0, 47003.05873192057, 49984.28970388052, 50383.71537729685, -3191.1585558841894, -6624.028876308069, -9522.468986805558, 19746.179252407463, 13248.728304949798, 0.082, 0.988, 0.062, 192.0, 0.0, 0.0, 0.0, 0.0, 0.0, 0.0, 0.0, 0.0, 0.0, 1.6878028522347865E9, 0.0, 2023-06-26 13:07:32.234
178.0, 46966.67009194733, 49951.902026164775, 52006.608486963334, -3269.143792288756, -6683.37275783691, -9609.484327970067, 19679.459295208373, 13162.405867863401, 0.082, 0.988, 0.062, 192.0, 0.0, 0.0, 0.0, 0.0, 0.0, 0.0, 0.0, 0.0, 0.0, 1.687802852237775E9, 0.0, 2023-06-26 13:07:32.237
179.0, 46950.554484195054, 49925.99635434108, 52897.683131418606, -3282.800708150948, -6714.240516929689, -9621.91189788722, 19647.31748668164, 13142.89279495392, 0.082, 0.988, 0.062, 192.0, 0.0, 0.0, 0.0, 0.0, 0.0, 0.0, 0.0, 0.0, 0.0, 1.6878028522418053E9, 0.0, 2023-06-26 13:07:32.241
180.0, 47009.33957211251, 49968.28585485052, 50477.905628431516, -3192.6784745071504, -6641.753809661128, -9529.107454908784, 19706.549609488204, 13224.81193838262, 0.082, 0.988, 0.062, 192.0, 0.0, 0.0, 0.0, 0.0, 0.0, 0.0, 0.0, 0.0, 0.0, 1.687802852245834E9, 0.0, 2023-06-26 13:07:32.245
181.0, 47001.605868530976, 49974.43258457573, 50156.15226699737, -3197.7970239874157, -6615.266992481589, -9522.871318205753, 19750.068455942688, 13251.075238117604, 0.082, 0.988, 0.062, 192.0, 0.0, 0.0, 0.0, 0.0, 0.0, 0.0, 0.0, 0.0, 0.0, 1.6878028522488449E9, 0.0, 2023-06-26 13:07:32.248
182.0, 46974.336740295505, 49956.4394302892, 51654.23323562542, -3263.3770422192865, -6661.512751759619, -9592.541705672946, 19701.31930128566, 13182.343623917535, 0.074, 0.98, 0.056, 192.0, 2.0, 80.0, 30.0, 160.0, 1.0, 192.0, 0.0, 0.0, 0.0, 1.6878028522528803E9, 0.0, 2023-06-26 13:07:32.252
183.0, 46951.69442316228, 49931.763104410544, 52961.6985275386, -3294.267153056521, -6705.679798803306, -9625.644639211254, 19658.336896698107, 13145.239728121725, 0.074, 0.98, 0.056, 192.0, 0.0, 0.0, 0.0, 0.0, 0.0, 0.0, 0.0, 0.0, 0.0, 1.687802852256894E9, 0.0, 2023-06-26 13:07:32.256
184.0, 47014.63693554842, 49977.74064275511, 50880.34878734932, -3204.1449194127226, -6647.721725430695, -9532.259050876983, 19699.24058905132, 13212.764348121209, 0.074, 0.98, 0.056, 192.0, 0.0, 0.0, 0.0, 0.0, 0.0, 0.0, 0.0, 0.0, 0.0, 1.6878028522609043E9, 0.0, 2023-06-26 13:07:32.260
185.0, 47012.93820296982, 49984.11088992487, 49990.145860927805, -3192.231439618044, -6607.3097714555, -9509.25910583247, 19749.934345475955, 13257.043153887173, 0.074, 0.98, 0.056, 192.0, 0.0, 0.0, 0.0, 0.0, 0.0, 0.0, 0.0, 0.0, 0.0, 1.6878028522649188E9, 0.0, 2023-06-26 13:07:32.264
186.0, 46975.05199611807, 49957.847590189886, 51392.44960456486, -3270.082565555879, -6659.054059869535, -9594.083976040361, 19699.553513473693, 13176.42041163688, 0.074, 0.98, 0.056, 192.0, 0.0, 0.0, 0.0, 0.0, 0.0, 0.0, 0.0, 0.0, 0.0, 1.6878028522699683E9, 0.0, 2023-06-26 13:07:32.269
187.0, 46933.96948980922, 49917.54739493697, 52968.38169913074, -3315.0766271444118, -6710.552479094563, -9637.647525983755, 19651.60902161706, 13131.739274470721, 0.074, 0.98, 0.056, 192.0, 0.0, 0.0, 0.0, 0.0, 0.0, 0.0, 0.0, 0.0, 0.0, 1.6878028522739675E9, 0.0, 2023-06-26 13:07:32.273
188.0, 46991.30171433708, 49953.19842734319, 51383.06187189363, -3235.526768627974, -6668.866475685415, -9556.913025011185, 19684.197865032897, 13198.816859581097, 0.074, 0.98, 0.056, 192.0, 0.0, 0.0, 0.0, 0.0, 0.0, 0.0, 0.0, 0.0, 0.0, 1.687802852276981E9, 0.0, 2023-06-26 13:07:32.276
189.0, 47022.48239785223, 49989.98939871662, 49884.73503407658, -3183.6036662582956, -6603.375864431366, -9502.330065051327, 19756.63986881255, 13269.269558104224, 0.074, 0.98, 0.056, 192.0, 0.0, 0.0, 0.0, 0.0, 0.0, 0.0, 0.0, 0.0, 0.0, 1.6878028522809973E9, 0.0, 2023-06-26 13:07:32.280
190.0, 46983.16567935535, 49960.149819868784, 51108.627153471374, -3264.5393329309622, -6652.616757466407, -9591.021787049984, 19710.058833367686, 13190.434955410357, 0.074, 0.98, 0.056, 192.0, 0.0, 0.0, 0.0, 0.0, 0.0, 0.0, 0.0, 0.0, 0.0, 1.6878028522850068E9, 0.0, 2023-06-26 13:07:32.285
191.0, 46936.76345786613, 49916.608621669846, 52832.55014807584, -3312.550880020962, -6704.338694135988, -9638.206319595138, 19663.187225244907, 13143.093960654016, 0.074, 0.98, 0.056, 192.0, 0.0, 0.0, 0.0, 0.0, 0.0, 0.0, 0.0, 0.0, 0.0, 1.6878028522890224E9, 0.0, 2023-06-26 13:07:32.289
192.0, 46975.34256879599, 49937.79807541348, 51882.93628489212, -3251.6647281247056, -6687.351368349954, -9584.696243369131, 19673.200806760884, 13176.755687803708, 0.08, 0.984, 0.054, 192.0, 2.0, 128.0, 30.0, 192.0, 1.0, 176.0, 0.0, 0.0, 0.0, 1.6878028522930462E9, 0.0, 2023-06-26 13:07:32.293
193.0, 47014.72634252624, 49979.41702358926, 49864.01496696651, -3175.0876516208236, -6605.655742365807, -9504.7440534525, 19756.125778690075, 13267.906101692452, 0.08, 0.984, 0.054, 192.0, 0.0, 0.0, 0.0, 0.0, 0.0, 0.0, 0.0, 0.0, 0.0, 1.687802852297083E9, 0.0, 2023-06-26 13:07:32.297
194.0, 46984.17150785583, 49962.809677458965, 50827.86689136826, -3235.4820651390633, -6639.920966615792, -9569.56411237289, 19727.71671148738, 13213.166679521404, 0.08, 0.984, 0.054, 192.0, 0.0, 0.0, 0.0, 0.0, 0.0, 0.0, 0.0, 0.0, 0.0, 1.6878028523021033E9, 0.0, 2023-06-26 13:07:32.302
195.0, 46943.93836783629, 49926.71161016364, 52570.63240654855, -3286.6675599417163, -6690.502964318152, -9622.984781621073, 19680.889806853513, 13162.361164374492, 0.08, 0.984, 0.054, 192.0, 0.0, 0.0, 0.0, 0.0, 0.0, 0.0, 0.0, 0.0, 0.0, 1.6878028523051076E9, 0.0, 2023-06-26 13:07:32.305
196.0, 46966.290112291594, 49935.65230794577, 52323.53387159513, -3253.877550825781, -6689.899467217859, -9595.670949896688, 19670.295079981697, 13169.491370855734, 0.08, 0.984, 0.054, 192.0, 0.0, 0.0, 0.0, 0.0, 0.0, 0.0, 0.0, 0.0, 0.0, 1.6878028523092065E9, 0.0, 2023-06-26 13:07:32.309
197.0, 47023.17530193035, 49990.347026627904, 49949.465686019146, -3164.4035177711867, -6607.779158089061, -9505.45930927507, 19747.743874519336, 13264.66509874643, 0.08, 0.984, 0.054, 192.0, 0.0, 0.0, 0.0, 0.0, 0.0, 0.0, 0.0, 0.0, 0.0, 1.6878028523142223E9, 0.0, 2023-06-26 13:07:32.314
198.0, 46992.016970159646, 49975.7960409875, 50579.65076919208, -3216.7736550299715, -6635.830597380472, -9555.527216854956, 19730.08599639964, 13222.95674359283, 0.08, 0.984, 0.054, 192.0, 0.0, 0.0, 0.0, 0.0, 0.0, 0.0, 0.0, 0.0, 0.0, 1.6878028523202324E9, 0.0, 2023-06-26 13:07:32.320
199.0, 46946.68763240429, 49938.9380143807, 52275.63408322741, -3278.4421179821634, -6688.7371765061835, -9615.13931931726, 19679.168722530452, 13160.55067307361, 0.08, 0.984, 0.054, 192.0, 0.0, 0.0, 0.0, 0.0, 0.0, 0.0, 0.0, 0.0, 0.0, 1.6878028523232148E9, 0.0, 2023-06-26 13:07:32.323
200.0, 46943.983071325194, 49922.9341653507, 52676.356157822156, -3279.26913252701, -6710.75364479466, -9615.921630373196, 19653.307754195663, 13151.31940261357, 0.08, 0.984, 0.054, 192.0, 0.0, 0.0, 0.0, 0.0, 0.0, 0.0, 0.0, 0.0, 0.0, 1.6878028523272364E9, 0.0, 2023-06-26 13:07:32.327
201.0, 47007.193804644805, 49976.26542762106, 50151.704269850765, -3175.8029074433935, -6621.771350118083, -9512.097777378294, 19729.795423721724, 13250.38233403949, 0.08, 0.984, 0.054, 192.0, 0.0, 0.0, 0.0, 0.0, 0.0, 0.0, 0.0, 0.0, 0.0, 1.687802852330242E9, 0.0, 2023-06-26 13:07:32.330
202.0, 46991.30171433708, 49974.16436364226, 50348.377269313016, -3202.4685385785747, -6625.079408297469, -9537.399952101703, 19741.217165138383, 13239.854662401041, 0.08, 0.984, 0.054, 192.0, 0.0, 0.0, 0.0, 0.0, 0.0, 0.0, 0.0, 0.0, 0.0, 1.6878028523332543E9, 0.0, 2023-06-26 13:07:32.333
203.0, 46959.24931278817, 49950.27034881954, 51960.675652107675, -3269.8590481113256, -6677.181324622789, -9610.110176814816, 19686.544798200703, 13164.529283586657, 0.074, 0.992, 0.06, 192.0, 2.0, 80.0, 31.0, 0.0, 1.0, 224.0, 0.0, 0.0, 0.0, 1.6878028523362665E9, 0.0, 2023-06-26 13:07:32.336
204.0, 46941.546731179566, 49924.58819444039, 52914.84927116028, -3287.807498908937, -6712.85470877346, -9619.229688552581, 19652.16781522844, 13146.469074066768, 0.074, 0.992, 0.06, 192.0, 0.0, 0.0, 0.0, 0.0, 0.0, 0.0, 0.0, 0.0, 0.0, 1.6878028523412726E9, 0.0, 2023-06-26 13:07:32.341
205.0, 47007.23850813371, 49975.72898575413, 50511.746169536855, -3191.225611117555, -6640.0774288269795, -9523.40776007268, 19707.51073449978, 13230.846909385553, 0.074, 0.992, 0.06, 192.0, 0.0, 0.0, 0.0, 0.0, 0.0, 0.0, 0.0, 0.0, 0.0, 1.687802852345287E9, 0.0, 2023-06-26 13:07:32.345
206.0, 46997.269630106646, 49980.80283174549, 50144.998746514175, -3199.3392943548315, -6622.844233851938, -9525.084140906829, 19737.10444415861, 13248.705953205343, 0.074, 0.992, 0.06, 192.0, 0.0, 0.0, 0.0, 0.0, 0.0, 0.0, 0.0, 0.0, 0.0, 1.6878028523493347E9, 0.0, 2023-06-26 13:07:32.349
207.0, 46963.94317912378, 49958.78636345701, 51653.495628058394, -3270.5072487005295, -6672.040423398069, -9603.494060456045, 19682.56618768766, 13172.017117979183, 0.074, 0.992, 0.06, 192.0, 0.0, 0.0, 0.0, 0.0, 0.0, 0.0, 0.0, 0.0, 0.0, 1.6878028523553457E9, 0.0, 2023-06-26 13:07:32.355
208.0, 46935.109428776435, 49927.67273517523, 52986.55366737291, -3297.1281763468, -6704.271638902622, -9626.76222643402, 19647.965687270844, 13149.285393868136, 0.074, 0.992, 0.06, 192.0, 0.0, 0.0, 0.0, 0.0, 0.0, 0.0, 0.0, 0.0, 0.0, 1.6878028523583689E9, 0.0, 2023-06-26 13:07:32.358
209.0, 47002.16466214236, 49977.6959392662, 50922.14654948075, -3207.96706771458, -6645.441847496253, -9529.21921363106, 19687.55062670119, 13225.95187734984, 0.074, 0.992, 0.06, 192.0, 0.0, 0.0, 0.0, 0.0, 0.0, 0.0, 0.0, 0.0, 0.0, 1.687802852361374E9, 0.0, 2023-06-26 13:07:32.361
210.0, 47004.48924356571, 49992.671608051256, 49965.044851904495, -3189.951561683603, -6609.544945901031, -9505.347550552791, 19734.37753133506, 13269.805999971153, 0.074, 0.992, 0.06, 192.0, 0.0, 0.0, 0.0, 0.0, 0.0, 0.0, 0.0, 0.0, 0.0, 1.6878028523643868E9, 0.0, 2023-06-26 13:07:32.364
211.0, 46971.36395828295, 49970.7445467406, 51346.181493542375, -3261.8571235963254, -6661.848027926449, -9586.260865481003, 19681.98504233182, 13190.233789710259, 0.074, 0.992, 0.06, 192.0, 0.0, 0.0, 0.0, 0.0, 0.0, 0.0, 0.0, 0.0, 0.0, 1.6878028523694108E9, 0.0, 2023-06-26 13:07:32.369
212.0, 46939.66918464532, 49939.27329054753, 52931.56837601285, -3300.100958359356, -6699.510717333641, -9614.178194305683, 19648.636239604504, 13159.991879462228, 0.074, 0.992, 0.06, 192.0, 0.0, 0.0, 0.0, 0.0, 0.0, 0.0, 0.0, 0.0, 0.0, 1.6878028523734362E9, 0.0, 2023-06-26 13:07:32.373
213.0, 46991.83815620401, 49972.86796246385, 51391.44377606437, -3235.3479546723315, -6658.0929348579575, -9548.08408595134, 19674.206635261373, 13208.875144585985, 0.082, 0.98, 0.074, 192.0, 2.0, 144.0, 30.0, 160.0, 2.0, 80.0, 0.0, 0.0, 0.0, 1.6878028523784528E9, 0.0, 2023-06-26 13:07:32.378
214.0, 47008.98194420123, 49998.77363428756, 49839.87508295478, -3190.040968661424, -6598.816108562482, -9502.195954584593, 19739.674894770968, 13274.879845962507, 0.082, 0.98, 0.074, 192.0, 0.0, 0.0, 0.0, 0.0, 0.0, 0.0, 0.0, 0.0, 0.0, 1.68780285238146E9, 0.0, 2023-06-26 13:07:32.381
215.0, 46976.86248741895, 49979.37232010035, 51053.9994900226, -3258.258492739021, -6646.157103318823, -9574.012109519495, 19692.445658736906, 13205.164755006404, 0.082, 0.98, 0.074, 192.0, 0.0, 0.0, 0.0, 0.0, 0.0, 0.0, 0.0, 0.0, 0.0, 1.6878028523854923E9, 0.0, 2023-06-26 13:07:32.385
216.0, 46931.399039196855, 49939.69797369218, 52778.548333471816, -3317.5353190344954, -6697.253191143655, -9620.101406586338, 19644.21059420235, 13154.806274748598, 0.082, 0.98, 0.074, 192.0, 0.0, 0.0, 0.0, 0.0, 0.0, 0.0, 0.0, 0.0, 0.0, 1.687802852388499E9, 0.0, 2023-06-26 13:07:32.388
217.0, 46968.2347140592, 49957.82523844543, 51887.920723905656, -3263.0641177969123, -6678.0530426565465, -9568.759449572499, 19651.899594294977, 13182.835362295553, 0.082, 0.98, 0.074, 192.0, 0.0, 0.0, 0.0, 0.0, 0.0, 0.0, 0.0, 0.0, 0.0, 1.6878028523945239E9, 0.0, 2023-06-26 13:07:32.394
218.0, 47011.954726213786, 49999.33242789894, 49821.323135056875, -3179.3121313228767, -6596.200954461212, -9488.628445700222, 19731.56121153369, 13270.677718004908, 0.082, 0.98, 0.074, 192.0, 0.0, 0.0, 0.0, 0.0, 0.0, 0.0, 0.0, 0.0, 0.0, 1.6878028523985724E9, 0.0, 2023-06-26 13:07:32.398
219.0, 46979.61175198695, 49977.67358752175, 50785.82326004783, -3242.768733831493, -6635.942356102748, -9557.98590874504, 19699.441754751417, 13219.291057502158, 0.082, 0.98, 0.074, 192.0, 0.0, 0.0, 0.0, 0.0, 0.0, 0.0, 0.0, 0.0, 0.0, 1.687802852401561E9, 0.0, 2023-06-26 13:07:32.401
220.0, 46941.18910326828, 49944.39184002779, 52528.700533950396, -3299.1398333477778, -6687.485478816686, -9614.848746639342, 19651.944297783888, 13166.429181865356, 0.082, 0.98, 0.074, 192.0, 0.0, 0.0, 0.0, 0.0, 0.0, 0.0, 0.0, 0.0, 0.0, 1.6878028524066052E9, 0.0, 2023-06-26 13:07:32.406
221.0, 46955.96360635324, 49944.39184002779, 52350.69124110833, -3276.1175365588115, -6688.401900339353, -9588.80896434891, 19643.875318035523, 13174.922844758374, 0.082, 0.98, 0.074, 192.0, 0.0, 0.0, 0.0, 0.0, 0.0, 0.0, 0.0, 0.0, 0.0, 1.687802852409609E9, 0.0, 2023-06-26 13:07:32.409
222.0, 46996.979057428725, 49978.187677644215, 49970.76689848505, -3197.685265265139, -6603.018236520081, -9503.35824529627, 19721.592333506625, 13264.441581301879, 0.082, 0.98, 0.074, 192.0, 0.0, 0.0, 0.0, 0.0, 0.0, 0.0, 0.0, 0.0, 0.0, 1.6878028524136372E9, 0.0, 2023-06-26 13:07:32.413
223.0, 46978.382406041914, 49978.38884334431, 50558.26014974835, -3247.0155652780018, -6615.468158181687, -9544.552510327401, 19718.32897881615, 13231.539813463667, 0.088, 0.96, 0.074, 192.0, 2.0, 192.0, 30.0, 0.0, 2.0, 80.0, 0.0, 0.0, 0.0, 1.6878028524166393E9, 0.0, 2023-06-26 13:07:32.416
224.0, 46945.54769343707, 49949.01865113004, 52228.56130940453, -3327.8841767173026, -6667.503019273641, -9609.931362859174, 19666.9423183134, 13168.105562699506, 0.088, 0.96, 0.074, 192.0, 0.0, 0.0, 0.0, 0.0, 0.0, 0.0, 0.0, 0.0, 0.0, 1.6878028524206705E9, 0.0, 2023-06-26 13:07:32.420
225.0, 46943.93836783629, 49934.534720723, 52688.38139633911, -3321.938612692191, -6692.0228829411135, -9608.165575047204, 19641.55073661217, 13158.360202116992, 0.088, 0.96, 0.074, 192.0, 0.0, 0.0, 0.0, 0.0, 0.0, 0.0, 0.0, 0.0, 0.0, 1.687802852424682E9, 0.0, 2023-06-26 13:07:32.424
226.0, 47006.411493588865, 49988.22361090465, 50170.25621774867, -3202.8708699787703, -6602.8617743088935, -9499.625503972233, 19721.257057339797, 13256.797284698163, 0.088, 0.96, 0.074, 192.0, 0.0, 0.0, 0.0, 0.0, 0.0, 0.0, 0.0, 0.0, 0.0, 1.6878028524287007E9, 0.0, 2023-06-26 13:07:32.428
227.0, 46987.68073173532, 49983.39563410231, 50300.05279780064, -3226.1613877012, -6602.8617743088935, -9522.781911227932, 19735.584525535647, 13251.924604406906, 0.088, 0.96, 0.074, 192.0, 0.0, 0.0, 0.0, 0.0, 0.0, 0.0, 0.0, 0.0, 0.0, 1.687802852434724E9, 0.0, 2023-06-26 13:07:32.434
228.0, 46943.96071958074, 49945.73294469511, 51927.43860810264, -3305.241859584077, -6665.558417506029, -9609.730197159077, 19674.765428872757, 13176.46511512579, 0.088, 0.96, 0.074, 192.0, 0.0, 0.0, 0.0, 0.0, 0.0, 0.0, 0.0, 0.0, 0.0, 1.687802852437764E9, 0.0, 2023-06-26 13:07:32.437
229.0, 46927.1745594948, 49919.7825693825, 52918.22438457303, -3320.0387144134897, -6698.840164999982, -9628.95269739064, 19643.40593140196, 13155.186254404338, 0.088, 0.96, 0.074, 192.0, 0.0, 0.0, 0.0, 0.0, 0.0, 0.0, 0.0, 0.0, 0.0, 1.6878028524407752E9, 0.0, 2023-06-26 13:07:32.440
230.0, 46984.99852240068, 49962.049718147486, 50543.0833152632, -3225.2896696674434, -6631.963745589704, -9526.73816999652, 19696.871304139055, 13235.607830954532, 0.088, 0.96, 0.074, 192.0, 0.0, 0.0, 0.0, 0.0, 0.0, 0.0, 0.0, 0.0, 0.0, 1.6878028524447887E9, 0.0, 2023-06-26 13:07:32.444
231.0, 46982.24925783268, 49969.76106998457, 50114.75683626614, -3229.4470941361305, -6613.702370369718, -9521.463158305069, 19733.52816504576, 13259.077162632604, 0.088, 0.96, 0.074, 192.0, 0.0, 0.0, 0.0, 0.0, 0.0, 0.0, 0.0, 0.0, 0.0, 1.687802852448798E9, 0.0, 2023-06-26 13:07:32.448
232.0, 46952.07440281801, 49947.94576739619, 51604.8805838681, -3302.8278711829034, -6658.897597658348, -9596.989702819552, 19687.08124006763, 13188.333891431557, 0.088, 0.96, 0.074, 192.0, 0.0, 0.0, 0.0, 0.0, 0.0, 0.0, 0.0, 0.0, 0.0, 1.687802852454873E9, 0.0, 2023-06-26 13:07:32.454
233.0, 46923.24065247067, 49917.50269144806, 52982.21742894858, -3317.4682638011295, -6696.873211487915, -9617.843880396353, 19653.061885006653, 13163.076420197061, 0.096, 0.97, 0.078, 192.0, 3.0, 0.0, 30.0, 80.0, 2.0, 112.0, 0.0, 0.0, 0.0, 1.687802852457862E9, 0.0, 2023-06-26 13:07:32.457
234.0, 46981.01991188764, 49956.8417616894, 50982.85388742136, -3236.331431428365, -6648.168760319801, -9541.244452148016, 19688.221179034852, 13224.946048849351, 0.096, 0.97, 0.078, 192.0, 0.0, 0.0, 0.0, 0.0, 0.0, 0.0, 0.0, 0.0, 0.0, 1.687802852460856E9, 0.0, 2023-06-26 13:07:32.460
235.0, 46988.038359646605, 49972.599741530394, 49945.79999992848, -3211.811567760893, -6600.134861485346, -9502.911210407163, 19749.24144139784, 13277.584407041599, 0.096, 0.97, 0.078, 192.0, 0.0, 0.0, 0.0, 0.0, 0.0, 0.0, 0.0, 0.0, 0.0, 1.687802852465894E9, 0.0, 2023-06-26 13:07:32.465
236.0, 46951.49325746218, 49945.487075506106, 51327.13780726645, -3286.287580285976, -6652.974385377692, -9588.27252248198, 19698.100650084096, 13197.5651618916, 0.096, 0.97, 0.078, 192.0, 0.0, 0.0, 0.0, 0.0, 0.0, 0.0, 0.0, 0.0, 0.0, 1.687802852468896E9, 0.0, 2023-06-26 13:07:32.468
237.0, 46914.23289945518, 49909.38900821078, 52956.758792013985, -3327.772417995026, -6702.081167946001, -9632.640735225767, 19653.79949257368, 13157.220263149771, 0.096, 0.97, 0.078, 192.0, 0.0, 0.0, 0.0, 0.0, 0.0, 0.0, 0.0, 0.0, 0.0, 1.6878028524739268E9, 0.0, 2023-06-26 13:07:32.473
238.0, 46966.781850669606, 49943.1401423383, 51471.28420725873, -3257.677347383183, -6666.228969839689, -9565.674908837665, 19674.43015270593, 13203.957760805817, 0.096, 0.97, 0.078, 192.0, 0.0, 0.0, 0.0, 0.0, 0.0, 0.0, 0.0, 0.0, 0.0, 1.6878028524769423E9, 0.0, 2023-06-26 13:07:32.476
239.0, 46991.324066081535, 49975.90779970978, 49852.95085346113, -3200.389826344231, -6605.007541776603, -9503.06767261835, 19751.47661584337, 13279.908988464951, 0.096, 0.97, 0.078, 192.0, 0.0, 0.0, 0.0, 0.0, 0.0, 0.0, 0.0, 0.0, 0.0, 1.6878028524809577E9, 0.0, 2023-06-26 13:07:32.480
240.0, 46951.04622257307, 49950.89619766429, 51059.47566741415, -3274.910542358225, -6656.170684834801, -9583.109269512805, 19703.956807131388, 13206.818784096096, 0.096, 0.97, 0.078, 192.0, 0.0, 0.0, 0.0, 0.0, 0.0, 0.0, 0.0, 0.0, 0.0, 1.6878028524849925E9, 0.0, 2023-06-26 13:07:32.484
241.0, 46912.08713198747, 49916.58626992539, 52797.79318544784, -3321.491577803085, -6687.284313116588, -9636.440531783168, 19660.88499556601, 13159.209568406293, 0.096, 0.97, 0.078, 192.0, 0.0, 0.0, 0.0, 0.0, 0.0, 0.0, 0.0, 0.0, 0.0, 1.687802852491008E9, 0.0, 2023-06-26 13:07:32.491
242.0, 46954.93542610829, 49941.97785162662, 51968.34230045585, -3261.298329984943, -6667.391260551365, -9580.784688089454, 19671.300908482186, 13189.339719932046, 0.096, 0.97, 0.078, 192.0, 0.0, 0.0, 0.0, 0.0, 0.0, 0.0, 0.0, 0.0, 0.0, 1.6878028524950502E9, 0.0, 2023-06-26 13:07:32.495
243.0, 46986.853717190475, 49971.638616518816, 49881.18110670819, -3195.271276863966, -6599.240791707134, -9509.661437232666, 19740.18898489344, 13271.884712205496, 0.096, 0.97, 0.078, 192.0, 0.0, 0.0, 0.0, 0.0, 0.0, 0.0, 0.0, 0.0, 0.0, 1.6878028524980636E9, 0.0, 2023-06-26 13:07:32.498
244.0, 46962.646777945374, 49960.708613480165, 50807.83972833631, -3255.710393871116, -6629.92973684427, -9565.786667559942, 19715.53501075924, 13215.491260944757, 0.092, 0.98, 0.078, 192.0, 2.0, 224.0, 30.0, 160.0, 2.0, 112.0, 0.0, 0.0, 0.0, 1.6878028525010817E9, 0.0, 2023-06-26 13:07:32.501
245.0, 46928.15803625084, 49930.511406721045, 52517.27879253373, -3310.449816042163, -6675.370833321909, -9619.274392041492, 19673.290213738706, 13157.354373616503, 0.092, 0.98, 0.078, 192.0, 0.0, 0.0, 0.0, 0.0, 0.0, 0.0, 0.0, 0.0, 0.0, 1.6878028525071142E9, 0.0, 2023-06-26 13:07:32.507
246.0, 46933.90243457585, 49919.1343687933, 52420.29457334216, -3296.770548435515, -6691.41938584082, -9613.015903594007, 19650.111454738555, 13153.934556714841, 0.092, 0.98, 0.078, 192.0, 0.0, 0.0, 0.0, 0.0, 0.0, 0.0, 0.0, 0.0, 0.0, 1.687802852511109E9, 0.0, 2023-06-26 13:07:32.511
247.0, 46991.05584514807, 49972.666796763755, 50012.721122827665, -3200.8368612333375, -6602.682960353251, -9509.952009910585, 19731.024769666765, 13261.871130689518, 0.092, 0.98, 0.078, 192.0, 0.0, 0.0, 0.0, 0.0, 0.0, 0.0, 0.0, 0.0, 0.0, 1.6878028525141344E9, 0.0, 2023-06-26 13:07:32.514
248.0, 46973.39796702838, 49967.011805416565, 50550.07941127771, -3238.901882040725, -6622.687771640751, -9543.166702171171, 19725.19096436393, 13245.733171192787, 0.092, 0.98, 0.078, 192.0, 0.0, 0.0, 0.0, 0.0, 0.0, 0.0, 0.0, 0.0, 0.0, 1.6878028525172193E9, 0.0, 2023-06-26 13:07:32.517
249.0, 46931.08611477448, 49933.28302303351, 52240.608899665946, -3301.5091182600404, -6676.823696711504, -9615.318133272904, 19671.65853639347, 13175.973376747774, 0.092, 0.98, 0.078, 192.0, 0.0, 0.0, 0.0, 0.0, 0.0, 0.0, 0.0, 0.0, 0.0, 1.6878028525212042E9, 0.0, 2023-06-26 13:07:32.521
250.0, 46927.59924263945, 49918.62027867082, 52766.63485367714, -3296.524679246507, -6697.297894632566, -9601.683569155166, 19650.31262043865, 13170.497199356223, 0.092, 0.98, 0.078, 192.0, 0.0, 0.0, 0.0, 0.0, 0.0, 0.0, 0.0, 0.0, 0.0, 1.687802852524202E9, 0.0, 2023-06-26 13:07:32.524
251.0, 46995.01210391666, 49973.717328753155, 50249.49315184273, -3197.3052856093987, -6612.294210469033, -9502.218306329049, 19723.872211441067, 13265.268595846725, 0.092, 0.98, 0.078, 192.0, 0.0, 0.0, 0.0, 0.0, 0.0, 0.0, 0.0, 0.0, 0.0, 1.687802852528211E9, 0.0, 2023-06-26 13:07:32.528
252.0, 46971.52042049413, 49962.89908443679, 50332.775751683206, -3230.9893645035463, -6616.630448893363, -9531.700257265598, 19735.539822046736, 13252.371639296012, 0.092, 0.98, 0.078, 192.0, 0.0, 0.0, 0.0, 0.0, 0.0, 0.0, 0.0, 0.0, 0.0, 1.687802852532231E9, 0.0, 2023-06-26 13:07:32.532
253.0, 46937.076382288506, 49936.12169457933, 51926.209262157594, -3289.349769276353, -6666.720708217706, -9593.189906262149, 19683.862588866068, 13184.46703964079, 0.092, 0.98, 0.078, 192.0, 0.0, 0.0, 0.0, 0.0, 0.0, 0.0, 0.0, 0.0, 0.0, 1.6878028525372603E9, 0.0, 2023-06-26 13:07:32.537
254.0, 46924.60410888244, 49915.893365847274, 52943.92889069663, -3300.972676393113, -6700.89652548987, -9603.18113603367, 19652.36898092854, 13167.010327221195, 0.092, 0.974, 0.076, 192.0, 2.0, 224.0, 30.0, 112.0, 2.0, 96.0, 0.0, 0.0, 0.0, 1.6878028525412517E9, 0.0, 2023-06-26 13:07:32.541
255.0, 46988.597153257986, 49965.76010772707, 50600.527298513334, -3208.168233414678, -6629.706219399717, -9512.5448122674, 19706.504905999293, 13246.694296204365, 0.092, 0.974, 0.076, 192.0, 0.0, 0.0, 0.0, 0.0, 0.0, 0.0, 0.0, 0.0, 0.0, 1.687802852545289E9, 0.0, 2023-06-26 13:07:32.545
0.0, 46982.718644466244, 49973.60557003088, 50096.71897849071, -3211.5433468274296, -6604.404044676309, -9507.605076742779, 19743.988781450844, 13273.806962228653, 0.092, 0.974, 0.076, 192.0, 0.0, 0.0, 0.0, 0.0, 0.0, 0.0, 0.0, 0.0, 0.0, 1.6878028525492947E9, 0.0, 2023-06-26 13:07:32.549
1.0, 46947.35818473795, 49949.26452031905, 51592.0283308063, -3289.5062314875404, -6661.89273141536, -9591.960560317108, 19688.355289501586, 13193.22892346727, 0.092, 0.974, 0.076, 192.0, 0.0, 0.0, 0.0, 0.0, 0.0, 0.0, 0.0, 0.0, 0.0, 1.6878028525533133E9, 0.0, 2023-06-26 13:07:32.553
2.0, 46912.69062908777, 49911.35596172285, 53021.131816045265, -3319.815196968937, -6703.198755168767, -9616.815700151408, 19650.714951838847, 13158.203739905804, 0.092, 0.974, 0.076, 192.0, 0.0, 0.0, 0.0, 0.0, 0.0, 0.0, 0.0, 0.0, 0.0, 1.6878028525573244E9, 0.0, 2023-06-26 13:07:32.557
3.0, 46970.7381094382, 49948.39280228529, 51053.03836501102, -3238.8571785518147, -6651.2309493101775, -9535.008315444984, 19685.673080166947, 13220.47569995829, 0.092, 0.974, 0.076, 192.0, 0.0, 0.0, 0.0, 0.0, 0.0, 0.0, 0.0, 0.0, 0.0, 1.687802852563379E9, 0.0, 2023-06-26 13:07:32.563
4.0, 46981.64576073239, 49970.565732784955, 49940.77085742603, -3214.002038717513, -6604.649913865318, -9499.826669672331, 19744.10054017312, 13274.34340409558, 0.092, 0.974, 0.076, 192.0, 0.0, 0.0, 0.0, 0.0, 0.0, 0.0, 0.0, 0.0, 0.0, 1.6878028525663784E9, 0.0, 2023-06-26 13:07:32.566
5.0, 46950.57683593951, 49954.24895933258, 51291.799699282616, -3286.131118074789, -6656.3942022793535, -9578.683624110654, 19696.267807038763, 13197.609865380511, 0.092, 0.974, 0.076, 192.0, 0.0, 0.0, 0.0, 0.0, 0.0, 0.0, 0.0, 0.0, 0.0, 1.6878028525703847E9, 0.0, 2023-06-26 13:07:32.570
6.0, 46904.95692550623, 49909.38900821078, 52929.8919951787, -3339.194159411688, -6708.5184703491295, -9630.51731950251, 19649.709123338358, 13147.474902567257, 0.092, 0.974, 0.076, 192.0, 0.0, 0.0, 0.0, 0.0, 0.0, 0.0, 0.0, 0.0, 0.0, 1.6878028525744104E9, 0.0, 2023-06-26 13:07:32.574
7.0, 46959.62929244391, 49942.827217915925, 51525.10720790711, -3274.0835278133786, -6670.565208264018, -9567.75362107201, 19676.955899829376, 13192.75953683371, 0.092, 0.974, 0.076, 192.0, 0.0, 0.0, 0.0, 0.0, 0.0, 0.0, 0.0, 0.0, 0.0, 1.6878028525784543E9, 0.0, 2023-06-26 13:07:32.578
8.0, 46986.697254979284, 49975.5948752874, 49860.259873898016, -3210.805739260404, -6606.281591210555, -9504.297018563393, 19750.80606350971, 13268.733116237298, 0.082, 0.976, 0.074, 192.0, 2.0, 144.0, 30.0, 128.0, 2.0, 80.0, 0.0, 0.0, 0.0, 1.687802852581448E9, 0.0, 2023-06-26 13:07:32.581
9.0, 46958.37759475441, 49958.7416599681, 51036.4980741141, -3276.6316266812837, -6647.498207986142, -9576.98489153205, 19713.210429335886, 13200.537943904155, 0.082, 0.976, 0.074, 192.0, 0.0, 0.0, 0.0, 0.0, 0.0, 0.0, 0.0, 0.0, 0.0, 1.6878028525844696E9, 0.0, 2023-06-26 13:07:32.584
10.0, 46923.55357689304, 49927.33745900839, 52755.280167493846, -3323.9502696931686, -6687.887810216882, -9624.929383388684, 19674.18428351692, 13157.108504427493, 0.082, 0.976, 0.074, 192.0, 0.0, 0.0, 0.0, 0.0, 0.0, 0.0, 0.0, 0.0, 0.0, 1.6878028525884757E9, 0.0, 2023-06-26 13:07:32.588
11.0, 46944.76538238113, 49930.444351487684, 52017.20321383515, -3286.6675599417163, -6684.110365403934, -9588.60779864881, 19670.004507303776, 13176.018080236683, 0.082, 0.976, 0.074, 192.0, 0.0, 0.0, 0.0, 0.0, 0.0, 0.0, 0.0, 0.0, 0.0, 1.6878028525925033E9, 0.0, 2023-06-26 13:07:32.592
12.0, 46985.378502056425, 49967.88352345032, 49878.074214228895, -3209.4422828486304, -6604.404044676309, -9498.485565005012, 19749.263793142294, 13270.76712498273, 0.082, 0.976, 0.074, 192.0, 0.0, 0.0, 0.0, 0.0, 0.0, 0.0, 0.0, 0.0, 0.0, 1.6878028525975256E9, 0.0, 2023-06-26 13:07:32.597
13.0, 46963.11616457894, 49960.68626173571, 50770.04292846238, -3259.554893917429, -6636.1435218028455, -9555.7060308106, 19727.8061184652, 13224.320200004602, 0.082, 0.976, 0.074, 192.0, 0.0, 0.0, 0.0, 0.0, 0.0, 0.0, 0.0, 0.0, 0.0, 1.687802852601542E9, 0.0, 2023-06-26 13:07:32.601
14.0, 46926.3251932055, 49929.55028170947, 52507.48872846231, -3312.7296939766043, -6690.190039895778, -9612.010075093518, 19678.386411474516, 13169.089039455539, 0.082, 0.976, 0.074, 192.0, 0.0, 0.0, 0.0, 0.0, 0.0, 0.0, 0.0, 0.0, 0.0, 1.6878028526045687E9, 0.0, 2023-06-26 13:07:32.604
15.0, 46940.16092302334, 49928.566804953436, 52450.111800445535, -3284.1865163071775, -6688.670121272818, -9586.014996291995, 19667.054077035675, 13177.090963970539, 0.082, 0.976, 0.074, 192.0, 0.0, 0.0, 0.0, 0.0, 0.0, 0.0, 0.0, 0.0, 0.0, 1.6878028526085913E9, 0.0, 2023-06-26 13:07:32.608
16.0, 46998.47662430723, 49978.27708462204, 49998.34895114291, -3191.069148906368, -6602.0347597640475, -9489.768384667443, 19750.090807687142, 13273.181113383904, 0.082, 0.976, 0.074, 192.0, 0.0, 0.0, 0.0, 0.0, 0.0, 0.0, 0.0, 0.0, 0.0, 1.6878028526126096E9, 0.0, 2023-06-26 13:07:32.612
17.0, 46977.39892928588, 49971.057471162974, 50492.27780011628, -3233.939794771647, -6621.011390806603, -9528.861585719775, 19748.48148208636, 13246.783703182185, 0.082, 0.976, 0.074, 192.0, 0.0, 0.0, 0.0, 0.0, 0.0, 0.0, 0.0, 0.0, 0.0, 1.687802852616628E9, 0.0, 2023-06-26 13:07:32.616
18.0, 46927.28631821708, 49927.851549130864, 52173.419555833294, -3307.8570136853477, -6678.120097889912, -9601.392996477247, 19688.690565668414, 13177.85092328202, 0.084, 0.978, 0.08, 192.0, 2.0, 160.0, 30.0, 144.0, 2.0, 128.0, 0.0, 0.0, 0.0, 1.6878028526226609E9, 0.0, 2023-06-26 13:07:32.622
19.0, 46917.18332972328, 49904.53867966398, 52758.49881869541, -3322.6315167703056, -6698.348426621965, -9607.226801780082, 19662.248451977786, 13163.523455086168, 0.084, 0.978, 0.08, 192.0, 0.0, 0.0, 0.0, 0.0, 0.0, 0.0, 0.0, 0.0, 0.0, 1.687802852625664E9, 0.0, 2023-06-26 13:07:32.625
20.0, 46983.81387994455, 49963.167305370254, 50247.481494841755, -3213.9349834841473, -6612.115396513391, -9509.415568043658, 19735.00338017981, 13254.115075363527, 0.084, 0.978, 0.08, 192.0, 0.0, 0.0, 0.0, 0.0, 0.0, 0.0, 0.0, 0.0, 0.0, 1.6878028526296923E9, 0.0, 2023-06-26 13:07:32.629
21.0, 46964.79254541309, 49960.55215126898, 50274.683567843866, -3240.9135390417027, -6611.847175579927, -9526.69346650761, 19753.980011222364, 13251.745790451265, 0.084, 0.978, 0.08, 192.0, 0.0, 0.0, 0.0, 0.0, 0.0, 0.0, 0.0, 0.0, 0.0, 1.687802852632696E9, 0.0, 2023-06-26 13:07:32.632
22.0, 46938.50689393364, 49940.92731963722, 51858.14820029119, -3290.8026326659483, -6650.560396976519, -9584.47272592458, 19712.785746191235, 13197.65456886942, 0.084, 0.978, 0.08, 192.0, 0.0, 0.0, 0.0, 0.0, 0.0, 0.0, 0.0, 0.0, 0.0, 1.68780285263672E9, 0.0, 2023-06-26 13:07:32.636
23.0, 46917.33979193447, 49911.80299661196, 52937.15631212668, -3308.773435208015, -6686.680816016295, -9602.6670459112, 19678.56522543016, 13169.93840574484, 0.084, 0.978, 0.08, 192.0, 0.0, 0.0, 0.0, 0.0, 0.0, 0.0, 0.0, 0.0, 0.0, 1.6878028526417453E9, 0.0, 2023-06-26 13:07:32.641
24.0, 46974.38144378441, 49951.477343020124, 50627.88583372663, -3228.68713482465, -6625.526443186574, -9523.720684495054, 19723.33576957414, 13244.660287458932, 0.084, 0.978, 0.08, 192.0, 0.0, 0.0, 0.0, 0.0, 0.0, 0.0, 0.0, 0.0, 0.0, 1.68780285264577E9, 0.0, 2023-06-26 13:07:32.645
25.0, 46975.05199611807, 49961.15564836928, 50074.50134450214, -3224.2838411669545, -6600.380730674355, -9513.237716345515, 19767.703982317922, 13266.944976680872, 0.084, 0.978, 0.08, 192.0, 0.0, 0.0, 0.0, 0.0, 0.0, 0.0, 0.0, 0.0, 0.0, 1.687802852649804E9, 0.0, 2023-06-26 13:07:32.649
26.0, 46940.67501314581, 49935.87582539032, 51561.96523451391, -3297.9104874027357, -6650.2698242986, -9597.23557200856, 19714.193906091918, 13194.726490345776, 0.084, 0.978, 0.08, 192.0, 0.0, 0.0, 0.0, 0.0, 0.0, 0.0, 0.0, 0.0, 0.0, 1.687802852654801E9, 0.0, 2023-06-26 13:07:32.654
27.0, 46908.08616972997, 49899.35307495035, 52990.97931277506, -3332.2427668860873, -6695.710920776239, -9625.957563633629, 19669.0433822922, 13168.485542355245, 0.084, 0.978, 0.08, 192.0, 0.0, 0.0, 0.0, 0.0, 0.0, 0.0, 0.0, 0.0, 0.0, 1.6878028526588116E9, 0.0, 2023-06-26 13:07:32.658
28.0, 46969.62052221543, 49940.100305092375, 51060.168571492264, -3250.524789157485, -6642.714934672706, -9538.539891068924, 19701.453411752394, 13224.074330815594, 0.084, 0.978, 0.08, 192.0, 0.0, 0.0, 0.0, 0.0, 0.0, 0.0, 0.0, 0.0, 0.0, 1.687802852662395E9, 0.0, 2023-06-26 13:07:32.662
29.0, 46977.93537115281, 49956.104154122375, 49908.852566343856, -3213.711466039594, -6595.373939916366, -9499.78196618342, 19761.087865959154, 13273.225816872815, 0.078, 0.978, 0.07200000000000001, 192.0, 2.0, 112.0, 30.0, 144.0, 2.0, 64.0, 0.0, 0.0, 0.0, 1.687802852665284E9, 0.0, 2023-06-26 13:07:32.665
30.0, 46945.950024837264, 49929.684392176205, 51272.68895777332, -3286.2428767970655, -6646.581786463474, -9583.37749044627, 19716.33967355963, 13201.94610380484, 0.078, 0.978, 0.07200000000000001, 192.0, 0.0, 0.0, 0.0, 0.0, 0.0, 0.0, 0.0, 0.0, 0.0, 1.6878028526688569E9, 0.0, 2023-06-26 13:07:32.668
31.0, 46911.52833837609, 49889.04892075645, 52922.24769857499, -3330.2758133740203, -6693.207525397244, -9622.582450220878, 19672.865530594056, 13163.858731252996, 0.078, 0.978, 0.07200000000000001, 192.0, 0.0, 0.0, 0.0, 0.0, 0.0, 0.0, 0.0, 0.0, 0.0, 1.6878028526759143E9, 0.0, 2023-06-26 13:07:32.675
32.0, 46959.18225755481, 49911.87005184532, 51576.15859224303, -3267.3556527323312, -6666.050155884047, -9569.6088158618, 19689.22700753534, 13201.074385771082, 0.078, 0.978, 0.07200000000000001, 192.0, 0.0, 0.0, 0.0, 0.0, 0.0, 0.0, 0.0, 0.0, 0.0, 1.6878028526789198E9, 0.0, 2023-06-26 13:07:32.678
33.0, 46985.020874145135, 49936.36756376834, 49849.352222603826, -3210.9174979826807, -6593.563448615486, -9503.73822495201, 19763.47950261587, 13278.277311119713, 0.078, 0.978, 0.07200000000000001, 192.0, 0.0, 0.0, 0.0, 0.0, 0.0, 0.0, 0.0, 0.0, 0.0, 1.6878028526819396E9, 0.0, 2023-06-26 13:07:32.681
34.0, 46955.941254608784, 49915.893365847274, 51009.497166812085, -3278.844449382359, -6636.188225291757, -9571.396955418224, 19723.112252129587, 13209.523345175188, 0.078, 0.978, 0.07200000000000001, 192.0, 0.0, 0.0, 0.0, 0.0, 0.0, 0.0, 0.0, 0.0, 0.0, 1.6878028526849484E9, 0.0, 2023-06-26 13:07:32.684
35.0, 46919.932594291284, 49881.53873461947, 52722.53486186682, -3328.4653220731407, -6689.2289148842, -9622.448339754146, 19677.022955062745, 13157.220263149771, 0.078, 0.978, 0.07200000000000001, 192.0, 0.0, 0.0, 0.0, 0.0, 0.0, 0.0, 0.0, 0.0, 0.0, 1.6878028526889637E9, 0.0, 2023-06-26 13:07:32.688
36.0, 46947.67110916032, 49890.01004576803, 52045.38876359329, -3289.908562887736, -6675.549647277552, -9587.870191081785, 19674.206635261373, 13177.046260481628, 0.078, 0.978, 0.07200000000000001, 192.0, 0.0, 0.0, 0.0, 0.0, 0.0, 0.0, 0.0, 0.0, 0.0, 1.6878028526919742E9, 0.0, 2023-06-26 13:07:32.691
37.0, 46987.77013871314, 49924.364676995836, 49876.77781305049, -3204.7707682574714, -6593.317579426477, -9499.424338272136, 19752.14716817703, 13273.71755525083, 0.078, 0.978, 0.07200000000000001, 192.0, 0.0, 0.0, 0.0, 0.0, 0.0, 0.0, 0.0, 0.0, 0.0, 1.687802852696E9, 0.0, 2023-06-26 13:07:32.696
38.0, 46957.01413834264, 49903.91283081923, 50770.17703892911, -3268.6073504218284, -6632.07550431198, -9566.926606527162, 19722.57581026266, 13218.687560401864, 0.078, 0.978, 0.07200000000000001, 192.0, 0.0, 0.0, 0.0, 0.0, 0.0, 0.0, 0.0, 0.0, 0.0, 1.6878028527010152E9, 0.0, 2023-06-26 13:07:32.701
39.0, 46920.357277435935, 49867.43478386817, 52486.96982705234, -3325.291374360487, -6682.635150269884, -9625.71169444462, 19673.737248627815, 13161.109466684995, 0.08600000000000001, 0.986, 0.07200000000000001, 192.0, 2.0, 176.0, 30.0, 208.0, 2.0, 64.0, 0.0, 0.0, 0.0, 1.6878028527050512E9, 0.0, 2023-06-26 13:07:32.705
40.0, 46928.873292073404, 49859.209341908616, 52485.427556684925, -3304.7501212060597, -6693.60985679744, -9606.578601190879, 19659.16391124295, 13165.780981276153, 0.08600000000000001, 0.986, 0.07200000000000001, 192.0, 0.0, 0.0, 0.0, 0.0, 0.0, 0.0, 0.0, 0.0, 0.0, 1.6878028527090647E9, 0.0, 2023-06-26 13:07:32.709
41.0, 46988.70891198026, 49910.14896752226, 50015.22451820666, -3215.6113643182953, -6606.080425510458, -9511.918963422653, 19737.216202880885, 13260.552377766655, 0.08600000000000001, 0.986, 0.07200000000000001, 192.0, 0.0, 0.0, 0.0, 0.0, 0.0, 0.0, 0.0, 0.0, 0.0, 1.6878028527130587E9, 0.0, 2023-06-26 13:07:32.713
42.0, 46967.966493125736, 49903.73401686359, 50486.73456749137, -3244.288652454454, -6616.384579704354, -9540.462141092079, 19745.799272751723, 13249.644726472465, 0.08600000000000001, 0.986, 0.07200000000000001, 192.0, 0.0, 0.0, 0.0, 0.0, 0.0, 0.0, 0.0, 0.0, 0.0, 1.6878028527171066E9, 0.0, 2023-06-26 13:07:32.717
43.0, 46921.13958849187, 49860.39398436475, 52163.47302955068, -3312.6402869987833, -6680.422327568809, -9617.396845507246, 19682.85676036558, 13172.5088563572, 0.08600000000000001, 0.986, 0.07200000000000001, 192.0, 0.0, 0.0, 0.0, 0.0, 0.0, 0.0, 0.0, 0.0, 0.0, 1.6878028527211225E9, 0.0, 2023-06-26 13:07:32.721
44.0, 46917.45155065675, 49844.30072835693, 52781.49876373992, -3310.5392230199845, -6708.585525582496, -9617.083921084872, 19654.85002456308, 13159.6566032954, 0.08600000000000001, 0.986, 0.07200000000000001, 192.0, 0.0, 0.0, 0.0, 0.0, 0.0, 0.0, 0.0, 0.0, 0.0, 1.6878028527242208E9, 0.0, 2023-06-26 13:07:32.724
45.0, 46986.16081311236, 49899.39777843926, 50267.79923055163, -3206.1565764137003, -6622.128978029368, -9507.806242442875, 19730.57773477766, 13258.965403910328, 0.08600000000000001, 0.986, 0.07200000000000001, 192.0, 0.0, 0.0, 0.0, 0.0, 0.0, 0.0, 0.0, 0.0, 0.0, 1.6878028527302055E9, 0.0, 2023-06-26 13:07:32.730
46.0, 46973.44267051729, 49901.32002846242, 50248.867302997984, -3231.4140476481975, -6618.2621262386, -9533.22017588856, 19749.755531520314, 13255.612642242033, 0.08600000000000001, 0.986, 0.07200000000000001, 192.0, 0.0, 0.0, 0.0, 0.0, 0.0, 0.0, 0.0, 0.0, 0.0, 1.6878028527341976E9, 0.0, 2023-06-26 13:07:32.734
47.0, 46947.849923115966, 49877.53777236197, 51832.041362767384, -3290.22148731011, -6673.023900154102, -9586.842010836841, 19701.364004774572, 13193.497144400733, 0.08600000000000001, 0.986, 0.07200000000000001, 192.0, 0.0, 0.0, 0.0, 0.0, 0.0, 0.0, 0.0, 0.0, 0.0, 1.6878028527381887E9, 0.0, 2023-06-26 13:07:32.738
48.0, 46916.40101866735, 49837.03641140895, 52957.76462051447, -3323.7938074819813, -6711.42419712832, -9613.351179760835, 19663.70131536738, 13166.630347565455, 0.08600000000000001, 0.986, 0.07200000000000001, 192.0, 0.0, 0.0, 0.0, 0.0, 0.0, 0.0, 0.0, 0.0, 0.0, 1.6878028527422285E9, 0.0, 2023-06-26 13:07:32.742
49.0, 46984.57383925603, 49887.931333533685, 50652.74097356093, -3221.6910388101387, -6634.936527602259, -9523.74303623951, 19721.03353989524, 13246.47077875981, 0.08600000000000001, 0.99, 0.064, 192.0, 2.0, 176.0, 30.0, 240.0, 2.0, 0.0, 0.0, 0.0, 0.0, 1.6878028527462423E9, 0.0, 2023-06-26 13:07:32.746
50.0, 46980.8858014209, 49893.16164173623, 50060.33033851747, -3219.9923062315356, -6612.271858724578, -9510.68961747761, 19760.48436885886, 13275.013956429239, 0.08600000000000001, 0.99, 0.064, 192.0, 0.0, 0.0, 0.0, 0.0, 0.0, 0.0, 0.0, 0.0, 0.0, 1.6878028527492323E9, 0.0, 2023-06-26 13:07:32.749
51.0, 46949.503952205654, 49870.116993202806, 51531.365696354595, -3291.1826123216883, -6660.08224011448, -9584.159801502205, 19705.834353665632, 13198.548638647633, 0.08600000000000001, 0.99, 0.064, 192.0, 0.0, 0.0, 0.0, 0.0, 0.0, 0.0, 0.0, 0.0, 0.0, 1.6878028527522645E9, 0.0, 2023-06-26 13:07:32.752
52.0, 46918.79265532406, 49834.39890556323, 52963.71018453958, -3325.0231534270233, -6701.2988568900655, -9621.062531597916, 19668.305774725173, 13164.573987075566, 0.08600000000000001, 0.99, 0.064, 192.0, 0.0, 0.0, 0.0, 0.0, 0.0, 0.0, 0.0, 0.0, 0.0, 1.6878028527563055E9, 0.0, 2023-06-26 13:07:32.756
53.0, 46978.76238569765, 49874.98967349406, 51088.39882473932, -3238.9465855296357, -6647.7664289196055, -9541.579728314844, 19709.18711533393, 13225.929525605385, 0.08600000000000001, 0.99, 0.064, 192.0, 0.0, 0.0, 0.0, 0.0, 0.0, 0.0, 0.0, 0.0, 0.0, 1.6878028527613115E9, 0.0, 2023-06-26 13:07:32.761
54.0, 46989.982961414215, 49893.20634522514, 49904.091644774875, -3210.7386840270383, -6599.978399274159, -9501.413643528658, 19771.749648064335, 13284.178171655914, 0.08600000000000001, 0.99, 0.064, 192.0, 0.0, 0.0, 0.0, 0.0, 0.0, 0.0, 0.0, 0.0, 0.0, 1.6878028527653384E9, 0.0, 2023-06-26 13:07:32.765
55.0, 46955.71773716423, 49868.55237109094, 51242.96113764777, -3291.9872751220796, -6652.236777810666, -9584.18215324666, 19723.626342252057, 13209.299827730636, 0.08600000000000001, 0.99, 0.064, 192.0, 0.0, 0.0, 0.0, 0.0, 0.0, 0.0, 0.0, 0.0, 0.0, 1.687802852769426E9, 0.0, 2023-06-26 13:07:32.769
56.0, 46915.52930063359, 49828.90037642722, 52886.99899756897, -3328.688839517694, -6700.985932467692, -9626.404598522735, 19681.56035918717, 13169.111391199995, 0.08600000000000001, 0.99, 0.064, 192.0, 0.0, 0.0, 0.0, 0.0, 0.0, 0.0, 0.0, 0.0, 0.0, 1.6878028527723432E9, 0.0, 2023-06-26 13:07:32.772
57.0, 46964.278455290616, 49856.124801173784, 51614.491833983884, -3257.386774705264, -6667.0783361289905, -9561.22691169106, 19698.257112295283, 13209.411586452912, 0.08600000000000001, 0.99, 0.064, 192.0, 0.0, 0.0, 0.0, 0.0, 0.0, 0.0, 0.0, 0.0, 0.0, 1.6878028527763917E9, 0.0, 2023-06-26 13:07:32.776
58.0, 46990.899382936885, 49887.90898178923, 49848.8157807369, -3202.714407767583, -6595.865678294383, -9499.156117338673, 19771.48142713087, 13284.066412933638, 0.08600000000000001, 0.99, 0.064, 192.0, 0.0, 0.0, 0.0, 0.0, 0.0, 0.0, 0.0, 0.0, 0.0, 1.68780285278039E9, 0.0, 2023-06-26 13:07:32.780
59.0, 46958.24348428768, 49869.11116470232, 51001.741111486095, -3271.6695394122053, -6645.754771918628, -9576.761374087499, 19724.743929474822, 13218.553449935132, 0.08600000000000001, 0.988, 0.068, 192.0, 2.0, 176.0, 30.0, 224.0, 2.0, 32.0, 0.0, 0.0, 0.0, 1.687802852784402E9, 0.0, 2023-06-26 13:07:32.784
60.0, 46928.35920195094, 49840.59033877735, 52688.60491378366, -3312.6402869987833, -6684.825621226504, -9621.218993809103, 19684.8460656221, 13174.56521684709, 0.08600000000000001, 0.988, 0.068, 192.0, 0.0, 0.0, 0.0, 0.0, 0.0, 0.0, 0.0, 0.0, 0.0, 1.6878028527884517E9, 0.0, 2023-06-26 13:07:32.788
61.0, 46951.58266444, 49844.52424580148, 52095.814299084464, -3278.129193559789, -6685.540877049074, -9589.412461449201, 19673.334917227618, 13182.969472762285, 0.08600000000000001, 0.988, 0.068, 192.0, 0.0, 0.0, 0.0, 0.0, 0.0, 0.0, 0.0, 0.0, 0.0, 1.6878028527944777E9, 0.0, 2023-06-26 13:07:32.794
62.0, 46997.9401824403, 49888.80305156745, 49894.502746403545, -3194.4442623191194, -6601.364207430388, -9500.787794683909, 19751.543671076735, 13272.085877905594, 0.08600000000000001, 0.988, 0.068, 192.0, 0.0, 0.0, 0.0, 0.0, 0.0, 0.0, 0.0, 0.0, 0.0, 1.68780285279749E9, 0.0, 2023-06-26 13:07:32.797
63.0, 46965.19487681328, 49868.8205920244, 50739.66690774762, -3246.3450129443427, -6632.567242689996, -9552.84500752032, 19731.181231877952, 13226.600077939043, 0.08600000000000001, 0.988, 0.068, 192.0, 0.0, 0.0, 0.0, 0.0, 0.0, 0.0, 0.0, 0.0, 0.0, 1.6878028528014958E9, 0.0, 2023-06-26 13:07:32.801
64.0, 46922.5253966481, 49831.470827039586, 52429.25762286873, -3302.6937607161717, -6680.645845013362, -9615.675761184188, 19683.08027781013, 13169.89370225593, 0.08600000000000001, 0.988, 0.068, 192.0, 0.0, 0.0, 0.0, 0.0, 0.0, 0.0, 0.0, 0.0, 0.0, 1.6878028528055274E9, 0.0, 2023-06-26 13:07:32.805
65.0, 46931.421390941316, 49826.352277559316, 52498.078644046625, -3286.622856452806, -6696.56028706554, -9601.66121741071, 19663.254280478275, 13167.479713854756, 0.08600000000000001, 0.988, 0.068, 192.0, 0.0, 0.0, 0.0, 0.0, 0.0, 0.0, 0.0, 0.0, 0.0, 1.6878028528085349E9, 0.0, 2023-06-26 13:07:32.808
66.0, 46997.62725801793, 49884.26564744302, 50028.27793696856, -3188.3198843383652, -6607.68975111124, -9502.866506918253, 19746.894508230034, 13267.012031914239, 0.08600000000000001, 0.988, 0.068, 192.0, 0.0, 0.0, 0.0, 0.0, 0.0, 0.0, 0.0, 0.0, 0.0, 1.687802852812574E9, 0.0, 2023-06-26 13:07:32.812
67.0, 46965.82072565803, 49868.708833302124, 50480.073747643684, -3233.336297671354, -6624.095931541435, -9542.339687626325, 19747.20743265241, 13247.074275860105, 0.08600000000000001, 0.988, 0.068, 192.0, 0.0, 0.0, 0.0, 0.0, 0.0, 0.0, 0.0, 0.0, 0.0, 1.687802852818575E9, 0.0, 2023-06-26 13:07:32.818
68.0, 46929.36503045142, 49835.762361975, 52110.23117425814, -3299.5868682368837, -6668.419440796309, -9610.71367391511, 19692.579769203636, 13178.543827360134, 0.08600000000000001, 0.988, 0.068, 192.0, 0.0, 0.0, 0.0, 0.0, 0.0, 0.0, 0.0, 0.0, 0.0, 1.6878028528236432E9, 0.0, 2023-06-26 13:07:32.823
69.0, 46914.61287911092, 49807.93444012814, 52784.62800796366, -3306.3817985512974, -6704.383397624898, -9617.352142018335, 19655.431169918917, 13156.54971081611, 0.08600000000000001, 0.988, 0.068, 192.0, 0.0, 0.0, 0.0, 0.0, 0.0, 0.0, 0.0, 0.0, 0.0, 1.68780285282664E9, 0.0, 2023-06-26 13:07:32.826
70.0, 46986.11610962345, 49866.38425187877, 50295.96242856532, -3202.0885589228346, -6617.278649482567, -9517.641010003212, 19729.393092321527, 13250.561147995133, 0.08600000000000001, 0.992, 0.068, 192.0, 2.0, 176.0, 31.0, 0.0, 2.0, 32.0, 0.0, 0.0, 0.0, 1.687802852830654E9, 0.0, 2023-06-26 13:07:32.830
71.0, 46969.19583907078, 49862.137420432264, 50244.73223027375, -3226.11668421229, -6609.83551857895, -9534.784798000432, 19754.7623222783, 13253.66804047442, 0.08600000000000001, 0.992, 0.068, 192.0, 0.0, 0.0, 0.0, 0.0, 0.0, 0.0, 0.0, 0.0, 0.0, 1.687802852833681E9, 0.0, 2023-06-26 13:07:32.833
72.0, 46933.365992708925, 49832.96839391809, 51802.559411830836, -3295.3623885348306, -6664.977272150192, -9610.132528559272, 19699.28529254023, 13177.292129670637, 0.08600000000000001, 0.992, 0.068, 192.0, 0.0, 0.0, 0.0, 0.0, 0.0, 0.0, 0.0, 0.0, 0.0, 1.687802852836702E9, 0.0, 2023-06-26 13:07:32.836
73.0, 46907.39326565186, 49799.440777235126, 52951.304966366886, -3321.156301636255, -6702.751720279661, -9624.23647931057, 19667.74698111379, 13157.041449194128, 0.08600000000000001, 0.992, 0.068, 192.0, 0.0, 0.0, 0.0, 0.0, 0.0, 0.0, 0.0, 0.0, 0.0, 1.6878028528407128E9, 0.0, 2023-06-26 13:07:32.840
74.0, 46975.07434786253, 49848.927539459175, 50700.84192762875, -3232.196358704133, -6633.282498512566, -9533.488396822024, 19722.441699795927, 13236.390142010468, 0.08600000000000001, 0.992, 0.068, 192.0, 0.0, 0.0, 0.0, 0.0, 0.0, 0.0, 0.0, 0.0, 0.0, 1.6878028528447087E9, 0.0, 2023-06-26 13:07:32.844
75.0, 46963.89847563487, 49848.167580147696, 50074.590751479955, -3227.2789749239655, -6612.964762802692, -9527.922812452653, 19755.56698507869, 13259.568901010622, 0.08600000000000001, 0.992, 0.068, 192.0, 0.0, 0.0, 0.0, 0.0, 0.0, 0.0, 0.0, 0.0, 0.0, 1.6878028528487406E9, 0.0, 2023-06-26 13:07:32.848
76.0, 46932.04723978606, 49827.62632699327, 51533.5114638223, -3296.077644357401, -6666.452487284242, -9597.503792942023, 19704.023862364753, 13189.093850743038, 0.08600000000000001, 0.992, 0.068, 192.0, 0.0, 0.0, 0.0, 0.0, 0.0, 0.0, 0.0, 0.0, 0.0, 1.6878028528517551E9, 0.0, 2023-06-26 13:07:32.851
77.0, 46901.984143493675, 49791.28239050894, 52986.86659179528, -3331.2369383855985, -6709.412540127342, -9628.438607268168, 19667.881091580522, 13156.862635238485, 0.08600000000000001, 0.992, 0.068, 192.0, 0.0, 0.0, 0.0, 0.0, 0.0, 0.0, 0.0, 0.0, 0.0, 1.6878028528557699E9, 0.0, 2023-06-26 13:07:32.855
78.0, 46966.69244369178, 49835.9635276751, 51180.152735728356, -3245.7862193329597, -6645.151274818334, -9550.229853419049, 19713.880981669543, 13220.85567961403, 0.08600000000000001, 0.992, 0.068, 192.0, 0.0, 0.0, 0.0, 0.0, 0.0, 0.0, 0.0, 0.0, 0.0, 1.6878028528598049E9, 0.0, 2023-06-26 13:07:32.859
79.0, 46977.264818819145, 49857.55531281893, 49937.95453762467, -3212.8620997502926, -6596.625637605863, -9511.650742489188, 19767.011078239808, 13274.72338375132, 0.08600000000000001, 0.992, 0.068, 192.0, 0.0, 0.0, 0.0, 0.0, 0.0, 0.0, 0.0, 0.0, 0.0, 1.6878028528648462E9, 0.0, 2023-06-26 13:07:32.864
80.0, 46936.495236932664, 49826.86636768179, 51267.36924259296, -3298.5363362474845, -6657.2212168242, -9601.728272644075, 19707.153106588496, 13190.233789710259, 0.078, 0.984, 0.06, 192.0, 2.0, 112.0, 30.0, 192.0, 1.0, 224.0, 0.0, 0.0, 0.0, 1.6878028528688524E9, 0.0, 2023-06-26 13:07:32.868
81.0, 46904.66635282831, 49796.87032662277, 52898.2866285189, -3337.6965925331824, -6698.9519237222585, -9644.040124897972, 19670.51859742625, 13151.833492736041, 0.078, 0.984, 0.06, 192.0, 0.0, 0.0, 0.0, 0.0, 0.0, 0.0, 0.0, 0.0, 0.0, 1.6878028528728745E9, 0.0, 2023-06-26 13:07:32.872
82.0, 46952.40967898485, 49823.91593741369, 51686.5985615967, -3266.1710102762, -6673.917969932315, -9569.586464117345, 19686.053059822687, 13192.915999044895, 0.078, 0.984, 0.06, 192.0, 0.0, 0.0, 0.0, 0.0, 0.0, 0.0, 0.0, 0.0, 0.0, 1.6878028528768857E9, 0.0, 2023-06-26 13:07:32.876
83.0, 46984.99852240068, 49861.75744077652, 49859.43285935317, -3201.2838961224434, -6601.16304173029, -9502.553582495879, 19759.232671169364, 13269.761296482242, 0.078, 0.984, 0.06, 192.0, 0.0, 0.0, 0.0, 0.0, 0.0, 0.0, 0.0, 0.0, 0.0, 1.6878028528809211E9, 0.0, 2023-06-26 13:07:32.880
84.0, 46950.62153942842, 49838.53397828746, 50956.83645687538, -3266.5733416763956, -6635.048286324535, -9575.442621164635, 19720.51944977277, 13203.04133928315, 0.078, 0.984, 0.06, 192.0, 0.0, 0.0, 0.0, 0.0, 0.0, 0.0, 0.0, 0.0, 0.0, 1.687802852884922E9, 0.0, 2023-06-26 13:07:32.884
85.0, 46912.400056409846, 49799.59723944632, 52656.217236067925, -3315.747179478071, -6685.2279526267, -9623.364761276813, 19678.587577174614, 13159.276623639658, 0.078, 0.984, 0.06, 192.0, 0.0, 0.0, 0.0, 0.0, 0.0, 0.0, 0.0, 0.0, 0.0, 1.6878028528899362E9, 0.0, 2023-06-26 13:07:32.889
86.0, 46933.70126887575, 49804.76049241549, 52135.06396234798, -3286.5110977305294, -6686.792574738572, -9596.073281296884, 19666.31646946865, 13166.764458032187, 0.078, 0.984, 0.06, 192.0, 0.0, 0.0, 0.0, 0.0, 0.0, 0.0, 0.0, 0.0, 0.0, 1.6878028528939838E9, 0.0, 2023-06-26 13:07:32.893
87.0, 46988.75361546918, 49858.158809919216, 49896.29088595997, -3197.908782709692, -6601.699483597217, -9503.559410996368, 19749.464958842393, 13263.14518012347, 0.078, 0.984, 0.06, 192.0, 0.0, 0.0, 0.0, 0.0, 0.0, 0.0, 0.0, 0.0, 0.0, 1.687802852898992E9, 0.0, 2023-06-26 13:07:32.898
88.0, 46969.97815012671, 49850.67097552669, 50697.466814216, -3247.909635056214, -6623.514786185598, -9550.98981273053, 19739.205508137406, 13228.052941328639, 0.078, 0.984, 0.06, 192.0, 0.0, 0.0, 0.0, 0.0, 0.0, 0.0, 0.0, 0.0, 0.0, 1.687802852902986E9, 0.0, 2023-06-26 13:07:32.902
89.0, 46931.421390941316, 49819.087960611345, 52363.297624981125, -3304.7277694616046, -6673.739155976672, -9612.837089638364, 19691.305719769683, 13169.848998767018, 0.078, 0.984, 0.06, 192.0, 0.0, 0.0, 0.0, 0.0, 0.0, 0.0, 0.0, 0.0, 0.0, 1.687802852906026E9, 0.0, 2023-06-26 13:07:32.906
90.0, 46931.86842583042, 49808.314419783885, 52535.07078112016, -3294.7365396900823, -6696.51558357663, -9603.739929645053, 19665.80237934618, 13160.79654226262, 0.074, 0.984, 0.058, 192.0, 2.0, 80.0, 30.0, 192.0, 1.0, 208.0, 0.0, 0.0, 0.0, 1.6878028529090345E9, 0.0, 2023-06-26 13:07:32.909
91.0, 47001.27059236415, 49868.39590887975, 50051.23317852416, -3194.4442623191194, -6603.197050475723, -9505.705178464077, 19746.782749507758, 13259.278328332703, 0.074, 0.984, 0.058, 192.0, 0.0, 0.0, 0.0, 0.0, 0.0, 0.0, 0.0, 0.0, 0.0, 1.6878028529130633E9, 0.0, 2023-06-26 13:07:32.913
92.0, 46972.70506295026, 49851.9673767051, 50461.27593055677, -3240.69002159715, -6623.537137930052, -9543.07729519335, 19741.686551771945, 13233.909098375929, 0.074, 0.984, 0.058, 192.0, 0.0, 0.0, 0.0, 0.0, 0.0, 0.0, 0.0, 0.0, 0.0, 1.6878028529160771E9, 0.0, 2023-06-26 13:07:32.916
93.0, 46934.43887644278, 49820.49612051203, 52075.38480465231, -3300.5479932484623, -6677.4048420673425, -9614.446415239147, 19687.528274956738, 13163.791676019631, 0.074, 0.984, 0.058, 192.0, 0.0, 0.0, 0.0, 0.0, 0.0, 0.0, 0.0, 0.0, 0.0, 1.6878028529201252E9, 0.0, 2023-06-26 13:07:32.920
94.0, 46918.70324834624, 49795.39511148872, 52803.157604117114, -3307.9240689187136, -6707.847918015471, -9621.6213252093, 19658.918042053945, 13148.480731067746, 0.074, 0.984, 0.058, 192.0, 0.0, 0.0, 0.0, 0.0, 0.0, 0.0, 0.0, 0.0, 0.0, 1.6878028529271464E9, 0.0, 2023-06-26 13:07:32.927
95.0, 46989.357112569465, 49849.37457434829, 50332.14990283846, -3211.811567760893, -6627.0463618095355, -9523.541870539411, 19725.23566785284, 13238.58061296709, 0.074, 0.984, 0.058, 192.0, 0.0, 0.0, 0.0, 0.0, 0.0, 0.0, 0.0, 0.0, 0.0, 1.687802852930224E9, 0.0, 2023-06-26 13:07:32.930
96.0, 46974.87318216243, 49846.60295803582, 50214.89265142592, -3230.2070534476106, -6616.004600048614, -9539.74688526951, 19753.465921099894, 13242.648630457954, 0.074, 0.984, 0.058, 192.0, 0.0, 0.0, 0.0, 0.0, 0.0, 0.0, 0.0, 0.0, 0.0, 1.6878028529342122E9, 0.0, 2023-06-26 13:07:32.934
97.0, 46941.21145501274, 49819.26677456698, 51743.14847506863, -3296.971714135613, -6659.814019181016, -9604.544592445445, 19708.38245253354, 13184.914074529896, 0.074, 0.984, 0.058, 192.0, 0.0, 0.0, 0.0, 0.0, 0.0, 0.0, 0.0, 0.0, 0.0, 1.6878028529372404E9, 0.0, 2023-06-26 13:07:32.937
98.0, 46907.929707518786, 49776.507887423984, 52948.645108776705, -3332.0192494415346, -6708.004380226658, -9643.973069664606, 19663.90248106748, 13150.581795046544, 0.074, 0.984, 0.058, 192.0, 0.0, 0.0, 0.0, 0.0, 0.0, 0.0, 0.0, 0.0, 0.0, 1.6878028529402225E9, 0.0, 2023-06-26 13:07:32.940
99.0, 46972.90622865036, 49825.59231824784, 50741.96913742652, -3237.9184052846917, -6648.481684742175, -9553.515559853979, 19716.205563092895, 13225.370731994002, 0.074, 0.984, 0.058, 192.0, 0.0, 0.0, 0.0, 0.0, 0.0, 0.0, 0.0, 0.0, 0.0, 1.6878028529442E9, 0.0, 2023-06-26 13:07:32.944
100.0, 46973.82265017303, 49840.76915273299, 50030.91544281429, -3219.9252509981693, -6610.327256956966, -9512.991847156507, 19768.016906740297, 13265.223892357815, 0.07200000000000001, 0.99, 0.062, 192.0, 2.0, 64.0, 30.0, 240.0, 1.0, 240.0, 0.0, 0.0, 0.0, 1.6878028529482374E9, 0.0, 2023-06-26 13:07:32.948
101.0, 46936.53994042158, 49813.67883845316, 51464.1987042664, -3295.876478657303, -6655.723649945695, -9597.839069108853, 19713.299836313705, 13190.904342043917, 0.07200000000000001, 0.99, 0.062, 192.0, 0.0, 0.0, 0.0, 0.0, 0.0, 0.0, 0.0, 0.0, 0.0, 1.6878028529522293E9, 0.0, 2023-06-26 13:07:32.952
102.0, 46898.98900973666, 49773.222180989054, 52946.879320964734, -3328.8229499844256, -6702.7070167907505, -9634.630040482289, 19670.831521848624, 13151.542920058122, 0.07200000000000001, 0.99, 0.062, 192.0, 0.0, 0.0, 0.0, 0.0, 0.0, 0.0, 0.0, 0.0, 0.0, 1.6878028529562583E9, 0.0, 2023-06-26 13:07:32.956
103.0, 46962.87029538993, 49818.28329781095, 51200.58223016051, -3240.0865244968563, -6651.320356287999, -9559.595234345823, 19704.649711209502, 13210.193897508849, 0.07200000000000001, 0.99, 0.062, 192.0, 0.0, 0.0, 0.0, 0.0, 0.0, 0.0, 0.0, 0.0, 0.0, 1.687802852961278E9, 0.0, 2023-06-26 13:07:32.961
104.0, 46978.516516508644, 49841.663222511204, 49915.423979213716, -3194.0419309189238, -6594.92690502726, -9504.40877728567, 19770.229729441373, 13270.409497071445, 0.07200000000000001, 0.99, 0.062, 192.0, 0.0, 0.0, 0.0, 0.0, 0.0, 0.0, 0.0, 0.0, 0.0, 1.6878028529642909E9, 0.0, 2023-06-26 13:07:32.964
105.0, 46954.28722551909, 49826.24051883704, 51205.79018661859, -3258.347899716842, -6642.8937486283485, -9573.430964163657, 19725.280371341752, 13200.47088867079, 0.07200000000000001, 0.99, 0.062, 192.0, 0.0, 0.0, 0.0, 0.0, 0.0, 0.0, 0.0, 0.0, 0.0, 1.6878028529683142E9, 0.0, 2023-06-26 13:07:32.968
106.0, 46906.78976855156, 49779.1006897808, 52843.86013077023, -3312.260307343043, -6695.576810309507, -9627.656296212232, 19673.42432420544, 13152.682859025343, 0.07200000000000001, 0.99, 0.062, 192.0, 0.0, 0.0, 0.0, 0.0, 0.0, 0.0, 0.0, 0.0, 0.0, 1.6878028529733348E9, 0.0, 2023-06-26 13:07:32.973
107.0, 46949.90628360585, 49803.86642263728, 51706.6033728842, -3258.258492739021, -6672.532161776086, -9575.017938019984, 19684.823713877646, 13187.03749025315, 0.07200000000000001, 0.99, 0.062, 192.0, 0.0, 0.0, 0.0, 0.0, 0.0, 0.0, 0.0, 0.0, 0.0, 1.6878028529763596E9, 0.0, 2023-06-26 13:07:32.976
108.0, 46983.277438077625, 49841.14913238873, 49858.225865152584, -3199.361646099287, -6604.113471998391, -9507.716835465055, 19753.15299667752, 13262.586386512088, 0.07200000000000001, 0.99, 0.062, 192.0, 0.0, 0.0, 0.0, 0.0, 0.0, 0.0, 0.0, 0.0, 0.0, 1.6878028529803646E9, 0.0, 2023-06-26 13:07:32.980
109.0, 46954.98012959721, 49822.86540542429, 50931.44487517415, -3264.7181468866047, -6645.374792262887, -9573.475667652569, 19719.67008348347, 13201.096737515538, 0.07200000000000001, 0.99, 0.062, 192.0, 0.0, 0.0, 0.0, 0.0, 0.0, 0.0, 0.0, 0.0, 0.0, 1.6878028529843895E9, 0.0, 2023-06-26 13:07:32.984
110.0, 46913.092960487964, 49782.54285842692, 52611.44669192394, -3327.615955783839, -6695.062720187035, -9634.607688737833, 19672.306736982675, 13143.60805077649, 0.07200000000000001, 0.99, 0.062, 192.0, 0.0, 0.0, 0.0, 0.0, 0.0, 0.0, 0.0, 0.0, 0.0, 1.6878028529904304E9, 0.0, 2023-06-26 13:07:32.990
111.0, 46950.80035338406, 49804.112291826284, 52153.906482923805, -3279.64911218275, -6679.41649906832, -9593.346368473336, 19675.771257373246, 13168.46319061079, 0.066, 0.99, 0.056, 192.0, 2.0, 16.0, 30.0, 240.0, 1.0, 192.0, 0.0, 0.0, 0.0, 1.687802852993452E9, 0.0, 2023-06-26 13:07:32.993
112.0, 47006.411493588865, 49859.09758318634, 49875.637874083266, -3175.5346865099295, -6595.575105616464, -9491.489468990501, 19762.876005515576, 13276.220950629826, 0.066, 0.99, 0.056, 192.0, 0.0, 0.0, 0.0, 0.0, 0.0, 0.0, 0.0, 0.0, 0.0, 1.6878028529964767E9, 0.0, 2023-06-26 13:07:32.996
113.0, 46966.714795436244, 49832.856635195814, 50661.50285738741, -3245.5627018884065, -6628.499225199131, -9554.119056954272, 19739.116101159587, 13226.04128432766, 0.066, 0.99, 0.056, 192.0, 0.0, 0.0, 0.0, 0.0, 0.0, 0.0, 0.0, 0.0, 0.0, 1.687802853000472E9, 0.0, 2023-06-26 13:07:33.000
114.0, 46923.10654200394, 49793.27169576546, 52320.13640643792, -3312.2156038541325, -6682.992778181169, -9621.330752531381, 19682.78970513221, 13161.5565015741, 0.066, 0.99, 0.056, 192.0, 0.0, 0.0, 0.0, 0.0, 0.0, 0.0, 0.0, 0.0, 0.0, 1.6878028530044773E9, 0.0, 2023-06-26 13:07:33.004
115.0, 46929.90147231835, 49785.33682648383, 52533.59556598611, -3304.7054177171494, -6699.778938267105, -9615.85457513983, 19664.70714386787, 13156.214434649282, 0.066, 0.99, 0.056, 192.0, 0.0, 0.0, 0.0, 0.0, 0.0, 0.0, 0.0, 0.0, 0.0, 1.6878028530085142E9, 0.0, 2023-06-26 13:07:33.008
116.0, 46995.68265625032, 49840.94796668863, 50062.52080947409, -3201.708579267094, -6605.409873176798, -9516.523422780445, 19746.179252407463, 13253.489226518777, 0.066, 0.99, 0.056, 192.0, 0.0, 0.0, 0.0, 0.0, 0.0, 0.0, 0.0, 0.0, 0.0, 1.6878028530125387E9, 0.0, 2023-06-26 13:07:33.012
117.0, 46971.83334491651, 49831.448475295125, 50433.49271219882, -3246.2779577109764, -6620.743169873139, -9547.994678973519, 19748.52618557527, 13236.278383288192, 0.066, 0.99, 0.056, 192.0, 0.0, 0.0, 0.0, 0.0, 0.0, 0.0, 0.0, 0.0, 0.0, 1.6878028530165431E9, 0.0, 2023-06-26 13:07:33.016
118.0, 46941.30086199056, 49808.180309317155, 52026.41213255074, -3309.712208475138, -6671.727498975694, -9617.463900740613, 19700.08995534062, 13174.721679058275, 0.066, 0.99, 0.056, 192.0, 0.0, 0.0, 0.0, 0.0, 0.0, 0.0, 0.0, 0.0, 0.0, 1.6878028530215695E9, 0.0, 2023-06-26 13:07:33.021
119.0, 46923.68768735978, 49780.68766363712, 52806.9126971856, -3309.0416561414786, -6700.673008045317, -9620.459034497624, 19674.02782130573, 13160.84124575153, 0.066, 0.99, 0.056, 192.0, 0.0, 0.0, 0.0, 0.0, 0.0, 0.0, 0.0, 0.0, 0.0, 1.6878028530245893E9, 0.0, 2023-06-26 13:07:33.024
120.0, 46977.39892928588, 49817.38922803274, 50391.02439773374, -3215.678419551661, -6623.73830363015, -9526.559356040878, 19732.164708633987, 13242.693333946865, 0.066, 0.99, 0.056, 192.0, 0.0, 0.0, 0.0, 0.0, 0.0, 0.0, 0.0, 0.0, 0.0, 1.687802853029627E9, 0.0, 2023-06-26 13:07:33.029
121.0, 46976.61661822994, 49833.75070497402, 50221.486416040236, -3219.25469866451, -6607.645047622329, -9523.899498450697, 19763.546557849237, 13258.496017276766, 0.066, 0.992, 0.052000000000000005, 192.0, 2.0, 16.0, 31.0, 0.0, 1.0, 160.0, 0.0, 0.0, 0.0, 1.6878028530326445E9, 0.0, 2023-06-26 13:07:33.032
122.0, 46952.521437707124, 49819.46794026708, 51723.72480913697, -3280.230257538588, -6654.360193533921, -9591.178249261171, 19718.731310216346, 13195.03941476815, 0.066, 0.992, 0.052000000000000005, 192.0, 0.0, 0.0, 0.0, 0.0, 0.0, 0.0, 0.0, 0.0, 0.0, 1.687802853036658E9, 0.0, 2023-06-26 13:07:33.036
123.0, 46918.613841368424, 49774.29506472291, 52927.50035852198, -3309.9580776641465, -6693.341635863976, -9619.43085425268, 19681.85093186509, 13166.27271965417, 0.066, 0.992, 0.052000000000000005, 192.0, 0.0, 0.0, 0.0, 0.0, 0.0, 0.0, 0.0, 0.0, 0.0, 1.6878028530406685E9, 0.0, 2023-06-26 13:07:33.040
124.0, 46982.96451365525, 49817.70215245512, 50760.58814055779, -3220.819320776382, -6631.449655467231, -9532.370809599259, 19725.705054486403, 13232.925621619896, 0.066, 0.992, 0.052000000000000005, 192.0, 0.0, 0.0, 0.0, 0.0, 0.0, 0.0, 0.0, 0.0, 0.0, 1.6878028530446956E9, 0.0, 2023-06-26 13:07:33.044
125.0, 46984.462080533754, 49829.995611905535, 50000.159442443786, -3203.876698479259, -6595.9327335277485, -9509.527326765934, 19774.230691698875, 13271.504732549756, 0.066, 0.992, 0.052000000000000005, 192.0, 0.0, 0.0, 0.0, 0.0, 0.0, 0.0, 0.0, 0.0, 0.0, 1.6878028530487275E9, 0.0, 2023-06-26 13:07:33.048
126.0, 46946.39705972637, 49802.34650401432, 51433.86738704055, -3276.4304609811857, -6654.091972600458, -9588.138412015249, 19720.251228839308, 13192.536019389156, 0.066, 0.992, 0.052000000000000005, 192.0, 0.0, 0.0, 0.0, 0.0, 0.0, 0.0, 0.0, 0.0, 0.0, 1.6878028530537243E9, 0.0, 2023-06-26 13:07:33.053
127.0, 46910.008419753125, 49764.52735239594, 52916.88327990571, -3311.388589309286, -6699.689531289284, -9617.709769929621, 19680.97921383133, 13166.138609187437, 0.066, 0.992, 0.052000000000000005, 192.0, 0.0, 0.0, 0.0, 0.0, 0.0, 0.0, 0.0, 0.0, 0.0, 1.6878028530567508E9, 0.0, 2023-06-26 13:07:33.056
128.0, 46972.503897250164, 49809.432007006646, 51217.971887346735, -3226.787236545949, -6648.83931265346, -9541.669135292666, 19710.684682212435, 13218.307580746125, 0.066, 0.992, 0.052000000000000005, 192.0, 0.0, 0.0, 0.0, 0.0, 0.0, 0.0, 0.0, 0.0, 0.0, 1.6878028530607727E9, 0.0, 2023-06-26 13:07:33.060
129.0, 46988.35128406898, 49834.68947824115, 49861.019833209495, -3186.2188203595665, -6589.204858446701, -9498.396158027192, 19775.39298241055, 13280.132505909503, 0.066, 0.992, 0.052000000000000005, 192.0, 0.0, 0.0, 0.0, 0.0, 0.0, 0.0, 0.0, 0.0, 0.0, 1.6878028530647712E9, 0.0, 2023-06-26 13:07:33.064
130.0, 46954.7342604082, 49814.37174253127, 51157.95745348423, -3264.8299056088813, -6643.541949217552, -9582.841048579341, 19724.14043237453, 13203.80129859463, 0.066, 0.992, 0.052000000000000005, 192.0, 0.0, 0.0, 0.0, 0.0, 0.0, 0.0, 0.0, 0.0, 0.0, 1.687802853069817E9, 0.0, 2023-06-26 13:07:33.069
131.0, 46914.277602944094, 49773.69156762261, 52780.80585966181, -3314.450778299663, -6690.570019551518, -9622.202470565137, 19678.431114963427, 13157.466132338779, 0.066, 0.99, 0.048, 192.0, 2.0, 16.0, 30.0, 240.0, 1.0, 128.0, 0.0, 0.0, 0.0, 1.6878028530738184E9, 0.0, 2023-06-26 13:07:33.073
132.0, 46956.88002787591, 49797.78674814544, 51720.79673061332, -3251.575321146884, -6665.826638439494, -9573.565074630389, 19687.528274956738, 13185.22699895227, 0.066, 0.99, 0.048, 192.0, 0.0, 0.0, 0.0, 0.0, 0.0, 0.0, 0.0, 0.0, 0.0, 1.6878028530768297E9, 0.0, 2023-06-26 13:07:33.076
133.0, 46997.64960976239, 49838.53397828746, 49809.61082096229, -3180.720291223561, -6587.64023633483, -9496.540963237401, 19767.48046487337, 13273.136409894993, 0.066, 0.99, 0.048, 192.0, 0.0, 0.0, 0.0, 0.0, 0.0, 0.0, 0.0, 0.0, 0.0, 1.6878028530798664E9, 0.0, 2023-06-26 13:07:33.079
134.0, 46963.5855512125, 49816.18223383215, 50886.048482185426, -3249.0495740234346, -6630.935565344759, -9567.731269327554, 19736.076263913663, 13212.85375509903, 0.066, 0.99, 0.048, 192.0, 0.0, 0.0, 0.0, 0.0, 0.0, 0.0, 0.0, 0.0, 0.0, 1.687802853084113E9, 0.0, 2023-06-26 13:07:33.084
135.0, 46920.75960883613, 49776.26201823497, 52567.659624536, -3309.3322288193976, -6685.004435182147, -9625.085845599871, 19687.662385423468, 13157.644946294422, 0.066, 0.99, 0.048, 192.0, 0.0, 0.0, 0.0, 0.0, 0.0, 0.0, 0.0, 0.0, 0.0, 1.6878028530879183E9, 0.0, 2023-06-26 13:07:33.087
136.0, 46948.453420216254, 49783.90631483869, 52199.772262546096, -3279.3361877603757, -6681.428156069298, -9594.575714418377, 19683.192036532408, 13170.676013311866, 0.066, 0.99, 0.048, 192.0, 0.0, 0.0, 0.0, 0.0, 0.0, 0.0, 0.0, 0.0, 0.0, 1.687802853092908E9, 0.0, 2023-06-26 13:07:33.092
137.0, 47008.46785407876, 49841.68557425566, 49911.75829312304, -3184.6989017366054, -6588.78017530205, -9503.335893551814, 19767.368706151094, 13267.324956336613, 0.066, 0.99, 0.048, 192.0, 0.0, 0.0, 0.0, 0.0, 0.0, 0.0, 0.0, 0.0, 0.0, 1.6878028530969312E9, 0.0, 2023-06-26 13:07:33.096
138.0, 46981.55635375457, 49829.39211480524, 50646.43778162453, -3231.8610825373034, -6615.110530270402, -9551.615661575277, 19756.505758345815, 13230.645743685454, 0.066, 0.99, 0.048, 192.0, 0.0, 0.0, 0.0, 0.0, 0.0, 0.0, 0.0, 0.0, 0.0, 1.6878028531009536E9, 0.0, 2023-06-26 13:07:33.100
139.0, 46934.3271177205, 49785.582695672834, 52287.100528132985, -3300.5256415040067, -6667.279501829088, -9617.776825162986, 19703.353310031096, 13164.238710908738, 0.066, 0.99, 0.048, 192.0, 0.0, 0.0, 0.0, 0.0, 0.0, 0.0, 0.0, 0.0, 0.0, 1.6878028531039882E9, 0.0, 2023-06-26 13:07:33.103
140.0, 46930.639079885375, 49769.82471583185, 52568.821915247674, -3293.171917578211, -6687.463127072231, -9607.226801780082, 19680.219254519852, 13163.925786486363, 0.066, 0.99, 0.048, 192.0, 0.0, 0.0, 0.0, 0.0, 0.0, 0.0, 0.0, 0.0, 0.0, 1.6878028531079857E9, 0.0, 2023-06-26 13:07:33.107
141.0, 46996.50967079517, 49825.927594414665, 50083.24087658416, -3189.2810093499434, -6602.705312097706, -9501.301884806382, 19758.33860139115, 13262.206406856349, 0.07, 0.992, 0.052000000000000005, 192.0, 2.0, 48.0, 31.0, 0.0, 1.0, 160.0, 0.0, 0.0, 0.0, 1.6878028531120253E9, 0.0, 2023-06-26 13:07:33.112
142.0, 46970.02285361563, 49814.3046872979, 50412.92910729994, -3229.692963325139, -6608.919097056281, -9539.679830036144, 19761.601956081624, 13242.022781613206, 0.07, 0.992, 0.052000000000000005, 192.0, 0.0, 0.0, 0.0, 0.0, 0.0, 0.0, 0.0, 0.0, 0.0, 1.6878028531160395E9, 0.0, 2023-06-26 13:07:33.116
143.0, 46932.27075723062, 49782.453451449095, 51987.810669876424, -3300.2350688260876, -6660.08224011448, -9613.842918138853, 19704.42619376495, 13172.17358019037, 0.07, 0.992, 0.052000000000000005, 192.0, 0.0, 0.0, 0.0, 0.0, 0.0, 0.0, 0.0, 0.0, 0.0, 1.6878028531200547E9, 0.0, 2023-06-26 13:07:33.120
144.0, 46916.75864657863, 49757.33009068133, 52810.578383276275, -3314.1155021328336, -6690.1453364068675, -9624.86232815532, 19676.08418179562, 13155.74504801572, 0.07, 0.992, 0.052000000000000005, 192.0, 0.0, 0.0, 0.0, 0.0, 0.0, 0.0, 0.0, 0.0, 0.0, 1.6878028531250887E9, 0.0, 2023-06-26 13:07:33.125
145.0, 46991.34641782599, 49819.87027166728, 50387.62693257653, -3207.0729979363678, -6607.600344133419, -9525.88880370722, 19741.932420960955, 13246.783703182185, 0.07, 0.992, 0.052000000000000005, 192.0, 0.0, 0.0, 0.0, 0.0, 0.0, 0.0, 0.0, 0.0, 0.0, 1.68780285312911E9, 0.0, 2023-06-26 13:07:33.129
146.0, 46979.12001360894, 49823.982992647056, 50178.1910870303, -3221.0875417098455, -6592.44586139272, -9533.466045077568, 19772.174331208986, 13262.966366167828, 0.07, 0.992, 0.052000000000000005, 192.0, 0.0, 0.0, 0.0, 0.0, 0.0, 0.0, 0.0, 0.0, 0.0, 1.68780285313312E9, 0.0, 2023-06-26 13:07:33.133
147.0, 46945.6818039038, 49797.92085861217, 51672.94164573451, -3286.645208197261, -6642.513768972608, -9596.050929552428, 19719.8041939502, 13192.066632755594, 0.07, 0.992, 0.052000000000000005, 192.0, 0.0, 0.0, 0.0, 0.0, 0.0, 0.0, 0.0, 0.0, 0.0, 1.6878028531372168E9, 0.0, 2023-06-26 13:07:33.137
148.0, 46918.613841368424, 49764.348538440296, 52908.27785829042, -3309.5333945194957, -6682.009301425136, -9613.75351116103, 19685.248397022297, 13169.781943533653, 0.07, 0.992, 0.052000000000000005, 192.0, 0.0, 0.0, 0.0, 0.0, 0.0, 0.0, 0.0, 0.0, 0.0, 1.6878028531412227E9, 0.0, 2023-06-26 13:07:33.141
149.0, 46982.20455434377, 49811.77894017446, 50797.78144333142, -3220.908727754203, -6620.273783239578, -9534.829501489343, 19729.95188593291, 13232.590345453065, 0.07, 0.992, 0.052000000000000005, 192.0, 0.0, 0.0, 0.0, 0.0, 0.0, 0.0, 0.0, 0.0, 0.0, 1.6878028531452165E9, 0.0, 2023-06-26 13:07:33.145
