%OpenBCI Raw EEG Data
%Number of channels = 8
%Sample Rate = 250 Hz
%Board = OpenBCI_GUI$BoardCytonSerial
Sample Index, EXG Channel 0, EXG Channel 1, EXG Channel 2, EXG Channel 3, EXG Channel 4, EXG Channel 5, EXG Channel 6, EXG Channel 7, Accel Channel 0, Accel Channel 1, Accel Channel 2, Other, Other, Other, Other, Other, Other, Other, Analog Channel 0, Analog Channel 1, Analog Channel 2, Timestamp, Other, Timestamp (Formatted)
34.0, 47076.77478513418, 49809.25319305101, 52810.44427280954, -3136.262671501955, -6485.783336851995, -9432.592622350767, 19930.916420330577, 13304.786480043707, 0.0, 0.0, 0.0, 192.0, 0.0, 0.0, 0.0, 0.0, 0.0, 0.0, 0.0, 0.0, 0.0, 1.687802888989735E9, 0.0, 2023-06-26 13:08:08.989
35.0, 47137.54917830815, 49864.70787104462, 50399.048673993195, -3037.7361819429616, -6398.298609053923, -9333.79791185831, 20005.079508433286, 13403.760004491807, 0.0, 0.0, 0.0, 192.0, 0.0, 0.0, 0.0, 0.0, 0.0, 0.0, 0.0, 0.0, 0.0, 1.6878028889897606E9, 0.0, 2023-06-26 13:08:08.989
36.0, 47105.697942459345, 49847.13939990275, 51004.84800396538, -3087.714682545028, -6421.879699454272, -9378.367290302192, 19997.34580485175, 13374.12159134407, 0.0, 0.0, 0.0, 192.0, 0.0, 0.0, 0.0, 0.0, 0.0, 0.0, 0.0, 0.0, 0.0, 1.6878028889897716E9, 0.0, 2023-06-26 13:08:08.989
0.0, 0.0, 0.0, 0.0, 0.0, 0.0, 0.0, 0.0, 0.0, 0.036000000000000004, 0.99, 0.074, 192.0, 1.0, 32.0, 30.0, 240.0, 2.0, 80.0, 0.0, 0.0, 0.0, 1.6878028890655835E9, 0.0, 2023-06-26 13:08:09.065
1.0, 47255.40992682099, 50165.271778735136, 57525.54476565657, -3088.1617174341345, -6245.90441535764, -9129.972354170366, 20245.472520050113, 13576.024899008858, 0.036000000000000004, 0.99, 0.074, 192.0, 0.0, 0.0, 0.0, 0.0, 0.0, 0.0, 0.0, 0.0, 0.0, 1.6878028890816548E9, 0.0, 2023-06-26 13:08:09.081
2.0, 47224.36335377257, 50137.71207782174, 58806.79146132368, -3131.300584232877, -6276.705119217053, -9179.10148848313, 20211.09553707785, 13530.270878108846, 0.036000000000000004, 0.99, 0.074, 192.0, 0.0, 0.0, 0.0, 0.0, 0.0, 0.0, 0.0, 0.0, 0.0, 1.687802889085656E9, 0.0, 2023-06-26 13:08:09.085
3.0, 47227.134970085026, 50130.9842027407, 58974.85422788313, -3126.6961248750836, -6304.220116641536, -9171.09956396813, 20182.75352510852, 13520.43611054851, 0.036000000000000004, 0.99, 0.074, 192.0, 0.0, 0.0, 0.0, 0.0, 0.0, 0.0, 0.0, 0.0, 0.0, 1.687802889088673E9, 0.0, 2023-06-26 13:08:09.088
4.0, 47286.25533416931, 50187.221191790246, 56820.079007158165, -3028.6390219496516, -6220.177557489581, -9073.60125465408, 20258.10125566736, 13616.16863205059, 0.036000000000000004, 0.99, 0.074, 192.0, 0.0, 0.0, 0.0, 0.0, 0.0, 0.0, 0.0, 0.0, 0.0, 1.6878028890917017E9, 0.0, 2023-06-26 13:08:09.091
5.0, 47256.46045881039, 50166.23290374671, 57385.48873489961, -3084.2278104100005, -6243.289261256369, -9124.719694223368, 20247.707694495642, 13579.556474632798, 0.036000000000000004, 0.99, 0.074, 192.0, 0.0, 0.0, 0.0, 0.0, 0.0, 0.0, 0.0, 0.0, 0.0, 1.687802889095724E9, 0.0, 2023-06-26 13:08:09.095
6.0, 47227.760818929775, 50138.136760966394, 58485.753355712106, -3130.786494110405, -6275.073441871816, -9168.819686033688, 20213.6212842013, 13531.58963103171, 0.036000000000000004, 0.99, 0.074, 192.0, 0.0, 0.0, 0.0, 0.0, 0.0, 0.0, 0.0, 0.0, 0.0, 1.6878028890987325E9, 0.0, 2023-06-26 13:08:09.098
7.0, 47215.020324590245, 50123.00462997015, 59269.15964712616, -3140.3306889928213, -6311.372674867234, -9178.296825682739, 20181.65828963021, 13514.557601756766, 0.036000000000000004, 0.99, 0.074, 192.0, 0.0, 0.0, 0.0, 0.0, 0.0, 0.0, 0.0, 0.0, 0.0, 1.6878028891027784E9, 0.0, 2023-06-26 13:08:09.102
8.0, 47275.571200319675, 50172.98313057222, 57034.45458822902, -3049.4931995264533, -6243.8033513788405, -9086.498211204793, 20234.54251701147, 13595.69443412953, 0.02, 0.99, 0.078, 192.0, 0.0, 160.0, 30.0, 240.0, 2.0, 112.0, 0.0, 0.0, 0.0, 1.6878028891067753E9, 0.0, 2023-06-26 13:08:09.106
9.0, 47258.226246622355, 50167.77517411413, 57261.77182933949, -3073.007234693436, -6241.7469908889525, -9107.017112614765, 20250.412255574734, 13590.97821604946, 0.02, 0.99, 0.078, 192.0, 0.0, 0.0, 0.0, 0.0, 0.0, 0.0, 0.0, 0.0, 0.0, 1.6878028891107757E9, 0.0, 2023-06-26 13:08:09.110
10.0, 47235.56157774467, 50146.87629304842, 58254.92689072215, -3120.61645038324, -6271.988901136983, -9164.52815109827, 20216.41525225821, 13534.741226999908, 0.02, 0.99, 0.078, 192.0, 0.0, 0.0, 0.0, 0.0, 0.0, 0.0, 0.0, 0.0, 0.0, 1.6878028891159296E9, 0.0, 2023-06-26 13:08:09.115
11.0, 47212.89690886699, 50122.64700205887, 59414.75891050803, -3136.7767616244273, -6308.824575999329, -9173.58060760267, 20183.13350476426, 13517.016293646848, 0.02, 0.99, 0.078, 192.0, 0.0, 0.0, 0.0, 0.0, 0.0, 0.0, 0.0, 0.0, 0.0, 1.6878028891198308E9, 0.0, 2023-06-26 13:08:09.119
12.0, 47274.677130541466, 50170.792659615596, 57328.670600494224, -3050.789600704861, -6256.1862178070805, -9090.052138573186, 20218.695130192653, 13584.295044457323, 0.02, 0.99, 0.078, 192.0, 0.0, 0.0, 0.0, 0.0, 0.0, 0.0, 0.0, 0.0, 0.0, 1.6878028891238773E9, 0.0, 2023-06-26 13:08:09.123
13.0, 47270.45265083941, 50178.95104634178, 57069.233902601474, -3054.4552867955313, -6232.314554728813, -9086.9452460939, 20257.184834144693, 13605.752719134418, 0.02, 0.99, 0.078, 192.0, 0.0, 0.0, 0.0, 0.0, 0.0, 0.0, 0.0, 0.0, 0.0, 1.6878028891278815E9, 0.0, 2023-06-26 13:08:09.127
14.0, 47246.290415083226, 50157.716889109244, 57984.67194851303, -3118.5824416378073, -6270.021947624916, -9158.135552184052, 20215.99056911356, 13538.205747390479, 0.02, 0.99, 0.078, 192.0, 0.0, 0.0, 0.0, 0.0, 0.0, 0.0, 0.0, 0.0, 0.0, 1.6878028891318989E9, 0.0, 2023-06-26 13:08:09.131
15.0, 47209.05240882068, 50123.675182303814, 59378.66084321271, -3152.467686232053, -6310.992695211494, -9186.276398453283, 20182.865283830797, 13511.540116255299, 0.02, 0.99, 0.078, 192.0, 0.0, 0.0, 0.0, 0.0, 0.0, 0.0, 0.0, 0.0, 0.0, 1.6878028891369395E9, 0.0, 2023-06-26 13:08:09.136
16.0, 47274.78888926374, 50170.12210728194, 57732.63367803499, -3069.8332869807828, -6268.345566790768, -9105.13956608052, 20209.687377177164, 13567.821808793762, 0.02, 0.99, 0.078, 192.0, 0.0, 0.0, 0.0, 0.0, 0.0, 0.0, 0.0, 0.0, 0.0, 1.687802889139936E9, 0.0, 2023-06-26 13:08:09.139
17.0, 47282.05320621171, 50190.283380780624, 56924.34989504217, -3046.922748914093, -6225.5196244144, -9076.618740155547, 20262.996287703074, 13615.319265761289, 0.02, 0.99, 0.078, 192.0, 0.0, 0.0, 0.0, 0.0, 0.0, 0.0, 0.0, 0.0, 0.0, 1.6878028891449423E9, 0.0, 2023-06-26 13:08:09.144
18.0, 47256.19223787692, 50169.183334014815, 57818.374969765544, -3110.2228892115227, -6263.785810921885, -9153.106409681608, 20225.71357795162, 13547.459369594977, 0.014, 0.988, 0.074, 192.0, 0.0, 112.0, 30.0, 224.0, 2.0, 80.0, 0.0, 0.0, 0.0, 1.6878028891491368E9, 0.0, 2023-06-26 13:08:09.149
19.0, 47213.92508911194, 50132.973507997216, 59254.49690276348, -3146.2315495290222, -6305.382407353211, -9194.524192157292, 20190.33076647887, 13511.562467999753, 0.014, 0.988, 0.074, 192.0, 0.0, 0.0, 0.0, 0.0, 0.0, 0.0, 0.0, 0.0, 0.0, 1.687802889152989E9, 0.0, 2023-06-26 13:08:09.152
20.0, 47255.14170588752, 50156.26402571965, 58213.97849488002, -3088.496993600964, -6290.853773457262, -9128.720656480868, 20196.119868292793, 13550.275689396345, 0.014, 0.988, 0.074, 192.0, 0.0, 0.0, 0.0, 0.0, 0.0, 0.0, 0.0, 0.0, 0.0, 1.687802889158022E9, 0.0, 2023-06-26 13:08:09.158
21.0, 47275.81706950868, 50182.84024987701, 56836.26167014381, -3039.9043011551266, -6231.018153550405, -9077.490458189304, 20260.20231964616, 13621.93538212006, 0.014, 0.988, 0.074, 192.0, 0.0, 0.0, 0.0, 0.0, 0.0, 0.0, 0.0, 0.0, 0.0, 1.6878028891620317E9, 0.0, 2023-06-26 13:08:09.162
22.0, 47253.062993653184, 50164.17654325683, 57687.90783737992, -3101.7962815518717, -6266.244502811969, -9140.455322319904, 20229.80394718694, 13562.703259313495, 0.014, 0.988, 0.074, 192.0, 0.0, 0.0, 0.0, 0.0, 0.0, 0.0, 0.0, 0.0, 0.0, 1.6878028891660602E9, 0.0, 2023-06-26 13:08:09.166
23.0, 47221.21175780437, 50139.20964470025, 59001.318693318215, -3135.5474156793853, -6295.39117758169, -9178.587398360658, 20203.585350940866, 13531.232003120424, 0.014, 0.988, 0.074, 192.0, 0.0, 0.0, 0.0, 0.0, 0.0, 0.0, 0.0, 0.0, 0.0, 1.6878028891731083E9, 0.0, 2023-06-26 13:08:09.173
24.0, 47241.037755136225, 50148.284452949105, 58662.17567469784, -3107.0936449877795, -6309.137500421703, -9151.541787569737, 20185.882769332264, 13536.685828767519, 0.014, 0.988, 0.074, 192.0, 0.0, 0.0, 0.0, 0.0, 0.0, 0.0, 0.0, 0.0, 0.0, 1.6878028891761124E9, 0.0, 2023-06-26 13:08:09.176
25.0, 47289.51868885979, 50203.60502047599, 56802.62229473857, -3017.038466577347, -6223.597374391244, -9061.97834753732, 20264.382095859302, 13628.998533367936, 0.014, 0.988, 0.074, 192.0, 0.0, 0.0, 0.0, 0.0, 0.0, 0.0, 0.0, 0.0, 0.0, 1.6878028891791174E9, 0.0, 2023-06-26 13:08:09.179
26.0, 47266.09406067063, 50185.50010746719, 57549.95287060176, -3074.2142288940227, -6247.580796191788, -9119.981124398842, 20245.80779621694, 13580.271730455368, 0.014, 0.988, 0.074, 192.0, 0.0, 0.0, 0.0, 0.0, 0.0, 0.0, 0.0, 0.0, 0.0, 1.6878028891832073E9, 0.0, 2023-06-26 13:08:09.183
27.0, 47228.96781313036, 50150.96666228374, 58742.46314078131, -3128.6183748982403, -6290.026758912416, -9177.447459393437, 20206.37931899778, 13527.365151329655, 0.014, 0.988, 0.074, 192.0, 0.0, 0.0, 0.0, 0.0, 0.0, 0.0, 0.0, 0.0, 0.0, 1.6878028891904109E9, 0.0, 2023-06-26 13:08:09.190
28.0, 47241.57419700315, 50152.66539486234, 59029.571298309726, -3114.112092746746, -6306.455291087066, -9164.192874931441, 20189.95078682313, 13526.359322829167, 0.026000000000000002, 0.994, 0.07200000000000001, 192.0, 0.0, 208.0, 31.0, 16.0, 2.0, 64.0, 0.0, 0.0, 0.0, 1.6878028891932147E9, 0.0, 2023-06-26 13:08:09.193
29.0, 47292.33500866115, 50200.83340416353, 56869.722231593405, -3025.4874259814533, -6233.767418118408, -9075.679966888425, 20254.122645154315, 13610.64775117013, 0.026000000000000002, 0.994, 0.07200000000000001, 192.0, 0.0, 0.0, 0.0, 0.0, 0.0, 0.0, 0.0, 0.0, 0.0, 1.6878028891962163E9, 0.0, 2023-06-26 13:08:09.196
30.0, 47258.31565360018, 50175.620636417945, 57432.27093604457, -3081.5456010753637, -6260.544807975866, -9128.675952991958, 20242.835014204386, 13574.102648985703, 0.026000000000000002, 0.994, 0.07200000000000001, 192.0, 0.0, 0.0, 0.0, 0.0, 0.0, 0.0, 0.0, 0.0, 0.0, 1.6878028892022524E9, 0.0, 2023-06-26 13:08:09.202
31.0, 47241.30597606969, 50159.952063554774, 58432.93618356421, -3119.7894358383937, -6282.047186141871, -9175.078174481176, 20215.320016779904, 13528.907421697071, 0.026000000000000002, 0.994, 0.07200000000000001, 192.0, 0.0, 0.0, 0.0, 0.0, 0.0, 0.0, 0.0, 0.0, 0.0, 1.6878028892052531E9, 0.0, 2023-06-26 13:08:09.205
32.0, 47221.52468222674, 50135.78982779859, 59296.92051373965, -3133.0663720448465, -6322.436788372611, -9177.849790793633, 20183.08880127535, 13510.95897089946, 0.026000000000000002, 0.994, 0.07200000000000001, 192.0, 0.0, 0.0, 0.0, 0.0, 0.0, 0.0, 0.0, 0.0, 0.0, 1.687802889209264E9, 0.0, 2023-06-26 13:08:09.209
33.0, 47294.32431391768, 50198.73234018473, 57090.132783667184, -3022.961678858004, -6246.396153735656, -9076.17170526644, 20247.350066584357, 13601.438832454543, 0.026000000000000002, 0.994, 0.07200000000000001, 192.0, 0.0, 0.0, 0.0, 0.0, 0.0, 0.0, 0.0, 0.0, 0.0, 1.6878028892122948E9, 0.0, 2023-06-26 13:08:09.212
34.0, 47281.74028178934, 50197.45829075078, 57236.93904124964, -3049.8061239488275, -6242.28343275588, -9093.114327563564, 20264.046819692474, 13604.411614467099, 0.026000000000000002, 0.994, 0.07200000000000001, 192.0, 0.0, 0.0, 0.0, 0.0, 0.0, 0.0, 0.0, 0.0, 0.0, 1.6878028892153056E9, 0.0, 2023-06-26 13:08:09.215
35.0, 47255.61109252109, 50171.440860204806, 58153.94170927307, -3105.3502089202657, -6284.729395476508, -9156.973261472376, 20220.058586604428, 13541.267936380857, 0.026000000000000002, 0.994, 0.07200000000000001, 192.0, 0.0, 0.0, 0.0, 0.0, 0.0, 0.0, 0.0, 0.0, 0.0, 1.6878028892183304E9, 0.0, 2023-06-26 13:08:09.218
36.0, 47232.05235386519, 50152.37482218443, 59369.98836636405, -3124.0139155404468, -6316.15594818067, -9170.473715123382, 20194.42113571419, 13523.878279194627, 0.026000000000000002, 0.994, 0.07200000000000001, 192.0, 0.0, 0.0, 0.0, 0.0, 0.0, 0.0, 0.0, 0.0, 0.0, 1.6878028892223427E9, 0.0, 2023-06-26 13:08:09.222
37.0, 47297.721779074884, 50203.56031698708, 57404.375958964345, -3037.959699387515, -6255.04627883986, -9087.28052226073, 20230.027464631494, 13587.983082292449, 0.026000000000000002, 0.994, 0.07200000000000001, 192.0, 0.0, 0.0, 0.0, 0.0, 0.0, 0.0, 0.0, 0.0, 0.0, 1.687802889225442E9, 0.0, 2023-06-26 13:08:09.225
38.0, 47280.84621201113, 50198.24060180671, 57086.645911532156, -3047.5709495032966, -6240.875272855195, -9087.70520540538, 20257.989496945083, 13607.004416823915, 0.026000000000000002, 0.994, 0.07200000000000001, 192.0, 0.0, 0.0, 0.0, 0.0, 0.0, 0.0, 0.0, 0.0, 0.0, 1.6878028892283373E9, 0.0, 2023-06-26 13:08:09.228
39.0, 47260.886104212535, 50180.13568879792, 57989.34346310419, -3097.840022783282, -6274.33583430479, -9149.843054991134, 20221.824374416396, 13546.788817261317, 0.032, 0.996, 0.07200000000000001, 192.0, 1.0, 0.0, 31.0, 32.0, 2.0, 64.0, 0.0, 0.0, 0.0, 1.6878028892313783E9, 0.0, 2023-06-26 13:08:09.231
40.0, 47231.27004280926, 50152.35247043997, 59379.17493333518, -3123.589232395796, -6306.365884109246, -9170.272549423284, 20194.354080480825, 13528.348628085689, 0.032, 0.996, 0.07200000000000001, 192.0, 0.0, 0.0, 0.0, 0.0, 0.0, 0.0, 0.0, 0.0, 0.0, 1.6878028892364097E9, 0.0, 2023-06-26 13:08:09.236
41.0, 47282.74611028983, 50187.13178481243, 57854.89772020552, -3052.7789059613833, -6269.23963656898, -9102.65852244598, 20213.107194078828, 13573.365041418678, 0.032, 0.996, 0.07200000000000001, 192.0, 0.0, 0.0, 0.0, 0.0, 0.0, 0.0, 0.0, 0.0, 0.0, 1.6878028892394073E9, 0.0, 2023-06-26 13:08:09.239
42.0, 47289.45163362642, 50205.057883865586, 56925.51218575385, -3023.252251535923, -6219.127025500182, -9061.754830092768, 20268.472465094623, 13631.345466535744, 0.032, 0.996, 0.07200000000000001, 192.0, 0.0, 0.0, 0.0, 0.0, 0.0, 0.0, 0.0, 0.0, 0.0, 1.6878028892454576E9, 0.0, 2023-06-26 13:08:09.245
43.0, 47260.260255367786, 50177.52053469665, 57823.270001801255, -3095.0684064708244, -6264.277549299902, -9140.47767406436, 20221.6232087163, 13556.400067377099, 0.032, 0.996, 0.07200000000000001, 192.0, 0.0, 0.0, 0.0, 0.0, 0.0, 0.0, 0.0, 0.0, 0.0, 1.6878028892494664E9, 0.0, 2023-06-26 13:08:09.249
44.0, 47230.84535966461, 50153.738278596196, 59212.8779545877, -3128.3278022203212, -6291.256104857458, -9171.85952327961, 20196.633958415267, 13526.404026318078, 0.032, 0.996, 0.07200000000000001, 192.0, 0.0, 0.0, 0.0, 0.0, 0.0, 0.0, 0.0, 0.0, 0.0, 1.6878028892524776E9, 0.0, 2023-06-26 13:08:09.252
45.0, 47267.524572315764, 50176.82763061853, 58317.511775197, -3082.596133064763, -6280.594322752277, -9126.686647735434, 20196.745717137543, 13549.828654507239, 0.032, 0.996, 0.07200000000000001, 192.0, 0.0, 0.0, 0.0, 0.0, 0.0, 0.0, 0.0, 0.0, 0.0, 1.6878028892555053E9, 0.0, 2023-06-26 13:08:09.255
46.0, 47297.49826163033, 50214.356209558995, 56816.77094897878, -3026.917937626593, -6212.287391696857, -9057.060963757154, 20264.225633648115, 13634.65352471513, 0.032, 0.996, 0.07200000000000001, 192.0, 0.0, 0.0, 0.0, 0.0, 0.0, 0.0, 0.0, 0.0, 0.0, 1.687802889275601E9, 0.0, 2023-06-26 13:08:09.275
47.0, 47270.78792700624, 50195.334875027525, 57654.00024104121, -3092.654418069651, -6247.066706069316, -9125.502005279304, 20231.033293131983, 13572.090991984725, 0.032, 0.996, 0.07200000000000001, 192.0, 0.0, 0.0, 0.0, 0.0, 0.0, 0.0, 0.0, 0.0, 0.0, 1.6878028892785993E9, 0.0, 2023-06-26 13:08:09.278
48.0, 47237.9979178903, 50167.8422293475, 58962.158437032514, -3128.5066161759637, -6278.0238721399155, -9176.218113448396, 20196.209275270616, 13528.683904252519, 0.032, 0.996, 0.07200000000000001, 192.0, 0.0, 0.0, 0.0, 0.0, 0.0, 0.0, 0.0, 0.0, 0.0, 1.6878028892816446E9, 0.0, 2023-06-26 13:08:09.281
49.0, 47259.81322047868, 50176.380595729424, 58765.46308582582, -3103.562069363841, -6288.551543778365, -9154.67103179348, 20179.691336118143, 13530.807319975773, 0.024, 0.992, 0.074, 192.0, 0.0, 192.0, 31.0, 0.0, 2.0, 80.0, 0.0, 0.0, 0.0, 1.6878028892846348E9, 0.0, 2023-06-26 13:08:09.284
50.0, 47304.717875089395, 50221.57582301806, 56807.696140729924, -3019.7653794008947, -6211.348618429735, -9058.17855097992, 20250.188738130182, 13624.304667032322, 0.024, 0.992, 0.074, 192.0, 0.0, 0.0, 0.0, 0.0, 0.0, 0.0, 0.0, 0.0, 0.0, 1.6878028892886553E9, 0.0, 2023-06-26 13:08:09.288
51.0, 47279.16983117698, 50200.96751463026, 57512.75956782813, -3081.567952819819, -6239.109485043226, -9120.875194177055, 20227.457014019135, 13574.683794341541, 0.024, 0.992, 0.074, 192.0, 0.0, 0.0, 0.0, 0.0, 0.0, 0.0, 0.0, 0.0, 0.0, 1.6878028892916737E9, 0.0, 2023-06-26 13:08:09.291
52.0, 47249.553769773695, 50171.50791543817, 58658.53234035162, -3130.071238287835, -6270.938369147583, -9171.233674434861, 20191.537760679457, 13528.840366463706, 0.024, 0.992, 0.074, 192.0, 0.0, 0.0, 0.0, 0.0, 0.0, 0.0, 0.0, 0.0, 0.0, 1.6878028892946804E9, 0.0, 2023-06-26 13:08:09.294
53.0, 47254.8511332096, 50169.317444481545, 59106.3495405137, -3125.109151018757, -6292.306636846857, -9165.153999943019, 20171.197673225128, 13524.101796639181, 0.024, 0.992, 0.074, 192.0, 0.0, 0.0, 0.0, 0.0, 0.0, 0.0, 0.0, 0.0, 0.0, 1.6878028892976975E9, 0.0, 2023-06-26 13:08:09.297
54.0, 47316.92192756199, 50226.448503309315, 56882.28391197728, -3029.4213330055873, -6209.336961428758, -9069.26501622975, 20244.53374678299, 13615.475727972476, 0.024, 0.992, 0.074, 192.0, 0.0, 0.0, 0.0, 0.0, 0.0, 0.0, 0.0, 0.0, 0.0, 1.6878028893017228E9, 0.0, 2023-06-26 13:08:09.301
55.0, 47290.882145271564, 50209.528232756646, 57323.75321671405, -3076.9634934620253, -6226.5478046593435, -9112.269772561762, 20241.315095581424, 13588.564227648287, 0.024, 0.992, 0.074, 192.0, 0.0, 0.0, 0.0, 0.0, 0.0, 0.0, 0.0, 0.0, 0.0, 1.687802889304736E9, 0.0, 2023-06-26 13:08:09.304
56.0, 47269.26800838328, 50190.52924996964, 58331.526318970486, -3122.9633835510476, -6252.699345672053, -9164.192874931441, 20205.19467654165, 13538.58572704622, 0.024, 0.992, 0.074, 192.0, 0.0, 0.0, 0.0, 0.0, 0.0, 0.0, 0.0, 0.0, 0.0, 1.6878028893077424E9, 0.0, 2023-06-26 13:08:09.307
57.0, 47249.62082500706, 50168.53513342561, 59330.6045926338, -3144.5328169504187, -6292.15017463567, -9177.156886715518, 20171.46589415859, 13517.217459346946, 0.024, 0.992, 0.074, 192.0, 0.0, 0.0, 0.0, 0.0, 0.0, 0.0, 0.0, 0.0, 0.0, 1.6878028893117607E9, 0.0, 2023-06-26 13:08:09.311
58.0, 47309.70231410293, 50220.502939284204, 57135.573880144824, -3048.1520948591346, -6224.133816258171, -9080.239722757307, 20228.19462158616, 13601.796460365827, 0.024, 0.992, 0.074, 192.0, 0.0, 0.0, 0.0, 0.0, 0.0, 0.0, 0.0, 0.0, 0.0, 1.6878028893147783E9, 0.0, 2023-06-26 13:08:09.314
59.0, 47286.054168469214, 50212.63512523593, 57155.33282224332, -3070.2803218698887, -6220.512833656411, -9094.947170608899, 20247.05949390644, 13605.395091223132, 0.018000000000000002, 0.992, 0.08, 192.0, 0.0, 144.0, 31.0, 0.0, 2.0, 128.0, 0.0, 0.0, 0.0, 1.687802889317776E9, 0.0, 2023-06-26 13:08:09.317
60.0, 47262.51778155778, 50187.62352319044, 58093.16731609909, -3132.082895288813, -6255.627424195698, -9163.209398175406, 20201.819563128898, 13540.507977069376, 0.018000000000000002, 0.992, 0.08, 192.0, 0.0, 0.0, 0.0, 0.0, 0.0, 0.0, 0.0, 0.0, 0.0, 1.6878028893208246E9, 0.0, 2023-06-26 13:08:09.320
61.0, 47229.05722010818, 50154.27472046312, 59413.350750607344, -3161.967177625558, -6298.788642738896, -9187.617503120602, 20166.70497258961, 13516.233982590913, 0.018000000000000002, 0.992, 0.08, 192.0, 0.0, 0.0, 0.0, 0.0, 0.0, 0.0, 0.0, 0.0, 0.0, 1.6878028893248343E9, 0.0, 2023-06-26 13:08:09.324
62.0, 47300.71691283189, 50208.14242460042, 57485.31162563701, -3067.9333887020816, -6237.8130838648185, -9103.619647457559, 20211.47551673359, 13586.753736347406, 0.018000000000000002, 0.992, 0.08, 192.0, 0.0, 0.0, 0.0, 0.0, 0.0, 0.0, 0.0, 0.0, 0.0, 1.6878028893278484E9, 0.0, 2023-06-26 13:08:09.327
63.0, 47295.777177307275, 50216.725494471255, 56970.19332292001, -3055.505818784931, -6198.876345023674, -9075.791725610701, 20258.078903922906, 13623.500004231932, 0.018000000000000002, 0.992, 0.08, 192.0, 0.0, 0.0, 0.0, 0.0, 0.0, 0.0, 0.0, 0.0, 0.0, 1.6878028893308346E9, 0.0, 2023-06-26 13:08:09.330
64.0, 47269.424470594466, 50191.53507847012, 57879.194066428434, -3129.6018516542736, -6241.501121699944, -9152.90524398151, 20212.637807445266, 13549.515730084864, 0.018000000000000002, 0.992, 0.08, 192.0, 0.0, 0.0, 0.0, 0.0, 0.0, 0.0, 0.0, 0.0, 0.0, 1.6878028893338728E9, 0.0, 2023-06-26 13:08:09.333
65.0, 47240.76953420276, 50163.99772930118, 59325.5530983869, -3158.525008979441, -6279.946122163073, -9183.14715422954, 20181.56888265239, 13524.77234897284, 0.018000000000000002, 0.992, 0.08, 192.0, 0.0, 0.0, 0.0, 0.0, 0.0, 0.0, 0.0, 0.0, 0.0, 1.68780288933789E9, 0.0, 2023-06-26 13:08:09.337
66.0, 47291.731511560865, 50193.591438960015, 57920.65655239303, -3080.7409382749725, -6249.123066559204, -9109.9004876495, 20201.57369393989, 13571.599253606708, 0.018000000000000002, 0.992, 0.08, 192.0, 0.0, 0.0, 0.0, 0.0, 0.0, 0.0, 0.0, 0.0, 0.0, 1.6878028893409083E9, 0.0, 2023-06-26 13:08:09.340
67.0, 47296.85006104113, 50205.77313968816, 56824.19172813794, -3051.7954292053496, -6199.122214212682, -9072.684833131414, 20254.77084574352, 13623.07532108728, 0.018000000000000002, 0.992, 0.08, 192.0, 0.0, 0.0, 0.0, 0.0, 0.0, 0.0, 0.0, 0.0, 0.0, 1.6878028893439372E9, 0.0, 2023-06-26 13:08:09.343
68.0, 47273.29132238523, 50180.42626147583, 57703.06232012062, -3115.8331770698046, -6237.768380375908, -9143.271642121274, 20214.537705723968, 13557.025916221848, 0.018000000000000002, 0.992, 0.08, 192.0, 0.0, 0.0, 0.0, 0.0, 0.0, 0.0, 0.0, 0.0, 0.0, 1.6878028893469262E9, 0.0, 2023-06-26 13:08:09.346
69.0, 47233.92990039944, 50141.645984845876, 59125.348523300716, -3156.7368694230163, -6277.398023295167, -9185.181162974974, 20180.585405896356, 13522.313657082756, 0.014, 0.988, 0.08, 192.0, 0.0, 112.0, 30.0, 224.0, 2.0, 128.0, 0.0, 0.0, 0.0, 1.6878028893509438E9, 0.0, 2023-06-26 13:08:09.350
70.0, 47263.344796102625, 50150.96666228374, 58397.59807558037, -3114.5814793803074, -6276.638063983687, -9144.724505510869, 20172.963461037096, 13538.183395646025, 0.014, 0.988, 0.08, 192.0, 0.0, 0.0, 0.0, 0.0, 0.0, 0.0, 0.0, 0.0, 0.0, 1.687802889354971E9, 0.0, 2023-06-26 13:08:09.354
71.0, 47296.69359882994, 50183.98018884423, 56764.24434950881, -3046.118086113702, -6203.994894503939, -9067.007490039765, 20247.28301135099, 13622.561230964808, 0.014, 0.988, 0.08, 192.0, 0.0, 0.0, 0.0, 0.0, 0.0, 0.0, 0.0, 0.0, 0.0, 1.6878028893589933E9, 0.0, 2023-06-26 13:08:09.358
72.0, 47271.21261015089, 50159.683842621314, 57587.99553966469, -3109.239412455489, -6237.500159442444, -9133.638040261036, 20221.53380173848, 13563.01618373587, 0.014, 0.988, 0.08, 192.0, 0.0, 0.0, 0.0, 0.0, 0.0, 0.0, 0.0, 0.0, 0.0, 1.6878028893620064E9, 0.0, 2023-06-26 13:08:09.362
73.0, 47243.92113017096, 50136.52743536561, 58874.98663365682, -3145.3821832397207, -6264.679880700098, -9175.994596003842, 20193.32590023588, 13531.477872309431, 0.014, 0.988, 0.08, 192.0, 0.0, 0.0, 0.0, 0.0, 0.0, 0.0, 0.0, 0.0, 0.0, 1.6878028893730862E9, 0.0, 2023-06-26 13:08:09.373
74.0, 47265.289397870234, 50143.76940056913, 58823.71173187635, -3121.6669823726397, -6276.459250028044, -9156.034488205254, 20175.533911649458, 13532.662514765563, 0.014, 0.988, 0.08, 192.0, 0.0, 0.0, 0.0, 0.0, 0.0, 0.0, 0.0, 0.0, 0.0, 1.687802889388152E9, 0.0, 2023-06-26 13:08:09.388
75.0, 47314.95497404993, 50190.708063925274, 56777.58834094863, -3036.88681565366, -6198.541068856844, -9069.60029239658, 20247.148900884262, 13619.163765807602, 0.014, 0.988, 0.08, 192.0, 0.0, 0.0, 0.0, 0.0, 0.0, 0.0, 0.0, 0.0, 0.0, 1.6878028893922317E9, 0.0, 2023-06-26 13:08:09.392
76.0, 47290.055130726716, 50170.233866004215, 57423.821976640465, -3087.1558889336457, -6222.99387729095, -9121.210470343885, 20233.134357110783, 13578.818867065773, 0.014, 0.988, 0.08, 192.0, 0.0, 0.0, 0.0, 0.0, 0.0, 0.0, 0.0, 0.0, 0.0, 1.6878028893952157E9, 0.0, 2023-06-26 13:08:09.395
77.0, 47254.672319253965, 50134.82870278701, 58559.53646415907, -3134.295717989888, -6258.309633530335, -9173.513552369304, 20194.197618269638, 13534.048322921792, 0.014, 0.988, 0.08, 192.0, 0.0, 0.0, 0.0, 0.0, 0.0, 0.0, 0.0, 0.0, 0.0, 1.6878028893982432E9, 0.0, 2023-06-26 13:08:09.398
78.0, 47244.54697901571, 50114.10863567694, 59178.679785571076, -3139.168398281145, -6296.933447949105, -9179.459116394415, 20161.11703647578, 13516.837479691207, 0.014, 0.988, 0.08, 192.0, 0.0, 0.0, 0.0, 0.0, 0.0, 0.0, 0.0, 0.0, 0.0, 1.6878028894012268E9, 0.0, 2023-06-26 13:08:09.401
79.0, 47306.662476857004, 50165.31648222405, 56940.42079930554, -3038.339679043255, -6214.679028353576, -9077.17753376693, 20232.933191410684, 13611.608876181708, 0.014, 0.988, 0.08, 192.0, 0.0, 0.0, 0.0, 0.0, 0.0, 0.0, 0.0, 0.0, 0.0, 1.687802889405198E9, 0.0, 2023-06-26 13:08:09.405
80.0, 47282.50024110082, 50149.22322621623, 57312.644399719764, -3082.1267464312014, -6224.714961614009, -9109.676970204946, 20235.86126993433, 13588.83244858175, 0.02, 0.99, 0.076, 192.0, 0.0, 160.0, 30.0, 240.0, 2.0, 96.0, 0.0, 0.0, 0.0, 1.6878028894081984E9, 0.0, 2023-06-26 13:08:09.408
81.0, 47271.83845899564, 50136.192159198785, 58287.29221669343, -3118.649496871173, -6244.51860720141, -9154.849845749122, 20205.57465619739, 13544.196014904503, 0.02, 0.99, 0.076, 192.0, 0.0, 0.0, 0.0, 0.0, 0.0, 0.0, 0.0, 0.0, 0.0, 1.687802889411238E9, 0.0, 2023-06-26 13:08:09.411
82.0, 47243.407040048485, 50103.06687391602, 59365.897997128726, -3142.3199942493434, -6288.126860633714, -9174.42997389197, 20167.107303989807, 13516.457500035465, 0.02, 0.99, 0.076, 192.0, 0.0, 0.0, 0.0, 0.0, 0.0, 0.0, 0.0, 0.0, 0.0, 1.687802889415243E9, 0.0, 2023-06-26 13:08:09.415
83.0, 47304.851985556124, 50150.7878483281, 57211.636866526234, -3056.2881298408665, -6228.782979104874, -9090.65563567348, 20210.693205677653, 13586.597274136218, 0.02, 0.99, 0.076, 192.0, 0.0, 0.0, 0.0, 0.0, 0.0, 0.0, 0.0, 0.0, 0.0, 1.6878028894182673E9, 0.0, 2023-06-26 13:08:09.418
84.0, 47299.956953520414, 50153.33594719601, 57128.48837715249, -3064.8711997117043, -6208.733464328464, -9094.857763631078, 20241.09157813687, 13603.986931322448, 0.02, 0.99, 0.076, 192.0, 0.0, 0.0, 0.0, 0.0, 0.0, 0.0, 0.0, 0.0, 0.0, 1.687802889421252E9, 0.0, 2023-06-26 13:08:09.421
85.0, 47274.92299973047, 50127.050295716566, 58053.60472841319, -3123.1198457622345, -6244.183331034581, -9163.365860386593, 20199.85260961683, 13538.228099134934, 0.02, 0.99, 0.076, 192.0, 0.0, 0.0, 0.0, 0.0, 0.0, 0.0, 0.0, 0.0, 0.0, 1.687802889424292E9, 0.0, 2023-06-26 13:08:09.424
86.0, 47237.64028997902, 50092.092167388466, 59417.44111984267, -3155.842799644804, -6289.512668789944, -9192.378424689583, 20160.89351903123, 13508.075595864726, 0.02, 0.99, 0.076, 192.0, 0.0, 0.0, 0.0, 0.0, 0.0, 0.0, 0.0, 0.0, 0.0, 1.6878028894283285E9, 0.0, 2023-06-26 13:08:09.428
87.0, 47294.50312787332, 50131.788865541086, 57595.25985661267, -3076.4717550840087, -6246.954947347039, -9116.918935408466, 20187.7156123776, 13564.536102358832, 0.02, 0.99, 0.076, 192.0, 0.0, 0.0, 0.0, 0.0, 0.0, 0.0, 0.0, 0.0, 0.0, 1.6878028894312987E9, 0.0, 2023-06-26 13:08:09.431
88.0, 47291.016255738294, 50139.835493545, 56993.61795110917, -3058.433897308576, -6214.679028353576, -9095.304798520185, 20235.10131062285, 13605.59625692323, 0.02, 0.99, 0.076, 192.0, 0.0, 0.0, 0.0, 0.0, 0.0, 0.0, 0.0, 0.0, 0.0, 1.6878028894343212E9, 0.0, 2023-06-26 13:08:09.434
89.0, 47272.576066562666, 50121.842339258474, 57871.97445296937, -3113.776816579916, -6246.463208969022, -9160.214264418395, 20200.746679395044, 13540.172700902547, 0.02, 0.99, 0.076, 192.0, 0.0, 0.0, 0.0, 0.0, 0.0, 0.0, 0.0, 0.0, 0.0, 1.6878028894373503E9, 0.0, 2023-06-26 13:08:09.437
90.0, 47233.43816202142, 50085.16312660732, 59304.27423766545, -3151.8641891317593, -6287.143383877681, -9192.870163067599, 20170.75063833602, 13509.10377610967, 0.022, 0.99, 0.07200000000000001, 192.0, 0.0, 176.0, 30.0, 240.0, 2.0, 64.0, 0.0, 0.0, 0.0, 1.6878028894413557E9, 0.0, 2023-06-26 13:08:09.441
92.0, 47301.70038958793, 50142.584758113, 56830.38316135206, -3045.5816442467744, -6207.280600938869, -9080.731461135323, 20241.203336859147, 13613.575829693775, 0.022, 0.99, 0.07200000000000001, 192.0, 0.0, 0.0, 0.0, 0.0, 0.0, 0.0, 0.0, 0.0, 0.0, 1.6878028894443724E9, 0.0, 2023-06-26 13:08:09.444
93.0, 47281.49441260033, 50126.02211547162, 57690.54534322564, -3103.5173658749304, -6239.355354232234, -9145.082133422153, 20211.14024056676, 13554.656631309586, 0.022, 0.99, 0.07200000000000001, 192.0, 0.0, 0.0, 0.0, 0.0, 0.0, 0.0, 0.0, 0.0, 0.0, 1.6878028894474013E9, 0.0, 2023-06-26 13:08:09.447
94.0, 47246.2010081054, 50092.58390576648, 59076.10763026567, -3142.5882151828073, -6273.665281971131, -9183.8177065632, 20183.602891397823, 13522.425415805033, 0.022, 0.99, 0.07200000000000001, 192.0, 0.0, 0.0, 0.0, 0.0, 0.0, 0.0, 0.0, 0.0, 0.0, 1.6878028894514155E9, 0.0, 2023-06-26 13:08:09.451
95.0, 47271.234961895345, 50103.53626054958, 58507.05456817801, -3111.0499037563686, -6276.571008750321, -9154.738087026846, 20177.65732737271, 13535.05415142228, 0.022, 0.99, 0.07200000000000001, 192.0, 0.0, 0.0, 0.0, 0.0, 0.0, 0.0, 0.0, 0.0, 0.0, 1.6878028894554343E9, 0.0, 2023-06-26 13:08:09.455
96.0, 47302.32623843268, 50138.31557492204, 56791.33466378864, -3036.3950772756434, -6206.23006894947, -9069.8908650745, 20249.33937184088, 13621.533050719865, 0.022, 0.99, 0.07200000000000001, 192.0, 0.0, 0.0, 0.0, 0.0, 0.0, 0.0, 0.0, 0.0, 0.0, 1.687802889459454E9, 0.0, 2023-06-26 13:08:09.459
97.0, 47274.8559444971, 50114.71213277723, 57583.413432051355, -3102.109205974246, -6246.485560713478, -9133.012191416286, 20214.850630146342, 13561.16098894608, 0.022, 0.99, 0.07200000000000001, 192.0, 0.0, 0.0, 0.0, 0.0, 0.0, 0.0, 0.0, 0.0, 0.0, 1.6878028894644737E9, 0.0, 2023-06-26 13:08:09.464
98.0, 47247.58681626163, 50089.94639992075, 58823.84584234308, -3141.2247587710335, -6275.431069783101, -9179.10148848313, 20183.871112331286, 13520.48081403742, 0.022, 0.99, 0.07200000000000001, 192.0, 0.0, 0.0, 0.0, 0.0, 0.0, 0.0, 0.0, 0.0, 0.0, 1.6878028894684975E9, 0.0, 2023-06-26 13:08:09.468
99.0, 47258.44976406691, 50089.34290282046, 58923.914602269484, -3121.465816672542, -6291.256104857458, -9162.62825281957, 20167.979022023563, 13519.76555821485, 0.022, 0.99, 0.07200000000000001, 192.0, 0.0, 0.0, 0.0, 0.0, 0.0, 0.0, 0.0, 0.0, 0.0, 1.687802889471521E9, 0.0, 2023-06-26 13:08:09.471
100.0, 47311.51280540381, 50138.82966504451, 56817.79912922372, -3031.8353214067606, -6211.818005063296, -9071.991929053298, 20240.152804869747, 13610.044254069837, 0.028, 0.986, 0.074, 192.0, 0.0, 224.0, 30.0, 208.0, 2.0, 80.0, 0.0, 0.0, 0.0, 1.6878028894755313E9, 0.0, 2023-06-26 13:08:09.475
101.0, 47289.205764437414, 50124.97158348222, 57407.527554932545, -3080.7185865305173, -6228.447702938045, -9115.42136852996, 20232.150880354748, 13577.723631587462, 0.028, 0.986, 0.074, 192.0, 0.0, 0.0, 0.0, 0.0, 0.0, 0.0, 0.0, 0.0, 0.0, 1.6878028894785447E9, 0.0, 2023-06-26 13:08:09.478
102.0, 47260.66258676798, 50098.88709770288, 58496.057509906, -3127.0537527863685, -6258.28728178588, -9169.825514534177, 20195.605778170324, 13525.286439095313, 0.028, 0.986, 0.074, 192.0, 0.0, 0.0, 0.0, 0.0, 0.0, 0.0, 0.0, 0.0, 0.0, 1.6878028894826033E9, 0.0, 2023-06-26 13:08:09.482
103.0, 47240.76953420276, 50072.512039245616, 59220.32108549131, -3142.3423459937985, -6298.7439392499855, -9181.24725595084, 20160.89351903123, 13505.639255719097, 0.028, 0.986, 0.074, 192.0, 0.0, 0.0, 0.0, 0.0, 0.0, 0.0, 0.0, 0.0, 0.0, 1.6878028894865758E9, 0.0, 2023-06-26 13:08:09.486
104.0, 47307.78006407977, 50128.97254573972, 56972.629663065636, -3043.5923389902523, -6221.451606923533, -9077.624568656036, 20226.96527564112, 13599.896562087128, 0.028, 0.986, 0.074, 192.0, 0.0, 0.0, 0.0, 0.0, 0.0, 0.0, 0.0, 0.0, 0.0, 1.6878028894936125E9, 0.0, 2023-06-26 13:08:09.493
105.0, 47289.02695048177, 50123.40696137035, 57260.27426246098, -3072.783717248883, -6224.357333702724, -9103.932571879932, 20237.38118855729, 13591.626416638663, 0.028, 0.986, 0.074, 192.0, 0.0, 0.0, 0.0, 0.0, 0.0, 0.0, 0.0, 0.0, 0.0, 1.6878028895016725E9, 0.0, 2023-06-26 13:08:09.501
106.0, 47270.27383688377, 50106.53139430659, 58227.993038653505, -3118.5377381488966, -6257.192046307569, -9162.136514441552, 20199.718499150098, 13533.780101988328, 0.028, 0.986, 0.074, 192.0, 0.0, 0.0, 0.0, 0.0, 0.0, 0.0, 0.0, 0.0, 0.0, 1.687802889504675E9, 0.0, 2023-06-26 13:08:09.504
107.0, 47242.512970270276, 50077.16120209232, 59382.6171019813, -3143.303471005377, -6298.140442149693, -9180.442593150448, 20165.6097371113, 13508.969665642939, 0.028, 0.986, 0.074, 192.0, 0.0, 0.0, 0.0, 0.0, 0.0, 0.0, 0.0, 0.0, 0.0, 1.6878028895086942E9, 0.0, 2023-06-26 13:08:09.508
108.0, 47301.40981691001, 50123.809292770544, 57274.557027167924, -3051.3930978051544, -6237.075476297793, -9090.27565601774, 20215.118851079806, 13586.194942736023, 0.028, 0.986, 0.074, 192.0, 0.0, 0.0, 0.0, 0.0, 0.0, 0.0, 0.0, 0.0, 0.0, 1.687802889511695E9, 0.0, 2023-06-26 13:08:09.511
109.0, 47293.162023206, 50129.30782190655, 57098.15705992664, -3054.4105833066205, -6216.690685354553, -9091.28148451823, 20249.428778818703, 13606.177402279069, 0.028, 0.986, 0.074, 192.0, 0.0, 0.0, 0.0, 0.0, 0.0, 0.0, 0.0, 0.0, 0.0, 1.687802889514713E9, 0.0, 2023-06-26 13:08:09.514
110.0, 47281.226191666865, 50114.48861533268, 57999.178230664525, -3102.623296096718, -6244.876235112695, -9149.306613124207, 20215.76705166901, 13550.610965563175, 0.032, 0.988, 0.068, 192.0, 1.0, 0.0, 30.0, 224.0, 2.0, 32.0, 0.0, 0.0, 0.0, 1.6878028895177395E9, 0.0, 2023-06-26 13:08:09.517
111.0, 47242.222397592355, 50075.90950440282, 59377.297386800936, -3137.201444769078, -6288.439785056089, -9169.110258711607, 20181.6135861413, 13523.67711349453, 0.032, 0.988, 0.068, 192.0, 0.0, 0.0, 0.0, 0.0, 0.0, 0.0, 0.0, 0.0, 0.0, 1.6878028895217533E9, 0.0, 2023-06-26 13:08:09.521
112.0, 47296.58184010766, 50116.43321710029, 57656.615395142486, -3062.3901560771656, -6249.257177025936, -9098.031711343732, 20202.735984651565, 13573.49915188541, 0.032, 0.988, 0.068, 192.0, 0.0, 0.0, 0.0, 0.0, 0.0, 0.0, 0.0, 0.0, 0.0, 1.6878028895247712E9, 0.0, 2023-06-26 13:08:09.524
113.0, 47305.12020648959, 50135.32044116503, 56907.116700067134, -3032.7070394405177, -6199.725711312975, -9058.98321378031, 20258.615345789833, 13629.043236856847, 0.032, 0.988, 0.068, 192.0, 0.0, 0.0, 0.0, 0.0, 0.0, 0.0, 0.0, 0.0, 0.0, 1.6878028895278287E9, 0.0, 2023-06-26 13:08:09.527
114.0, 47281.27089515578, 50112.38755135388, 57810.86478362856, -3098.4211681391203, -6239.37770597669, -9140.678839764458, 20213.867153390307, 13553.315526642267, 0.032, 0.988, 0.068, 192.0, 0.0, 0.0, 0.0, 0.0, 0.0, 0.0, 0.0, 0.0, 0.0, 1.6878028895318005E9, 0.0, 2023-06-26 13:08:09.531
115.0, 47239.60724349109, 50073.964902635205, 59251.99350738448, -3139.3695639812427, -6281.6001512527655, -9173.535904113758, 20176.98677503905, 13516.457500035465, 0.032, 0.988, 0.068, 192.0, 0.0, 0.0, 0.0, 0.0, 0.0, 0.0, 0.0, 0.0, 0.0, 1.6878028895348096E9, 0.0, 2023-06-26 13:08:09.534
116.0, 47285.294209157735, 50102.351618093446, 58131.25468865093, -3080.137441174679, -6265.842171411774, -9117.18715634193, 20184.049926286927, 13549.694544040507, 0.032, 0.988, 0.068, 192.0, 0.0, 0.0, 0.0, 0.0, 0.0, 0.0, 0.0, 0.0, 0.0, 1.687802889537817E9, 0.0, 2023-06-26 13:08:09.537
117.0, 47306.99775302384, 50130.42540912931, 56826.73982700585, -3029.0637050943023, -6204.7101503265085, -9058.290309702195, 20249.205261374147, 13621.845975142238, 0.032, 0.988, 0.068, 192.0, 0.0, 0.0, 0.0, 0.0, 0.0, 0.0, 0.0, 0.0, 0.0, 1.687802889543858E9, 0.0, 2023-06-26 13:08:09.543
118.0, 47286.054168469214, 50111.91816472032, 57695.52978223918, -3092.006217480447, -6242.216377522514, -9127.491310535826, 20211.14024056676, 13555.416590621066, 0.032, 0.988, 0.068, 192.0, 0.0, 0.0, 0.0, 0.0, 0.0, 0.0, 0.0, 0.0, 0.0, 1.687802889547894E9, 0.0, 2023-06-26 13:08:09.547
119.0, 47260.461421067885, 50090.460490043224, 59004.71615847542, -3119.4988631604747, -6265.417488267123, -9155.945081227432, 20193.169438024695, 13530.807319975773, 0.032, 0.988, 0.068, 192.0, 0.0, 0.0, 0.0, 0.0, 0.0, 0.0, 0.0, 0.0, 0.0, 1.687802889551897E9, 0.0, 2023-06-26 13:08:09.551
120.0, 47287.819956281186, 50102.66454251582, 58560.29642347055, -3088.049958711858, -6270.200761580559, -9126.306668079695, 20184.720478620588, 13540.932660214026, 0.032, 0.988, 0.068, 192.0, 0.0, 0.0, 0.0, 0.0, 0.0, 0.0, 0.0, 0.0, 0.0, 1.6878028895569408E9, 0.0, 2023-06-26 13:08:09.556
121.0, 47320.96759330841, 50136.37097315443, 56749.961584801866, -3020.7041526680177, -6198.451661879023, -9055.116361989541, 20252.602726531357, 13620.616629197197, 0.03, 0.984, 0.064, 192.0, 0.0, 240.0, 30.0, 192.0, 2.0, 0.0, 0.0, 0.0, 0.0, 1.6878028895599606E9, 0.0, 2023-06-26 13:08:09.559
122.0, 47286.30003765822, 50108.56540305202, 57567.56604523255, -3085.881839499693, -6239.176540276592, -9120.405807543493, 20225.378301784793, 13563.530273858343, 0.03, 0.984, 0.064, 192.0, 0.0, 0.0, 0.0, 0.0, 0.0, 0.0, 0.0, 0.0, 0.0, 1.6878028895649793E9, 0.0, 2023-06-26 13:08:09.564
123.0, 47253.487676797835, 50077.65294047033, 58752.81199846411, -3128.774837109427, -6269.753726691452, -9169.62434883408, 20192.454182202124, 13523.610058261163, 0.03, 0.984, 0.064, 192.0, 0.0, 0.0, 0.0, 0.0, 0.0, 0.0, 0.0, 0.0, 0.0, 1.6878028895689745E9, 0.0, 2023-06-26 13:08:09.568
124.0, 47259.61205477858, 50074.07666135748, 58986.7230041889, -3119.4094561826537, -6289.110337389749, -9159.76722952929, 20166.548510378423, 13518.446805291987, 0.03, 0.984, 0.064, 192.0, 0.0, 0.0, 0.0, 0.0, 0.0, 0.0, 0.0, 0.0, 0.0, 1.6878028895730252E9, 0.0, 2023-06-26 13:08:09.573
125.0, 47314.932622305474, 50126.55855733855, 56839.70383878992, -3026.7391236709504, -6206.833566049763, -9060.972519036832, 20240.28691533648, 13612.681759915562, 0.03, 0.984, 0.064, 192.0, 0.0, 0.0, 0.0, 0.0, 0.0, 0.0, 0.0, 0.0, 0.0, 1.6878028895760427E9, 0.0, 2023-06-26 13:08:09.576
126.0, 47284.802470779716, 50104.36327509442, 57431.93565987774, -3078.885743485182, -6228.425351193589, -9106.726539936846, 20230.094519864862, 13579.77999207735, 0.03, 0.984, 0.064, 192.0, 0.0, 0.0, 0.0, 0.0, 0.0, 0.0, 0.0, 0.0, 0.0, 1.6878028895800283E9, 0.0, 2023-06-26 13:08:09.580
127.0, 47254.82878146515, 50074.68015845778, 58444.983773825625, -3131.054715043869, -6258.577854463799, -9167.456229621916, 20195.359908981314, 13529.10858739717, 0.03, 0.984, 0.064, 192.0, 0.0, 0.0, 0.0, 0.0, 0.0, 0.0, 0.0, 0.0, 0.0, 1.687802889583054E9, 0.0, 2023-06-26 13:08:09.583
128.0, 47250.06785989617, 50063.79485890804, 59230.62523968521, -3128.5066161759637, -6287.344549577779, -9167.389174388549, 20178.774914595477, 13520.637276248608, 0.03, 0.984, 0.064, 192.0, 0.0, 0.0, 0.0, 0.0, 0.0, 0.0, 0.0, 0.0, 0.0, 1.6878028895860784E9, 0.0, 2023-06-26 13:08:09.586
129.0, 47319.067695029706, 50123.38460962589, 56997.48480289994, -3024.50394922542, -6211.616839363199, -9072.774240109235, 20243.371456071312, 13609.373701736176, 0.03, 0.984, 0.064, 192.0, 0.0, 0.0, 0.0, 0.0, 0.0, 0.0, 0.0, 0.0, 0.0, 1.687802889590097E9, 0.0, 2023-06-26 13:08:09.590
130.0, 47286.970589991884, 50104.25151637215, 57261.77182933949, -3064.334757844777, -6223.485615668967, -9097.741138665813, 20247.350066584357, 13597.482573685953, 0.03, 0.984, 0.064, 192.0, 0.0, 0.0, 0.0, 0.0, 0.0, 0.0, 0.0, 0.0, 0.0, 1.6878028895941052E9, 0.0, 2023-06-26 13:08:09.594
131.0, 47266.92107521547, 50082.12328936139, 58179.3332909743, -3116.168453236634, -6255.560368962332, -9158.850808006622, 20204.390013741257, 13536.708180511974, 0.036000000000000004, 0.99, 0.066, 192.0, 1.0, 32.0, 30.0, 240.0, 2.0, 16.0, 0.0, 0.0, 0.0, 1.6878028895982018E9, 0.0, 2023-06-26 13:08:09.598
132.0, 47233.125237599044, 50046.360498232905, 59357.49374121353, -3141.2918140043994, -6294.161831636648, -9179.995558261342, 20170.728286591566, 13516.636313991108, 0.036000000000000004, 0.99, 0.066, 192.0, 0.0, 0.0, 0.0, 0.0, 0.0, 0.0, 0.0, 0.0, 0.0, 1.6878028896192331E9, 0.0, 2023-06-26 13:08:09.619
133.0, 47289.473985370874, 50089.76758596511, 57344.9873739466, -3054.8352664512718, -6243.222206023002, -9093.60606594158, 20210.067356832908, 13586.68668111404, 0.036000000000000004, 0.99, 0.066, 192.0, 0.0, 0.0, 0.0, 0.0, 0.0, 0.0, 0.0, 0.0, 0.0, 1.6878028896222415E9, 0.0, 2023-06-26 13:08:09.622
134.0, 47296.67124708548, 50106.73256000669, 57095.56425756982, -3045.335775057766, -6208.4652433950005, -9075.769373866246, 20254.346162598868, 13620.102539074725, 0.036000000000000004, 0.99, 0.066, 192.0, 0.0, 0.0, 0.0, 0.0, 0.0, 0.0, 0.0, 0.0, 0.0, 1.6878028896262605E9, 0.0, 2023-06-26 13:08:09.626
135.0, 47272.68782528494, 50083.24087658416, 57977.51939028733, -3107.339514176788, -6246.776133391397, -9145.417409588983, 20210.648502188746, 13555.863625510172, 0.036000000000000004, 0.99, 0.066, 192.0, 0.0, 0.0, 0.0, 0.0, 0.0, 0.0, 0.0, 0.0, 0.0, 1.687802889629267E9, 0.0, 2023-06-26 13:08:09.629
136.0, 47235.47217076685, 50049.31092850101, 59340.64052589423, -3139.213101770056, -6289.490317045488, -9174.42997389197, 20173.23168197056, 13524.951162928483, 0.036000000000000004, 0.99, 0.066, 192.0, 0.0, 0.0, 0.0, 0.0, 0.0, 0.0, 0.0, 0.0, 0.0, 1.68780288963228E9, 0.0, 2023-06-26 13:08:09.632
137.0, 47300.02400875378, 50097.21071686873, 57729.05739892214, -3058.076269397291, -6245.9714705910055, -9098.590504955115, 20202.311301506914, 13579.623529866163, 0.036000000000000004, 0.99, 0.066, 192.0, 0.0, 0.0, 0.0, 0.0, 0.0, 0.0, 0.0, 0.0, 0.0, 1.68780288963632E9, 0.0, 2023-06-26 13:08:09.636
138.0, 47297.47590988588, 50103.335094849484, 56930.56368000075, -3037.3562022872215, -6209.113443984204, -9069.08620227411, 20251.663953264233, 13623.924687376582, 0.036000000000000004, 0.99, 0.066, 192.0, 0.0, 0.0, 0.0, 0.0, 0.0, 0.0, 0.0, 0.0, 0.0, 1.6878028896393275E9, 0.0, 2023-06-26 13:08:09.639
139.0, 47272.285493884745, 50079.99987363814, 57818.86670814356, -3106.646610098673, -6251.358241004735, -9143.405752588005, 20204.054737574428, 13545.738285271918, 0.036000000000000004, 0.99, 0.066, 192.0, 0.0, 0.0, 0.0, 0.0, 0.0, 0.0, 0.0, 0.0, 0.0, 1.6878028896423483E9, 0.0, 2023-06-26 13:08:09.642
140.0, 47230.890063153514, 50041.95720457521, 59185.63117809668, -3149.1149245637566, -6288.551543778365, -9185.605846119624, 20173.142274992737, 13507.561505742253, 0.036000000000000004, 0.99, 0.066, 192.0, 0.0, 0.0, 0.0, 0.0, 0.0, 0.0, 0.0, 0.0, 0.0, 1.6878028896453516E9, 0.0, 2023-06-26 13:08:09.645
141.0, 47268.865676983085, 50063.52663797458, 58205.954218620565, -3096.4542146270533, -6275.341662805279, -9132.587508271636, 20179.534873906956, 13543.525462570842, 0.036000000000000004, 0.992, 0.066, 192.0, 1.0, 32.0, 31.0, 0.0, 2.0, 16.0, 0.0, 0.0, 0.0, 1.6878028896493828E9, 0.0, 2023-06-26 13:08:09.649
142.0, 47299.84519479814, 50103.24568787166, 56813.2617250993, -3038.205568576523, -6205.55951661581, -9065.755792350268, 20252.02158117552, 13621.801271653329, 0.036000000000000004, 0.992, 0.066, 192.0, 0.0, 0.0, 0.0, 0.0, 0.0, 0.0, 0.0, 0.0, 0.0, 1.687802889653384E9, 0.0, 2023-06-26 13:08:09.653
143.0, 47274.83359275265, 50082.79384169506, 57667.18777026985, -3098.532926861397, -6243.892758356662, -9140.81295023119, 20218.04692960345, 13556.35536388819, 0.036000000000000004, 0.992, 0.066, 192.0, 0.0, 0.0, 0.0, 0.0, 0.0, 0.0, 0.0, 0.0, 0.0, 1.687802889657405E9, 0.0, 2023-06-26 13:08:09.657
144.0, 47241.39538304751, 50053.58011169197, 58927.04384649323, -3131.6135086552513, -6272.927674404106, -9170.183142445463, 20190.822504856886, 13525.554660028776, 0.036000000000000004, 0.992, 0.066, 192.0, 0.0, 0.0, 0.0, 0.0, 0.0, 0.0, 0.0, 0.0, 0.0, 1.6878028896604135E9, 0.0, 2023-06-26 13:08:09.660
145.0, 47270.966740961885, 50067.97463512119, 58618.52271777663, -3101.684522829595, -6281.086061130293, -9143.249290376818, 20181.345365207835, 13538.317506112757, 0.036000000000000004, 0.992, 0.066, 192.0, 0.0, 0.0, 0.0, 0.0, 0.0, 0.0, 0.0, 0.0, 0.0, 1.6878028896634493E9, 0.0, 2023-06-26 13:08:09.663
146.0, 47310.104645503125, 50106.73256000669, 56753.29199472571, -3029.153112072124, -6208.018208505894, -9064.54879814968, 20252.289802108982, 13623.902335632127, 0.036000000000000004, 0.992, 0.066, 192.0, 0.0, 0.0, 0.0, 0.0, 0.0, 0.0, 0.0, 0.0, 0.0, 1.6878028896674743E9, 0.0, 2023-06-26 13:08:09.667
147.0, 47276.3088078867, 50079.30696956003, 57560.2346730512, -3093.0791012143018, -6246.32909850229, -9127.915993680477, 20227.56877274141, 13566.3018901708, 0.036000000000000004, 0.992, 0.066, 192.0, 0.0, 0.0, 0.0, 0.0, 0.0, 0.0, 0.0, 0.0, 0.0, 1.68780288967047E9, 0.0, 2023-06-26 13:08:09.670
148.0, 47254.35939483159, 50061.33616701796, 58653.458494360275, -3130.115941776746, -6271.273645314413, -9171.725412812879, 20198.80207762743, 13527.186337374013, 0.036000000000000004, 0.992, 0.066, 192.0, 0.0, 0.0, 0.0, 0.0, 0.0, 0.0, 0.0, 0.0, 0.0, 1.6878028896735122E9, 0.0, 2023-06-26 13:08:09.673
149.0, 47254.49350529832, 50052.440172724746, 59002.793908452266, -3126.3161452193435, -6298.274552616424, -9169.601997089625, 20170.393010424737, 13515.63048549062, 0.036000000000000004, 0.992, 0.066, 192.0, 0.0, 0.0, 0.0, 0.0, 0.0, 0.0, 0.0, 0.0, 0.0, 1.687802889677519E9, 0.0, 2023-06-26 13:08:09.677
150.0, 47307.444787912944, 50102.50808030464, 56851.99729824034, -3033.2211295629895, -6219.328191200279, -9073.377737209528, 20239.638714747278, 13608.367873235688, 0.036000000000000004, 0.992, 0.066, 192.0, 0.0, 0.0, 0.0, 0.0, 0.0, 0.0, 0.0, 0.0, 0.0, 1.6878028896805236E9, 0.0, 2023-06-26 13:08:09.680
151.0, 47275.571200319675, 50080.80453643853, 57422.480871973145, -3081.4785458419974, -6239.176540276592, -9115.019037129765, 20233.268467577516, 13577.231893209446, 0.036000000000000004, 0.988, 0.07200000000000001, 192.0, 1.0, 32.0, 30.0, 224.0, 2.0, 64.0, 0.0, 0.0, 0.0, 1.6878028896835403E9, 0.0, 2023-06-26 13:08:09.683
152.0, 47256.68397625494, 50062.632568196364, 58378.59909279336, -3121.0187817834358, -6266.065688856326, -9162.203569674917, 20198.15387703823, 13531.544927542798, 0.036000000000000004, 0.988, 0.07200000000000001, 192.0, 0.0, 0.0, 0.0, 0.0, 0.0, 0.0, 0.0, 0.0, 0.0, 1.6878028896865604E9, 0.0, 2023-06-26 13:08:09.686
153.0, 47240.5013132693, 50041.37605921937, 59249.64657421668, -3131.2782324884215, -6298.8556979722625, -9168.931444755966, 20170.728286591566, 13518.20093610298, 0.036000000000000004, 0.988, 0.07200000000000001, 192.0, 0.0, 0.0, 0.0, 0.0, 0.0, 0.0, 0.0, 0.0, 0.0, 1.6878028896905763E9, 0.0, 2023-06-26 13:08:09.690
154.0, 47308.33885769115, 50099.51294654763, 57056.11342860621, -3032.304708040322, -6226.190176748059, -9070.583769152614, 20233.782557699986, 13601.438832454543, 0.036000000000000004, 0.988, 0.07200000000000001, 192.0, 0.0, 0.0, 0.0, 0.0, 0.0, 0.0, 0.0, 0.0, 0.0, 1.6878028896935716E9, 0.0, 2023-06-26 13:08:09.693
155.0, 47295.53130811826, 50097.27777210209, 57236.313192404894, -3054.276472839889, -6219.819929578296, -9082.005510569275, 20255.843729477376, 13608.16670753559, 0.036000000000000004, 0.988, 0.07200000000000001, 192.0, 0.0, 0.0, 0.0, 0.0, 0.0, 0.0, 0.0, 0.0, 0.0, 1.6878028896973195E9, 0.0, 2023-06-26 13:08:09.697
156.0, 47267.56927580467, 50066.74528917614, 58122.626915291185, -3118.6047933822624, -6261.57298822081, -9161.95770048591, 20206.781650397978, 13536.998753189893, 0.036000000000000004, 0.988, 0.07200000000000001, 192.0, 0.0, 0.0, 0.0, 0.0, 0.0, 0.0, 0.0, 0.0, 0.0, 1.6878028896997776E9, 0.0, 2023-06-26 13:08:09.699
157.0, 47230.84535966461, 50028.881434068855, 59359.48304647006, -3145.426886728631, -6306.29882887588, -9184.018872263297, 20168.403705168213, 13509.975494143426, 0.036000000000000004, 0.988, 0.07200000000000001, 192.0, 0.0, 0.0, 0.0, 0.0, 0.0, 0.0, 0.0, 0.0, 0.0, 1.6878028897036355E9, 0.0, 2023-06-26 13:08:09.703
158.0, 47296.760654063306, 50081.072757372, 57419.061055071485, -3057.428068808087, -6247.133761302682, -9092.555533952182, 20210.022653343996, 13583.602140379207, 0.036000000000000004, 0.988, 0.07200000000000001, 192.0, 0.0, 0.0, 0.0, 0.0, 0.0, 0.0, 0.0, 0.0, 0.0, 1.68780288972273E9, 0.0, 2023-06-26 13:08:09.722
159.0, 47292.02208423878, 50088.76175746462, 57094.15609766914, -3052.0860018832686, -6218.7917493333525, -9080.306777990672, 20251.373380586312, 13615.699245417029, 0.036000000000000004, 0.988, 0.07200000000000001, 192.0, 0.0, 0.0, 0.0, 0.0, 0.0, 0.0, 0.0, 0.0, 0.0, 1.6878028897267704E9, 0.0, 2023-06-26 13:08:09.726
160.0, 47275.12416543057, 50071.55091423404, 57957.24635806637, -3105.819595553827, -6248.51956945891, -9146.356182856105, 20217.957522625627, 13549.471026595955, 0.036000000000000004, 0.988, 0.07200000000000001, 192.0, 0.0, 0.0, 0.0, 0.0, 0.0, 0.0, 0.0, 0.0, 0.0, 1.6878028897307582E9, 0.0, 2023-06-26 13:08:09.730
161.0, 47238.35554580159, 50040.92902433027, 59287.532781068425, -3137.827293613827, -6284.90820943215, -9178.274473938283, 20189.548455422933, 13523.431244305522, 0.036000000000000004, 0.988, 0.07200000000000001, 192.0, 0.0, 0.0, 0.0, 0.0, 0.0, 0.0, 0.0, 0.0, 0.0, 1.687802889733776E9, 0.0, 2023-06-26 13:08:09.733
162.0, 47287.75290104782, 50076.60240848093, 57821.794786667204, -3065.921731701104, -6254.174560806104, -9110.213412071875, 20208.05569983193, 13572.78389606284, 0.028, 0.984, 0.076, 192.0, 0.0, 224.0, 30.0, 192.0, 2.0, 96.0, 0.0, 0.0, 0.0, 1.6878028897709577E9, 0.0, 2023-06-26 13:08:09.770
163.0, 47293.02791273927, 50089.141737120364, 56915.8338804047, -3038.0714581097914, -6209.4040166621235, -9065.331109205617, 20264.225633648115, 13626.830414155773, 0.028, 0.984, 0.076, 192.0, 0.0, 0.0, 0.0, 0.0, 0.0, 0.0, 0.0, 0.0, 0.0, 1.6878028897780123E9, 0.0, 2023-06-26 13:08:09.778
164.0, 47265.088232170136, 50061.15735306232, 57810.909487117475, -3109.4852816444973, -6255.225092795503, -9151.452380591916, 20217.331673780882, 13545.782988760828, 0.028, 0.984, 0.076, 192.0, 0.0, 0.0, 0.0, 0.0, 0.0, 0.0, 0.0, 0.0, 0.0, 1.6878028897810395E9, 0.0, 2023-06-26 13:08:09.781
165.0, 47235.06983936666, 50035.743419616636, 59131.87523268166, -3138.0508110583796, -6281.041357641382, -9182.588360618158, 20193.258845002514, 13518.71502622545, 0.028, 0.984, 0.076, 192.0, 0.0, 0.0, 0.0, 0.0, 0.0, 0.0, 0.0, 0.0, 0.0, 1.68780288978402E9, 0.0, 2023-06-26 13:08:09.784
166.0, 47276.5099735868, 50060.844428639946, 58291.807269073404, -3084.9430662325703, -6270.044299369371, -9127.290144835728, 20197.550379937933, 13550.25333765189, 0.028, 0.984, 0.076, 192.0, 0.0, 0.0, 0.0, 0.0, 0.0, 0.0, 0.0, 0.0, 0.0, 1.6878028898042016E9, 0.0, 2023-06-26 13:08:09.804
167.0, 47306.8636425571, 50095.713149990224, 56820.570745536184, -3023.8110451473053, -6197.55759210081, -9056.770391079235, 20268.763037772544, 13631.345466535744, 0.028, 0.984, 0.076, 192.0, 0.0, 0.0, 0.0, 0.0, 0.0, 0.0, 0.0, 0.0, 0.0, 1.6878028898081985E9, 0.0, 2023-06-26 13:08:09.808
168.0, 47285.3612643911, 50078.39054803736, 57679.72709890927, -3086.1277086887017, -6234.259156496425, -9121.970429655365, 20233.827261188897, 13568.201788449502, 0.028, 0.984, 0.076, 192.0, 0.0, 0.0, 0.0, 0.0, 0.0, 0.0, 0.0, 0.0, 0.0, 1.6878028898121982E9, 0.0, 2023-06-26 13:08:09.812
169.0, 47247.810333706184, 50045.0640970545, 58875.79129645721, -3127.9478225645807, -6269.016119124427, -9168.596168589136, 20197.840952615854, 13528.259221107868, 0.028, 0.984, 0.076, 192.0, 0.0, 0.0, 0.0, 0.0, 0.0, 0.0, 0.0, 0.0, 0.0, 1.6878028898172052E9, 0.0, 2023-06-26 13:08:09.817
170.0, 47263.054223424704, 50047.07575405548, 58727.44276850734, -3107.9877147659918, -6283.678863487108, -9147.205549145407, 20180.160722751705, 13531.142596142603, 0.028, 0.984, 0.076, 192.0, 0.0, 0.0, 0.0, 0.0, 0.0, 0.0, 0.0, 0.0, 0.0, 1.6878028898212867E9, 0.0, 2023-06-26 13:08:09.821
171.0, 47300.20282270942, 50084.246705084646, 56807.070291885175, -3037.535016242864, -6216.310705698813, -9071.880170331022, 20245.405464816748, 13610.26777151439, 0.028, 0.984, 0.076, 192.0, 0.0, 0.0, 0.0, 0.0, 0.0, 0.0, 0.0, 0.0, 0.0, 1.6878028898252263E9, 0.0, 2023-06-26 13:08:09.825
172.0, 47278.11929918758, 50070.902713644835, 57567.02960336562, -3082.216153409023, -6238.058953053827, -9122.685685477934, 20229.468671020113, 13568.87234078316, 0.02, 0.986, 0.076, 192.0, 0.0, 160.0, 30.0, 208.0, 2.0, 96.0, 0.0, 0.0, 0.0, 1.687802889829262E9, 0.0, 2023-06-26 13:08:09.829
173.0, 47255.365223332075, 50049.66855641229, 58584.235141782185, -3117.375447437221, -6258.868427141718, -9161.376555130071, 20202.177191040184, 13530.941430442504, 0.02, 0.986, 0.076, 192.0, 0.0, 0.0, 0.0, 0.0, 0.0, 0.0, 0.0, 0.0, 0.0, 1.687802889833296E9, 0.0, 2023-06-26 13:08:09.833
174.0, 47252.16892387497, 50038.582091162454, 59065.06586850475, -3118.113055004246, -6289.087985645293, -9159.610767318103, 20179.400763440226, 13521.19606985999, 0.02, 0.986, 0.076, 192.0, 0.0, 0.0, 0.0, 0.0, 0.0, 0.0, 0.0, 0.0, 0.0, 1.6878028898362958E9, 0.0, 2023-06-26 13:08:09.836
175.0, 47301.70038958793, 50080.78218469408, 56903.24984827636, -3030.3601062727103, -6220.646944123143, -9069.421478440938, 20241.71742698162, 13607.451451713021, 0.02, 0.986, 0.076, 192.0, 0.0, 0.0, 0.0, 0.0, 0.0, 0.0, 0.0, 0.0, 0.0, 1.687802889839301E9, 0.0, 2023-06-26 13:08:09.839
176.0, 47278.6110375656, 50068.801649666035, 57423.77727315155, -3070.660301525629, -6229.90056632764, -9104.75958642478, 20245.852499705852, 13587.536047403342, 0.02, 0.986, 0.076, 192.0, 0.0, 0.0, 0.0, 0.0, 0.0, 0.0, 0.0, 0.0, 0.0, 1.6878028898423193E9, 0.0, 2023-06-26 13:08:09.842
177.0, 47253.24180760882, 50045.600538921426, 58353.78865644797, -3118.850662571271, -6260.701270187053, -9161.62242431908, 20205.842877130854, 13532.796625232295, 0.02, 0.986, 0.076, 192.0, 0.0, 0.0, 0.0, 0.0, 0.0, 0.0, 0.0, 0.0, 0.0, 1.6878028898463373E9, 0.0, 2023-06-26 13:08:09.846
178.0, 47236.63446147853, 50026.780370090055, 59319.629886106246, -3133.602813911774, -6294.385349081201, -9174.407622147515, 20178.104362261816, 13517.731549469418, 0.02, 0.986, 0.076, 192.0, 0.0, 0.0, 0.0, 0.0, 0.0, 0.0, 0.0, 0.0, 0.0, 1.6878028898493435E9, 0.0, 2023-06-26 13:08:09.849
179.0, 47306.30484894572, 50086.99596965265, 57160.09374381229, -3038.116161598702, -6224.9608308030165, -9087.928722849932, 20234.29664782246, 13596.968483563482, 0.02, 0.986, 0.076, 192.0, 0.0, 0.0, 0.0, 0.0, 0.0, 0.0, 0.0, 0.0, 0.0, 1.6878028898523743E9, 0.0, 2023-06-26 13:08:09.852
180.0, 47284.64600856853, 50076.490649758656, 57263.17998924017, -3061.630196765685, -6218.858804566718, -9094.209563041873, 20252.289802108982, 13602.444660955032, 0.02, 0.986, 0.076, 192.0, 0.0, 0.0, 0.0, 0.0, 0.0, 0.0, 0.0, 0.0, 0.0, 1.6878028898754816E9, 0.0, 2023-06-26 13:08:09.875
181.0, 47262.4060228355, 50052.70839365821, 58128.48307233847, -3113.5085956464527, -6254.353374761746, -9154.447514348927, 20211.184944055673, 13538.451616579488, 0.02, 0.986, 0.076, 192.0, 0.0, 0.0, 0.0, 0.0, 0.0, 0.0, 0.0, 0.0, 0.0, 1.6878028898794987E9, 0.0, 2023-06-26 13:08:09.879
183.0, 47299.50991863131, 50074.85897241342, 57507.43985264777, -3052.2871675833667, -6242.9763368339945, -9100.42334800045, 20217.577542969888, 13577.634224609641, 0.02, 0.986, 0.076, 192.0, 0.0, 0.0, 0.0, 0.0, 0.0, 0.0, 0.0, 0.0, 0.0, 1.6878028899006135E9, 0.0, 2023-06-26 13:08:09.900
184.0, 47296.045398240734, 50082.68208297278, 57054.705268705526, -3043.212359334512, -6207.437063150056, -9081.983158824822, 20268.3830581168, 13615.296914016833, 0.02, 0.986, 0.076, 192.0, 0.0, 0.0, 0.0, 0.0, 0.0, 0.0, 0.0, 0.0, 0.0, 1.6878028899046302E9, 0.0, 2023-06-26 13:08:09.904
185.0, 47273.67130204097, 50060.24093153965, 57934.31346825522, -3108.300639188366, -6247.513740958422, -9154.983956215854, 20224.260714562024, 13544.01720094886, 0.02, 0.986, 0.076, 192.0, 0.0, 0.0, 0.0, 0.0, 0.0, 0.0, 0.0, 0.0, 0.0, 1.6878028899096432E9, 0.0, 2023-06-26 13:08:09.909
186.0, 47236.45564752289, 50026.44509392323, 59295.2441329055, -3145.784514639916, -6286.964569922039, -9189.62916012158, 20189.391993211746, 13513.015331389348, 0.02, 0.986, 0.076, 192.0, 0.0, 0.0, 0.0, 0.0, 0.0, 0.0, 0.0, 0.0, 0.0, 1.6878028899136696E9, 0.0, 2023-06-26 13:08:09.913
187.0, 47289.339874904144, 50065.29242578655, 57955.614680721126, -3071.8896474706708, -6257.460267241034, -9122.32805756665, 20204.837048630365, 13556.511826099377, 0.02, 0.986, 0.076, 192.0, 0.0, 0.0, 0.0, 0.0, 0.0, 0.0, 0.0, 0.0, 0.0, 1.6878028899176788E9, 0.0, 2023-06-26 13:08:09.917
188.0, 47297.07357848568, 50086.347769063446, 56911.54234546928, -3034.338716785755, -6205.961848016006, -9073.154219764974, 20266.19258716018, 13620.661332686108, 0.02, 0.986, 0.076, 192.0, 0.0, 0.0, 0.0, 0.0, 0.0, 0.0, 0.0, 0.0, 0.0, 1.6878028899217076E9, 0.0, 2023-06-26 13:08:09.921
189.0, 47274.05128169672, 50066.94645487624, 57804.6957021589, -3096.7000838160616, -6248.9666043480165, -9144.009249688299, 20225.154784340237, 13550.454503351988, 0.02, 0.986, 0.076, 192.0, 0.0, 0.0, 0.0, 0.0, 0.0, 0.0, 0.0, 0.0, 0.0, 1.687802889989007E9, 0.0, 2023-06-26 13:08:09.989
190.0, 47248.41383080648, 50043.72299238718, 59088.915179838565, -3121.622278883729, -6273.9111511601395, -9171.792468046246, 20202.62422592929, 13524.615886761652, 0.02, 0.986, 0.076, 192.0, 0.0, 0.0, 0.0, 0.0, 0.0, 0.0, 0.0, 0.0, 0.0, 1.68780288999304E9, 0.0, 2023-06-26 13:08:09.993
191.0, 47275.97353171987, 50056.4634867267, 58404.54946810597, -3084.2501621544557, -6275.453421527555, -9132.162825126985, 20197.349214237835, 13549.649840551596, 0.02, 0.986, 0.076, 192.0, 0.0, 0.0, 0.0, 0.0, 0.0, 0.0, 0.0, 0.0, 0.0, 1.6878028899970455E9, 0.0, 2023-06-26 13:08:09.997
192.0, 47306.349552434636, 50093.58973426697, 56801.99644589382, -3016.792597388339, -6203.972542759484, -9058.804399824667, 20268.651279050264, 13634.877042159682, 0.018000000000000002, 0.99, 0.082, 192.0, 0.0, 144.0, 30.0, 240.0, 2.0, 144.0, 0.0, 0.0, 0.0, 1.6878028900010767E9, 0.0, 2023-06-26 13:08:10.001
193.0, 47286.09887195812, 50077.38471953687, 57658.24707248773, -3074.348339360755, -6234.482673940978, -9119.04235113172, 20241.315095581424, 13580.227026966457, 0.018000000000000002, 0.99, 0.082, 192.0, 0.0, 0.0, 0.0, 0.0, 0.0, 0.0, 0.0, 0.0, 0.0, 1.687802890005084E9, 0.0, 2023-06-26 13:08:10.005
194.0, 47261.46724956838, 50055.12238205939, 58810.54655439217, -3106.020761253925, -6256.90147362965, -9148.993688701832, 20216.95169412514, 13548.01816320636, 0.018000000000000002, 0.99, 0.082, 192.0, 0.0, 0.0, 0.0, 0.0, 0.0, 0.0, 0.0, 0.0, 0.0, 1.6878028900081062E9, 0.0, 2023-06-26 13:08:10.008
195.0, 47263.79183099173, 50046.89694009983, 58814.86044107204, -3097.460043127542, -6283.611808253742, -9143.606918288102, 20189.347289722835, 13539.971535202449, 0.018000000000000002, 0.99, 0.082, 192.0, 0.0, 0.0, 0.0, 0.0, 0.0, 0.0, 0.0, 0.0, 0.0, 1.6878028900111148E9, 0.0, 2023-06-26 13:08:10.011
196.0, 47309.679962358474, 50090.43813829877, 56780.87404738356, -3011.495233952431, -6208.420539906089, -9055.74221083429, 20259.241194634582, 13634.094731103747, 0.018000000000000002, 0.99, 0.082, 192.0, 0.0, 0.0, 0.0, 0.0, 0.0, 0.0, 0.0, 0.0, 0.0, 1.6878028900142174E9, 0.0, 2023-06-26 13:08:10.014
197.0, 47276.465270097884, 50063.23606529666, 57480.148372667834, -3069.855638725238, -6237.90249084264, -9109.609914971581, 20241.784482214985, 13588.698338115018, 0.018000000000000002, 0.99, 0.082, 192.0, 0.0, 0.0, 0.0, 0.0, 0.0, 0.0, 0.0, 0.0, 0.0, 1.687802890018204E9, 0.0, 2023-06-26 13:08:10.018
198.0, 47251.96775817487, 50040.2584719966, 58555.28963271256, -3111.8992700456706, -6264.076383599804, -9162.851770264122, 20209.463859732612, 13537.646953779096, 0.018000000000000002, 0.99, 0.082, 192.0, 0.0, 0.0, 0.0, 0.0, 0.0, 0.0, 0.0, 0.0, 0.0, 1.6878028900222166E9, 0.0, 2023-06-26 13:08:10.022
199.0, 47241.931824914434, 50023.67347761077, 59166.9674714765, -3120.2364707275, -6295.9276194486165, -9162.404735375016, 20183.37937395327, 13530.092064153203, 0.018000000000000002, 0.99, 0.082, 192.0, 0.0, 0.0, 0.0, 0.0, 0.0, 0.0, 0.0, 0.0, 0.0, 1.6878028900251977E9, 0.0, 2023-06-26 13:08:10.025
200.0, 47299.77813956477, 50073.67432995729, 56936.44218879249, -3025.3309637702664, -6221.406903434623, -9070.539065663705, 20246.6795142507, 13616.995646595436, 0.018000000000000002, 0.99, 0.082, 192.0, 0.0, 0.0, 0.0, 0.0, 0.0, 0.0, 0.0, 0.0, 0.0, 1.6878028900432925E9, 0.0, 2023-06-26 13:08:10.043
201.0, 47276.97936022036, 50064.19719030824, 57309.85043166285, -3063.1277636441905, -6228.492406426955, -9104.46901374686, 20252.669781764722, 13598.26488474189, 0.018000000000000002, 0.99, 0.082, 192.0, 0.0, 0.0, 0.0, 0.0, 0.0, 0.0, 0.0, 0.0, 0.0, 1.687802890047296E9, 0.0, 2023-06-26 13:08:10.047
202.0, 47259.12031640057, 50045.48878019915, 58282.59835035782, -3107.0265897544136, -6256.879121885196, -9165.19870343193, 20214.850630146342, 13539.412741591066, 0.014, 0.992, 0.078, 192.0, 0.0, 112.0, 31.0, 0.0, 2.0, 112.0, 0.0, 0.0, 0.0, 1.6878028900503314E9, 0.0, 2023-06-26 13:08:10.050
227.0, 47269.64798803902, 50049.154466289816, 58239.86181495927, -3095.0684064708244, -6261.640043454176, -9162.136514441552, 20218.42690925919, 13543.190186404014, 0.014, 0.992, 0.078, 192.0, 0.0, 0.0, 0.0, 0.0, 0.0, 0.0, 0.0, 0.0, 0.0, 1.687802890053333E9, 0.0, 2023-06-26 13:08:10.053
204.0, 47299.71108433141, 50071.50621074512, 57208.351160091304, -3036.663298209107, -6231.174615761593, -9085.805307126679, 20228.82047043091, 13597.840201597239, 0.014, 0.992, 0.078, 192.0, 0.0, 0.0, 0.0, 0.0, 0.0, 0.0, 0.0, 0.0, 0.0, 1.6878028900573668E9, 0.0, 2023-06-26 13:08:10.057
205.0, 47290.72568306037, 50074.81426892451, 57123.50393813896, -3047.2356733364672, -6215.483691153967, -9089.158068794975, 20258.190662645182, 13611.675931415073, 0.014, 0.992, 0.078, 192.0, 0.0, 0.0, 0.0, 0.0, 0.0, 0.0, 0.0, 0.0, 0.0, 1.6878028900603569E9, 0.0, 2023-06-26 13:08:10.060
206.0, 47269.73739501684, 50054.80945763701, 58045.379286453644, -3106.7583688209497, -6254.532188717389, -9166.651566821523, 20211.877848133787, 13536.954049700982, 0.014, 0.992, 0.078, 192.0, 0.0, 0.0, 0.0, 0.0, 0.0, 0.0, 0.0, 0.0, 0.0, 1.687802890081475E9, 0.0, 2023-06-26 13:08:10.081
223.0, 47245.68691798293, 50032.010678292594, 58535.62009759189, -3114.201499724567, -6273.173543593114, -9174.742898314345, 20205.552304452933, 13530.829671720228, 0.024, 0.986, 0.076, 192.0, 0.0, 192.0, 30.0, 208.0, 2.0, 96.0, 0.0, 0.0, 0.0, 1.6878028900875027E9, 0.0, 2023-06-26 13:08:10.087
208.0, 47291.731511560865, 50063.57134146349, 57598.21028688077, -3054.0082519064254, -6248.161941547625, -9110.816909172167, 20209.687377177164, 13571.375736162156, 0.024, 0.986, 0.076, 192.0, 0.0, 0.0, 0.0, 0.0, 0.0, 0.0, 0.0, 0.0, 0.0, 1.6878028901065822E9, 0.0, 2023-06-26 13:08:10.106
221.0, 47312.138654248556, 50087.331245819485, 56811.562992520696, -3006.68960889454, -6211.4603771520115, -9059.899635302978, 20262.795122002975, 13626.830414155773, 0.024, 0.986, 0.076, 192.0, 0.0, 0.0, 0.0, 0.0, 0.0, 0.0, 0.0, 0.0, 0.0, 1.6878028901095974E9, 0.0, 2023-06-26 13:08:10.109
210.0, 47268.575104305164, 50054.49653321464, 57856.86467371758, -3105.685485087095, -6247.625499680698, -9156.883854494556, 20220.34915928235, 13543.860738737672, 0.024, 0.986, 0.076, 192.0, 0.0, 0.0, 0.0, 0.0, 0.0, 0.0, 0.0, 0.0, 0.0, 1.6878028901136403E9, 0.0, 2023-06-26 13:08:10.113
211.0, 47233.549920743695, 50022.3547246879, 59274.188789628606, -3135.7485813794833, -6284.841154198784, -9182.856581551621, 20192.789458368952, 13520.033779148314, 0.024, 0.986, 0.076, 192.0, 0.0, 0.0, 0.0, 0.0, 0.0, 0.0, 0.0, 0.0, 0.0, 1.6878028901166627E9, 0.0, 2023-06-26 13:08:10.116
219.0, 47249.33025232914, 50035.49755042762, 58787.188981436375, -3117.0625230148466, -6276.816877939329, -9176.665148337503, 20200.746679395044, 13532.3942938321, 0.024, 0.986, 0.076, 192.0, 0.0, 0.0, 0.0, 0.0, 0.0, 0.0, 0.0, 0.0, 0.0, 1.6878028901196492E9, 0.0, 2023-06-26 13:08:10.119
217.0, 47301.298058187735, 50080.737481205164, 56768.73705014432, -3019.4524549785206, -6215.5060428984225, -9067.722745862335, 20255.955488199652, 13626.539841477854, 0.024, 0.986, 0.076, 192.0, 0.0, 0.0, 0.0, 0.0, 0.0, 0.0, 0.0, 0.0, 0.0, 1.6878028901226652E9, 0.0, 2023-06-26 13:08:10.122
230.0, 47293.944334261934, 50072.04265261205, 57133.42811267712, -3040.105466855224, -6232.13574077317, -9103.75375792429, 20256.603688788855, 13601.125908032169, 0.024, 0.986, 0.076, 192.0, 0.0, 0.0, 0.0, 0.0, 0.0, 0.0, 0.0, 0.0, 0.0, 1.687802890126696E9, 0.0, 2023-06-26 13:08:10.126
215.0, 47237.193255089915, 50029.32846895796, 59058.96384226845, -3135.681526146117, -6286.29401758838, -9183.415375163004, 20190.95661532362, 13519.63144774812, 0.024, 0.986, 0.076, 192.0, 0.0, 0.0, 0.0, 0.0, 0.0, 0.0, 0.0, 0.0, 0.0, 1.6878028901297226E9, 0.0, 2023-06-26 13:08:10.129
228.0, 47242.781191203736, 50022.51118689909, 59400.52084929, -3118.2248137265224, -6303.795433496885, -9183.638892607558, 20183.737001864552, 13517.128052369126, 0.024, 0.986, 0.076, 192.0, 0.0, 0.0, 0.0, 0.0, 0.0, 0.0, 0.0, 0.0, 0.0, 1.687802890132712E9, 0.0, 2023-06-26 13:08:10.132
231.0, 47278.34281663213, 50055.97174834869, 58043.16646375257, -3099.8740315287155, -6267.6303109681985, -9167.880912766566, 20216.839935402862, 13536.305849111779, 0.024, 0.986, 0.076, 192.0, 0.0, 0.0, 0.0, 0.0, 0.0, 0.0, 0.0, 0.0, 0.0, 1.6878028901357448E9, 0.0, 2023-06-26 13:08:10.135
232.0, 47240.00957489128, 50018.82314906397, 59411.76377675102, -3128.6630783871506, -6309.115148677248, -9199.776852104289, 20183.58053965337, 13505.57220048573, 0.024, 0.986, 0.076, 192.0, 0.0, 0.0, 0.0, 0.0, 0.0, 0.0, 0.0, 0.0, 0.0, 1.68780289013977E9, 0.0, 2023-06-26 13:08:10.139
233.0, 47299.73343607586, 50064.84539089744, 57756.2818236687, -3052.1307053721794, -6272.212418581536, -9130.285278592739, 20207.56396145391, 13553.829616764739, 0.026000000000000002, 0.982, 0.076, 192.0, 0.0, 208.0, 30.0, 176.0, 2.0, 96.0, 0.0, 0.0, 0.0, 1.6878028901427789E9, 0.0, 2023-06-26 13:08:10.142
234.0, 47310.97636353688, 50087.599466752945, 56980.720994558455, -3026.180330059568, -6224.022057535894, -9093.56136245267, 20266.77373251602, 13609.59721918073, 0.026000000000000002, 0.982, 0.076, 192.0, 0.0, 0.0, 0.0, 0.0, 0.0, 0.0, 0.0, 0.0, 0.0, 1.6878028901457753E9, 0.0, 2023-06-26 13:08:10.145
235.0, 47282.2096684229, 50062.163181562806, 57894.795584058236, -3091.358016891243, -6263.4281830106, -9158.314366139695, 20228.440490775167, 13544.978325960437, 0.026000000000000002, 0.982, 0.076, 192.0, 0.0, 0.0, 0.0, 0.0, 0.0, 0.0, 0.0, 0.0, 0.0, 1.6878028901498277E9, 0.0, 2023-06-26 13:08:10.149
236.0, 47244.12229587106, 50030.42370443627, 59270.65721400466, -3124.148026007179, -6301.336741606801, -9183.527133885282, 20196.969234582095, 13517.843308191696, 0.026000000000000002, 0.982, 0.076, 192.0, 0.0, 0.0, 0.0, 0.0, 0.0, 0.0, 0.0, 0.0, 0.0, 1.6878028901528165E9, 0.0, 2023-06-26 13:08:10.152
237.0, 47292.04443598323, 50060.93383561776, 58192.99020683649, -3066.860504968227, -6281.756613463952, -9131.827548960156, 20205.060566074917, 13551.035648707826, 0.026000000000000002, 0.982, 0.076, 192.0, 0.0, 0.0, 0.0, 0.0, 0.0, 0.0, 0.0, 0.0, 0.0, 1.6878028901558447E9, 0.0, 2023-06-26 13:08:10.155
238.0, 47314.64204962755, 50090.39343480986, 56838.474492844885, -3007.650733906118, -6215.841319065252, -9064.45939117186, 20277.86019776585, 13627.165690322601, 0.026000000000000002, 0.982, 0.076, 192.0, 0.0, 0.0, 0.0, 0.0, 0.0, 0.0, 0.0, 0.0, 0.0, 1.687802890158857E9, 0.0, 2023-06-26 13:08:10.158
243.0, 47284.57895333516, 50064.84539089744, 57605.4969555732, -3060.981996176481, -6245.7926566353635, -9113.342656295617, 20249.182909629693, 13580.651710111108, 0.02, 0.986, 0.078, 192.0, 0.0, 160.0, 30.0, 208.0, 2.0, 112.0, 0.0, 0.0, 0.0, 1.6878028901628635E9, 0.0, 2023-06-26 13:08:10.162
240.0, 47253.80060122021, 50040.03495455205, 59031.47119658843, -3110.6028688672627, -6287.456308300056, -9183.48243039637, 20208.972121354596, 13527.633372263119, 0.02, 0.986, 0.078, 192.0, 0.0, 0.0, 0.0, 0.0, 0.0, 0.0, 0.0, 0.0, 0.0, 1.687802890165867E9, 0.0, 2023-06-26 13:08:10.165
2.0, 47289.58574409315, 50050.540274446044, 57801.20883002387, -3054.4105833066205, -6260.030717853394, -9112.627400473048, 20220.796194171453, 13560.15516044559, 0.02, 0.986, 0.078, 192.0, 0.0, 0.0, 0.0, 0.0, 0.0, 0.0, 0.0, 0.0, 0.0, 1.6878028901689072E9, 0.0, 2023-06-26 13:08:10.168
244.0, 47252.12422038606, 50035.69871612772, 58723.9111928834, -3103.360903663743, -6272.86061917074, -9160.884816752055, 20216.99639761405, 13538.026933434838, 0.02, 0.986, 0.078, 192.0, 0.0, 0.0, 0.0, 0.0, 0.0, 0.0, 0.0, 0.0, 0.0, 1.687802890172928E9, 0.0, 2023-06-26 13:08:10.172
245.0, 47252.48184829734, 50027.24975672361, 59009.25356259985, -3094.3978541371653, -6294.6312182702095, -9151.631194547557, 20195.248150259038, 13534.182433388523, 0.02, 0.986, 0.078, 192.0, 0.0, 0.0, 0.0, 0.0, 0.0, 0.0, 0.0, 0.0, 0.0, 1.687802890175931E9, 0.0, 2023-06-26 13:08:10.175
0.0, 47272.66547354049, 50049.60150117892, 57993.81381199525, -3097.1247669607123, -6255.649775940154, -9166.651566821523, 20223.657217461732, 13530.762616486862, 0.02, 0.986, 0.078, 192.0, 0.0, 0.0, 0.0, 0.0, 0.0, 0.0, 0.0, 0.0, 0.0, 1.6878028901789632E9, 0.0, 2023-06-26 13:08:10.178
251.0, 47283.41666262349, 50064.28659728606, 57276.3675184688, -3049.3590890597216, -6225.139644758659, -9107.151223081497, 20258.503587067557, 13594.17451550657, 0.02, 0.986, 0.078, 192.0, 0.0, 0.0, 0.0, 0.0, 0.0, 0.0, 0.0, 0.0, 0.0, 1.687802890181956E9, 0.0, 2023-06-26 13:08:10.181
248.0, 47244.189351104425, 50030.08842826944, 58443.8438348584, -3103.4503106415646, -6269.8654854137285, -9164.617558076092, 20219.76801392651, 13534.830633977728, 0.02, 0.986, 0.078, 192.0, 0.0, 0.0, 0.0, 0.0, 0.0, 0.0, 0.0, 0.0, 0.0, 1.68780289018599E9, 0.0, 2023-06-26 13:08:10.185
249.0, 47231.672374209455, 50010.57535535996, 59284.15766765567, -3117.5319096484077, -6303.549564307877, -9176.709851826412, 20188.207350755616, 13513.954104656472, 0.02, 0.986, 0.078, 192.0, 0.0, 0.0, 0.0, 0.0, 0.0, 0.0, 0.0, 0.0, 0.0, 1.6878028901890092E9, 0.0, 2023-06-26 13:08:10.189
254.0, 47297.92294477498, 50061.38087050687, 57378.31382492946, -3046.922748914093, -6246.217339780014, -9108.738196937824, 20223.836031417373, 13570.034631494837, 0.012, 0.988, 0.082, 192.0, 0.0, 96.0, 30.0, 224.0, 2.0, 144.0, 0.0, 0.0, 0.0, 1.687802890191996E9, 0.0, 2023-06-26 13:08:10.191
3.0, 47305.142558234045, 50073.406109023825, 56927.27797356582, -3017.7090189110068, -6206.27477243838, -9064.995833038787, 20284.05163097997, 13624.639943199152, 0.012, 0.988, 0.082, 192.0, 0.0, 0.0, 0.0, 0.0, 0.0, 0.0, 0.0, 0.0, 0.0, 1.68780289019604E9, 0.0, 2023-06-26 13:08:10.196
4.0, 47279.84038351064, 50051.47904771317, 57828.27679255925, -3081.567952819819, -6245.837360124274, -9136.90139495151, 20243.95260142715, 13556.847102266205, 0.012, 0.988, 0.082, 192.0, 0.0, 0.0, 0.0, 0.0, 0.0, 0.0, 0.0, 0.0, 0.0, 1.6878028901990385E9, 0.0, 2023-06-26 13:08:10.199
5.0, 47242.06593538117, 50017.10206474091, 59168.6662040551, -3121.108188761257, -6282.67303498662, -9174.675843080979, 20209.933246366174, 13522.671284994041, 0.012, 0.988, 0.082, 192.0, 0.0, 0.0, 0.0, 0.0, 0.0, 0.0, 0.0, 0.0, 0.0, 1.68780289020207E9, 0.0, 2023-06-26 13:08:10.202
6.0, 47275.59355206413, 50033.73176261566, 58259.10666693529, -3075.5776853057964, -6272.011252881438, -9125.23378434584, 20208.502734721034, 13549.985116718426, 0.012, 0.988, 0.082, 192.0, 0.0, 0.0, 0.0, 0.0, 0.0, 0.0, 0.0, 0.0, 0.0, 1.6878028902050817E9, 0.0, 2023-06-26 13:08:10.205
7.0, 47305.477834400874, 50071.28269330057, 56818.98377167986, -3007.851899606216, -6197.378778145168, -9051.808303810156, 20282.554064101467, 13634.474710759487, 0.012, 0.988, 0.082, 192.0, 0.0, 0.0, 0.0, 0.0, 0.0, 0.0, 0.0, 0.0, 0.0, 1.687802890209096E9, 0.0, 2023-06-26 13:08:10.209
9.0, 47247.676223239454, 50021.77357933207, 58935.5598611307, -3115.6320113697066, -6273.374709293212, -9158.560235328703, 20215.00709235753, 13537.088160167714, 0.012, 0.988, 0.082, 192.0, 0.0, 0.0, 0.0, 0.0, 0.0, 0.0, 0.0, 0.0, 0.0, 1.6878028902126513E9, 0.0, 2023-06-26 13:08:10.212
10.0, 47267.457517082395, 50028.68026836876, 58699.14546002692, -3093.1238047032125, -6289.356206578756, -9138.778941485756, 20196.030461314975, 13537.088160167714, 0.012, 0.988, 0.082, 192.0, 0.0, 0.0, 0.0, 0.0, 0.0, 0.0, 0.0, 0.0, 0.0, 1.6878028902154045E9, 0.0, 2023-06-26 13:08:10.215
11.0, 47315.133788005565, 50076.8706294144, 56795.24621906832, -3008.857728106705, -6206.051254993828, -9051.562434621148, 20273.903938997264, 13630.116120590703, 0.012, 0.988, 0.082, 192.0, 0.0, 0.0, 0.0, 0.0, 0.0, 0.0, 0.0, 0.0, 0.0, 1.687802890218207E9, 0.0, 2023-06-26 13:08:10.218
12.0, 47289.3622266486, 50060.889132128854, 57587.906132686876, -3066.815801479316, -6238.796560620852, -9113.342656295617, 20253.943831198674, 13581.814000822784, 0.012, 0.988, 0.082, 192.0, 0.0, 0.0, 0.0, 0.0, 0.0, 0.0, 0.0, 0.0, 0.0, 1.6878028902222052E9, 0.0, 2023-06-26 13:08:10.222
13.0, 47264.44003158093, 50037.24098649514, 58640.06979943154, -3108.94883977757, -6266.892703401173, -9161.756534785813, 20219.835069159875, 13538.563375301765, 0.012, 0.988, 0.082, 192.0, 0.0, 0.0, 0.0, 0.0, 0.0, 0.0, 0.0, 0.0, 0.0, 1.6878028902252011E9, 0.0, 2023-06-26 13:08:10.225
14.0, 47263.56831354718, 50027.070942767976, 59030.15244366556, -3104.7020083310617, -6292.194878124581, -9153.084057937152, 20200.18788578366, 13534.093026410703, 0.012, 0.988, 0.082, 192.0, 0.0, 0.0, 0.0, 0.0, 0.0, 0.0, 0.0, 0.0, 0.0, 1.687802890228201E9, 0.0, 2023-06-26 13:08:10.228
15.0, 47318.486549673864, 50076.356539291926, 56862.1226384786, -3010.020018818381, -6214.343752186746, -9065.219350483341, 20268.80774126145, 13619.543745463341, 0.012, 0.988, 0.082, 192.0, 0.0, 0.0, 0.0, 0.0, 0.0, 0.0, 0.0, 0.0, 0.0, 1.687802890231206E9, 0.0, 2023-06-26 13:08:10.231
16.0, 47290.90449701602, 50060.2185797952, 57448.74417170813, -3062.4572113105314, -6234.683839641076, -9118.170633097963, 20259.82233999042, 13592.945169561526, 0.012, 0.988, 0.082, 192.0, 0.0, 0.0, 0.0, 0.0, 0.0, 0.0, 0.0, 0.0, 0.0, 1.687802890234208E9, 0.0, 2023-06-26 13:08:10.234
17.0, 47268.66451128299, 50038.872663840375, 58377.63796778178, -3107.920659532626, -6266.736241189986, -9165.981014487865, 20219.969179626605, 13540.239756135912, 0.012, 0.988, 0.082, 192.0, 0.0, 0.0, 0.0, 0.0, 0.0, 0.0, 0.0, 0.0, 0.0, 1.6878028902382412E9, 0.0, 2023-06-26 13:08:10.238
18.0, 47245.642214494015, 50014.397503661814, 59279.79907748689, -3117.084874759302, -6301.940238707094, -9174.407622147515, 20193.348251980336, 13522.425415805033, 0.01, 0.982, 0.078, 192.0, 0.0, 80.0, 30.0, 176.0, 2.0, 112.0, 0.0, 0.0, 0.0, 1.6878028902412555E9, 0.0, 2023-06-26 13:08:10.241
19.0, 47311.579860637175, 50068.33226303247, 57102.26978090642, -3018.6477921781293, -6229.028848293883, -9083.03369081422, 20250.613421274833, 13601.729405132462, 0.01, 0.982, 0.078, 192.0, 0.0, 0.0, 0.0, 0.0, 0.0, 0.0, 0.0, 0.0, 0.0, 1.6878028902442782E9, 0.0, 2023-06-26 13:08:10.244
20.0, 47290.16688944899, 50059.48097222817, 57296.305274522936, -3044.531112257375, -6226.99483954845, -9107.33003703714, 20267.846616249873, 13596.946131819026, 0.01, 0.982, 0.078, 192.0, 0.0, 0.0, 0.0, 0.0, 0.0, 0.0, 0.0, 0.0, 0.0, 1.687802890248272E9, 0.0, 2023-06-26 13:08:10.248
21.0, 47268.88802872754, 50038.3585737179, 58179.93678807459, -3100.164604206634, -6262.601168465754, -9171.34543315714, 20224.640694217767, 13532.886032210117, 0.01, 0.982, 0.078, 192.0, 0.0, 0.0, 0.0, 0.0, 0.0, 0.0, 0.0, 0.0, 0.0, 1.6878028902512872E9, 0.0, 2023-06-26 13:08:10.251
22.0, 47242.6023772481, 50013.65989609479, 59377.87853215677, -3120.9964300389806, -6296.464061315544, -9189.383290932572, 20197.460972960114, 13513.216497089446, 0.01, 0.982, 0.078, 192.0, 0.0, 0.0, 0.0, 0.0, 0.0, 0.0, 0.0, 0.0, 0.0, 1.6878028902553232E9, 0.0, 2023-06-26 13:08:10.255
23.0, 47305.924869289986, 50060.08446932846, 57466.78202948356, -3032.304708040322, -6248.273700269902, -9103.463185246372, 20236.28595307898, 13577.768335076373, 0.01, 0.982, 0.078, 192.0, 0.0, 0.0, 0.0, 0.0, 0.0, 0.0, 0.0, 0.0, 0.0, 1.6878028902583349E9, 0.0, 2023-06-26 13:08:10.258
24.0, 47297.5653168637, 50064.51011473061, 57122.34164742728, -3024.4592457365093, -6219.75287434493, -9084.732423392823, 20277.703735554664, 13612.79351863784, 0.01, 0.982, 0.078, 192.0, 0.0, 0.0, 0.0, 0.0, 0.0, 0.0, 0.0, 0.0, 0.0, 1.687802890261352E9, 0.0, 2023-06-26 13:08:10.261
25.0, 47276.66643579798, 50044.79587612103, 57983.06262291225, -3087.8934965006706, -6263.4281830106, -9156.749744027824, 20226.42883377419, 13538.406913090577, 0.01, 0.982, 0.078, 192.0, 0.0, 0.0, 0.0, 0.0, 0.0, 0.0, 0.0, 0.0, 0.0, 1.6878028902653687E9, 0.0, 2023-06-26 13:08:10.265
26.0, 47247.63151975054, 50019.51605314208, 59276.24515011849, -3110.6475723561734, -6287.501011788966, -9178.900322783033, 20200.679624161676, 13518.089177380703, 0.01, 0.982, 0.078, 192.0, 0.0, 0.0, 0.0, 0.0, 0.0, 0.0, 0.0, 0.0, 0.0, 1.6878028902683878E9, 0.0, 2023-06-26 13:08:10.268
27.0, 47298.97347676438, 50052.6636901693, 57857.78109524025, -3041.401868033632, -6256.745011418464, -9112.649752217503, 20216.95169412514, 13563.843198280716, 0.01, 0.982, 0.078, 192.0, 0.0, 0.0, 0.0, 0.0, 0.0, 0.0, 0.0, 0.0, 0.0, 1.6878028902714024E9, 0.0, 2023-06-26 13:08:10.271
28.0, 47312.80920658221, 50076.15537359183, 56905.26150527734, -3003.761530370895, -6204.330170670769, -9068.75092610728, 20277.34610764338, 13623.388245509655, 0.016, 0.99, 0.08, 192.0, 0.0, 128.0, 30.0, 240.0, 2.0, 128.0, 0.0, 0.0, 0.0, 1.6878028902754283E9, 0.0, 2023-06-26 13:08:10.275
29.0, 47282.03085446726, 50046.226387766175, 57820.56544072217, -3078.1928394070674, -6254.7780579063965, -9149.060743935197, 20229.647484975754, 13548.3981428621, 0.016, 0.99, 0.08, 192.0, 0.0, 0.0, 0.0, 0.0, 0.0, 0.0, 0.0, 0.0, 0.0, 1.6878028902784324E9, 0.0, 2023-06-26 13:08:10.278
30.0, 47246.849208694606, 50013.346971672414, 59102.52739221184, -3116.9060608036593, -6286.159907121648, -9180.442593150448, 20208.703900421133, 13520.525517526332, 0.016, 0.99, 0.08, 192.0, 0.0, 0.0, 0.0, 0.0, 0.0, 0.0, 0.0, 0.0, 0.0, 1.687802890281451E9, 0.0, 2023-06-26 13:08:10.281
31.0, 47288.33404640365, 50038.89501558483, 58311.07447279388, -3062.1219351437016, -6274.648758727165, -9127.46895879137, 20215.588237713368, 13549.605137062686, 0.016, 0.99, 0.08, 192.0, 0.0, 0.0, 0.0, 0.0, 0.0, 0.0, 0.0, 0.0, 0.0, 1.6878028902854934E9, 0.0, 2023-06-26 13:08:10.285
32.0, 47313.59151763815, 50071.327396789486, 56814.7592919778, -3003.1580332706017, -6207.347656172235, -9058.737344591302, 20286.957357759162, 13632.865385158704, 0.016, 0.99, 0.08, 192.0, 0.0, 0.0, 0.0, 0.0, 0.0, 0.0, 0.0, 0.0, 0.0, 1.6878028902884872E9, 0.0, 2023-06-26 13:08:10.288
33.0, 47277.314636387186, 50039.69967838522, 57725.5258232982, -3073.2978073713552, -6254.152209061648, -9138.309554852194, 20244.95842992764, 13562.792666291318, 0.016, 0.99, 0.08, 192.0, 0.0, 0.0, 0.0, 0.0, 0.0, 0.0, 0.0, 0.0, 0.0, 1.6878028902915068E9, 0.0, 2023-06-26 13:08:10.291
34.0, 47257.13101114405, 50022.22061422117, 58856.61349971456, -3096.56597334933, -6271.921845903617, -9168.57381684468, 20226.026502373996, 13536.082331667225, 0.016, 0.99, 0.08, 192.0, 0.0, 0.0, 0.0, 0.0, 0.0, 0.0, 0.0, 0.0, 0.0, 1.6878028902955053E9, 0.0, 2023-06-26 13:08:10.295
35.0, 47272.26314214029, 50026.80272183451, 58764.65842302542, -3077.7681562624166, -6288.462136800545, -9147.09379042313, 20207.76512715401, 13541.022067191849, 0.016, 0.99, 0.08, 192.0, 0.0, 0.0, 0.0, 0.0, 0.0, 0.0, 0.0, 0.0, 0.0, 1.6878028902985144E9, 0.0, 2023-06-26 13:08:10.298
36.0, 47316.16196825051, 50070.32156828899, 56819.43080656896, -2998.754739612906, -6214.61197312021, -9062.872417315533, 20274.686250053197, 13625.93634437756, 0.016, 0.99, 0.08, 192.0, 0.0, 0.0, 0.0, 0.0, 0.0, 0.0, 0.0, 0.0, 0.0, 1.687802890301538E9, 0.0, 2023-06-26 13:08:10.301
37.0, 47291.61975283858, 50053.24483552514, 57590.49893504369, -3053.7176792285063, -6246.105581057737, -9116.628362730547, 20256.067246921928, 13584.563265390787, 0.016, 0.99, 0.08, 192.0, 0.0, 0.0, 0.0, 0.0, 0.0, 0.0, 0.0, 0.0, 0.0, 1.6878028903055584E9, 0.0, 2023-06-26 13:08:10.305
38.0, 47265.87054322607, 50031.51893991458, 58574.378022477395, -3094.531964603897, -6276.012215138939, -9161.66712780799, 20220.70678719363, 13544.933622471526, 0.016, 0.99, 0.08, 192.0, 0.0, 0.0, 0.0, 0.0, 0.0, 0.0, 0.0, 0.0, 0.0, 1.6878028903085692E9, 0.0, 2023-06-26 13:08:10.308
39.0, 47254.13587738704, 50012.89993678331, 59096.91710435356, -3099.806976295349, -6305.807090497862, -9165.086944709652, 20186.061583287905, 13527.722779240941, 0.016, 0.99, 0.078, 192.0, 0.0, 128.0, 30.0, 240.0, 2.0, 112.0, 0.0, 0.0, 0.0, 1.687802890311578E9, 0.0, 2023-06-26 13:08:10.311
40.0, 47317.27955547328, 50070.276864800086, 56921.64533396308, -3001.9957425589255, -6222.926822057584, -9069.51088541876, 20257.944793456172, 13617.710902418006, 0.016, 0.99, 0.078, 192.0, 0.0, 0.0, 0.0, 0.0, 0.0, 0.0, 0.0, 0.0, 0.0, 1.6878028903146064E9, 0.0, 2023-06-26 13:08:10.314
41.0, 47293.40789239501, 50058.89982687233, 57452.208692098706, -3042.3182895562995, -6234.885005341173, -9105.407787013983, 20258.682401023198, 13601.081204543258, 0.016, 0.99, 0.078, 192.0, 0.0, 0.0, 0.0, 0.0, 0.0, 0.0, 0.0, 0.0, 0.0, 1.687802890318619E9, 0.0, 2023-06-26 13:08:10.318
42.0, 47273.29132238523, 50038.98442256265, 58332.219223048596, -3086.530040088897, -6261.081249842793, -9161.912996997, 20222.04789186095, 13549.694544040507, 0.016, 0.99, 0.078, 192.0, 0.0, 0.0, 0.0, 0.0, 0.0, 0.0, 0.0, 0.0, 0.0, 1.6878028903216372E9, 0.0, 2023-06-26 13:08:10.321
43.0, 47253.17475237546, 50016.69973334071, 59302.03906321992, -3104.679656586606, -6295.368825837234, -9172.932407013466, 20191.537760679457, 13530.516747297854, 0.016, 0.99, 0.078, 192.0, 0.0, 0.0, 0.0, 0.0, 0.0, 0.0, 0.0, 0.0, 0.0, 1.6878028903246608E9, 0.0, 2023-06-26 13:08:10.324
44.0, 47311.40104668153, 50064.465411241705, 57196.21416285207, -3014.6244781761743, -6232.13574077317, -9078.60804541207, 20242.410331059735, 13609.954847092014, 0.016, 0.99, 0.078, 192.0, 0.0, 0.0, 0.0, 0.0, 0.0, 0.0, 0.0, 0.0, 0.0, 1.6878028903286688E9, 0.0, 2023-06-26 13:08:10.328
45.0, 47292.17854644997, 50057.64812918283, 57311.191536330174, -3034.4504755080316, -6220.08815051176, -9087.347577494094, 20265.00794470405, 13615.676893672573, 0.016, 0.99, 0.078, 192.0, 0.0, 0.0, 0.0, 0.0, 0.0, 0.0, 0.0, 0.0, 0.0, 1.6878028903316867E9, 0.0, 2023-06-26 13:08:10.331
46.0, 47273.8054125077, 50038.1574080178, 58152.86882553921, -3087.021778466914, -6251.984089849483, -9160.23661616285, 20220.28210404898, 13544.799512004794, 0.016, 0.99, 0.078, 192.0, 0.0, 0.0, 0.0, 0.0, 0.0, 0.0, 0.0, 0.0, 0.0, 1.6878028903347416E9, 0.0, 2023-06-26 13:08:10.334
47.0, 47242.11063887008, 50006.26146868008, 59374.03403211046, -3114.3803136802094, -6288.015101911438, -9178.319177427195, 20190.017842056495, 13523.028912905325, 0.016, 0.99, 0.078, 192.0, 0.0, 0.0, 0.0, 0.0, 0.0, 0.0, 0.0, 0.0, 0.0, 1.6878028903377175E9, 0.0, 2023-06-26 13:08:10.337
48.0, 47305.276668700775, 50053.557759947515, 57563.31921378604, -3033.668164452096, -6241.590528677765, -9098.36698751056, 20222.450223261145, 13579.914102544082, 0.016, 0.99, 0.078, 192.0, 0.0, 0.0, 0.0, 0.0, 0.0, 0.0, 0.0, 0.0, 0.0, 1.6878028903417268E9, 0.0, 2023-06-26 13:08:10.341
49.0, 47303.75675007782, 50065.024204853085, 57116.50784212445, -3024.213376547501, -6204.732502070964, -9075.054118043676, 20270.10414243986, 13620.326056519278, 0.024, 0.988, 0.082, 192.0, 0.0, 192.0, 30.0, 224.0, 2.0, 144.0, 0.0, 0.0, 0.0, 1.687802890344736E9, 0.0, 2023-06-26 13:08:10.344
50.0, 47286.99294173634, 50048.05923081151, 57977.206465864954, -3084.8983627436596, -6241.478769955489, -9143.71867701038, 20226.76410994102, 13552.868491753161, 0.024, 0.988, 0.082, 192.0, 0.0, 0.0, 0.0, 0.0, 0.0, 0.0, 0.0, 0.0, 0.0, 1.6878028903477557E9, 0.0, 2023-06-26 13:08:10.347
51.0, 47253.95706343139, 50017.23617520764, 59279.66496702015, -3119.3200492048322, -6279.208514596047, -9175.10052622563, 20194.599949669835, 13525.040569906303, 0.024, 0.988, 0.082, 192.0, 0.0, 0.0, 0.0, 0.0, 0.0, 0.0, 0.0, 0.0, 0.0, 1.687802890350777E9, 0.0, 2023-06-26 13:08:10.350
52.0, 47301.27570644328, 50048.12628604488, 57983.017919423335, -3058.5903595197633, -6251.827627638296, -9113.27560106225, 20204.546475952444, 13565.653689581597, 0.024, 0.988, 0.082, 192.0, 0.0, 0.0, 0.0, 0.0, 0.0, 0.0, 0.0, 0.0, 0.0, 1.6878028903547907E9, 0.0, 2023-06-26 13:08:10.354
53.0, 47313.45740717142, 50068.19815256574, 56937.44801729298, -3022.7828649023613, -6197.244667678437, -9065.912254561455, 20262.661011536242, 13629.22205081249, 0.024, 0.988, 0.082, 192.0, 0.0, 0.0, 0.0, 0.0, 0.0, 0.0, 0.0, 0.0, 0.0, 1.6878028903578076E9, 0.0, 2023-06-26 13:08:10.357
54.0, 47289.98807549335, 50047.20986452221, 57848.19219686893, -3090.329836646299, -6239.75768563243, -9139.203624630407, 20219.47744124859, 13557.092971455213, 0.024, 0.988, 0.082, 192.0, 0.0, 0.0, 0.0, 0.0, 0.0, 0.0, 0.0, 0.0, 0.0, 1.687802890360821E9, 0.0, 2023-06-26 13:08:10.360
55.0, 47252.235979108336, 50014.30809668399, 59081.53910416831, -3128.8865958317037, -6268.7478981909635, -9174.139401214052, 20192.342423479848, 13527.320447840744, 0.024, 0.988, 0.082, 192.0, 0.0, 0.0, 0.0, 0.0, 0.0, 0.0, 0.0, 0.0, 0.0, 1.6878028903638372E9, 0.0, 2023-06-26 13:08:10.363
56.0, 47282.65670331201, 50032.56947190398, 58444.492035447605, -3088.653455812151, -6266.780944678896, -9132.028714660253, 20186.486266432556, 13545.917099227561, 0.024, 0.988, 0.082, 192.0, 0.0, 0.0, 0.0, 0.0, 0.0, 0.0, 0.0, 0.0, 0.0, 1.687802890366864E9, 0.0, 2023-06-26 13:08:10.366
57.0, 47312.071599015195, 50068.309911288015, 56848.64453657205, -3020.4135799900987, -6195.4341763775565, -9059.072620758132, 20258.97297370112, 13628.998533367936, 0.024, 0.988, 0.082, 192.0, 0.0, 0.0, 0.0, 0.0, 0.0, 0.0, 0.0, 0.0, 0.0, 1.6878028903708668E9, 0.0, 2023-06-26 13:08:10.370
58.0, 47287.75290104782, 50047.969823833686, 57735.78527400318, -3085.3901011216763, -6234.214453007514, -9133.414522816483, 20226.76410994102, 13565.363116903678, 0.024, 0.988, 0.082, 192.0, 0.0, 0.0, 0.0, 0.0, 0.0, 0.0, 0.0, 0.0, 0.0, 1.6878028903739088E9, 0.0, 2023-06-26 13:08:10.373
59.0, 47266.22817113736, 50031.69775387022, 58819.44254868538, -3113.687409602095, -6258.309633530335, -9163.85759876461, 20203.76416489651, 13538.451616579488, 0.018000000000000002, 0.984, 0.084, 192.0, 0.0, 144.0, 30.0, 192.0, 2.0, 160.0, 0.0, 0.0, 0.0, 1.6878028903769093E9, 0.0, 2023-06-26 13:08:10.376
60.0, 47272.46430784039, 50028.76967534658, 58864.928348651934, -3095.940124504581, -6275.162848849636, -9137.370781585072, 20188.72144087809, 13545.090084682713, 0.018000000000000002, 0.984, 0.084, 192.0, 0.0, 0.0, 0.0, 0.0, 0.0, 0.0, 0.0, 0.0, 0.0, 1.6878028903799288E9, 0.0, 2023-06-26 13:08:10.379
61.0, 47325.482645688375, 50080.2233910827, 56850.79030403976, -3012.948097342026, -6193.802499032319, -9053.372925922027, 20260.716409768633, 13637.000457882938, 0.018000000000000002, 0.984, 0.084, 192.0, 0.0, 0.0, 0.0, 0.0, 0.0, 0.0, 0.0, 0.0, 0.0, 1.6878028904222133E9, 0.0, 2023-06-26 13:08:10.422
62.0, 47288.33404640365, 50050.45086746822, 57598.724377003244, -3073.4542695825426, -6224.7820168473745, -9113.297952806706, 20239.594011258367, 13589.21242823749, 0.018000000000000002, 0.984, 0.084, 192.0, 0.0, 0.0, 0.0, 0.0, 0.0, 0.0, 0.0, 0.0, 0.0, 1.687802890425217E9, 0.0, 2023-06-26 13:08:10.425
63.0, 47274.252447396815, 50038.313870228994, 58537.94467901524, -3098.823499539316, -6244.987993834972, -9154.179293415464, 20210.983778355574, 13548.82282600675, 0.018000000000000002, 0.984, 0.084, 192.0, 0.0, 0.0, 0.0, 0.0, 0.0, 0.0, 0.0, 0.0, 0.0, 1.6878028904282117E9, 0.0, 2023-06-26 13:08:10.428
64.0, 47261.84722922411, 50020.208957220195, 59156.08217192676, -3109.0382467553914, -6275.229904083002, -9157.867331250589, 20183.04409778644, 13532.930735699027, 0.018000000000000002, 0.984, 0.084, 192.0, 0.0, 0.0, 0.0, 0.0, 0.0, 0.0, 0.0, 0.0, 0.0, 1.6878028904321983E9, 0.0, 2023-06-26 13:08:10.432
65.0, 47321.638145642064, 50073.45081251274, 56978.977558490944, -3011.539937441342, -6195.7247490554755, -9056.613928868048, 20254.72614225461, 13625.869289144193, 0.018000000000000002, 0.984, 0.084, 192.0, 0.0, 0.0, 0.0, 0.0, 0.0, 0.0, 0.0, 0.0, 0.0, 1.6878028904352212E9, 0.0, 2023-06-26 13:08:10.435
66.0, 47294.525479617776, 50057.42461173828, 57436.048380857515, -3051.6389669941627, -6207.101786983227, -9091.840278129612, 20254.659087021242, 13608.658445913607, 0.018000000000000002, 0.984, 0.084, 192.0, 0.0, 0.0, 0.0, 0.0, 0.0, 0.0, 0.0, 0.0, 0.0, 1.68780289043923E9, 0.0, 2023-06-26 13:08:10.439
67.0, 47274.8559444971, 50034.08939052694, 58312.77320537248, -3101.5727641073186, -6238.975374576495, -9149.351316613116, 20212.10136557834, 13551.281517896834, 0.018000000000000002, 0.984, 0.084, 192.0, 0.0, 0.0, 0.0, 0.0, 0.0, 0.0, 0.0, 0.0, 0.0, 1.6878028904422443E9, 0.0, 2023-06-26 13:08:10.442
68.0, 47250.22432210736, 50009.100140225906, 59346.85431085281, -3122.181072495112, -6275.140497105182, -9166.71862205489, 20181.70299311912, 13527.208689118468, 0.018000000000000002, 0.984, 0.084, 192.0, 0.0, 0.0, 0.0, 0.0, 0.0, 0.0, 0.0, 0.0, 0.0, 1.6878028904452436E9, 0.0, 2023-06-26 13:08:10.445
69.0, 47310.954011792426, 50057.15639080482, 57265.90690206372, -3035.2327865639672, -6216.780092332375, -9089.761565895267, 20225.84768841835, 13592.051099783313, 0.016, 0.988, 0.08, 192.0, 0.0, 128.0, 30.0, 224.0, 2.0, 128.0, 0.0, 0.0, 0.0, 1.6878028904492729E9, 0.0, 2023-06-26 13:08:10.449
70.0, 47295.79952905173, 50054.22831228117, 57255.75921008101, -3047.5262460143863, -6201.200926447025, -9089.202772283885, 20255.62021203282, 13608.479631957965, 0.016, 0.988, 0.08, 192.0, 0.0, 0.0, 0.0, 0.0, 0.0, 0.0, 0.0, 0.0, 0.0, 1.6878028904523013E9, 0.0, 2023-06-26 13:08:10.452
71.0, 47281.53911608924, 50040.23612025215, 58122.47045307999, -3100.9692670070253, -6235.354391974734, -9155.118066682586, 20212.70486267863, 13542.094950925703, 0.016, 0.988, 0.08, 192.0, 0.0, 0.0, 0.0, 0.0, 0.0, 0.0, 0.0, 0.0, 0.0, 1.6878028904562972E9, 0.0, 2023-06-26 13:08:10.456
72.0, 47250.53724652973, 50011.58118386045, 59381.901846158726, -3127.2772702309217, -6269.753726691452, -9183.348319929639, 20185.99452805454, 13521.15136637108, 0.016, 0.988, 0.08, 192.0, 0.0, 0.0, 0.0, 0.0, 0.0, 0.0, 0.0, 0.0, 0.0, 1.6878028904593377E9, 0.0, 2023-06-26 13:08:10.459
73.0, 47301.83450005466, 50044.84057960995, 57664.50556093521, -3057.5174757859086, -6230.146435516648, -9108.46997600436, 20212.816621400907, 13570.235797194935, 0.016, 0.988, 0.08, 192.0, 0.0, 0.0, 0.0, 0.0, 0.0, 0.0, 0.0, 0.0, 0.0, 1.687802890463359E9, 0.0, 2023-06-26 13:08:10.463
74.0, 47302.013314010306, 50056.75405940462, 57068.22807410098, -3044.2852430683665, -6191.70143505352, -9085.067699559653, 20260.02350569052, 13613.620533182686, 0.016, 0.988, 0.08, 192.0, 0.0, 0.0, 0.0, 0.0, 0.0, 0.0, 0.0, 0.0, 0.0, 1.6878028904663527E9, 0.0, 2023-06-26 13:08:10.466
75.0, 47281.87439225607, 50038.40327720682, 57949.80322716275, -3099.784624550894, -6233.387438462668, -9152.592319559137, 20215.454127246634, 13546.095913183202, 0.016, 0.988, 0.08, 192.0, 0.0, 0.0, 0.0, 0.0, 0.0, 0.0, 0.0, 0.0, 0.0, 1.687802890469375E9, 0.0, 2023-06-26 13:08:10.469
76.0, 47242.82589469265, 50003.53455585654, 59257.760257453956, -3135.972098824036, -6272.726508704008, -9183.77300307429, 20179.46781867359, 13515.094043623692, 0.016, 0.988, 0.08, 192.0, 0.0, 0.0, 0.0, 0.0, 0.0, 0.0, 0.0, 0.0, 0.0, 1.6878028904734092E9, 0.0, 2023-06-26 13:08:10.473
77.0, 47282.16496493399, 50024.07580901097, 58123.56568855831, -3081.813822008827, -6257.437915496578, -9132.498101293815, 20187.536798421956, 13546.051209694293, 0.016, 0.988, 0.08, 192.0, 0.0, 0.0, 0.0, 0.0, 0.0, 0.0, 0.0, 0.0, 0.0, 1.687802890478433E9, 0.0, 2023-06-26 13:08:10.478
78.0, 47304.82963381167, 50054.116553558895, 56911.20706930245, -3028.817835905294, -6187.342844884735, -9074.294158732195, 20264.829130748407, 13620.437815241554, 0.016, 0.988, 0.08, 192.0, 0.0, 0.0, 0.0, 0.0, 0.0, 0.0, 0.0, 0.0, 0.0, 1.6878028904985156E9, 0.0, 2023-06-26 13:08:10.498
79.0, 47277.20287766491, 50030.33429745845, 57821.526565733744, -3095.0684064708244, -6232.269851239902, -9141.57290954267, 20224.774804684497, 13553.49434059791, 0.016, 0.988, 0.08, 192.0, 0.0, 0.0, 0.0, 0.0, 0.0, 0.0, 0.0, 0.0, 0.0, 1.6878028905015347E9, 0.0, 2023-06-26 13:08:10.501
80.0, 47243.71996447086, 50001.478195366646, 59073.2913104643, -3128.5513196648744, -6260.924787631606, -9168.618520333592, 20198.466801460603, 13530.650857764585, 0.014, 0.99, 0.082, 192.0, 0.0, 112.0, 30.0, 240.0, 2.0, 144.0, 0.0, 0.0, 0.0, 1.6878028905055473E9, 0.0, 2023-06-26 13:08:10.505
81.0, 47267.390461849034, 50011.08944548243, 58600.32839779001, -3096.6330285826957, -6267.004462123449, -9139.293031608227, 20189.012013556006, 13542.58668930372, 0.014, 0.99, 0.082, 192.0, 0.0, 0.0, 0.0, 0.0, 0.0, 0.0, 0.0, 0.0, 0.0, 1.6878028905085528E9, 0.0, 2023-06-26 13:08:10.508
82.0, 47306.59542162364, 50051.54610294654, 56836.88751898856, -3022.7605131579057, -6192.975484487472, -9061.128981248019, 20261.699886524664, 13629.669085701596, 0.014, 0.99, 0.082, 192.0, 0.0, 0.0, 0.0, 0.0, 0.0, 0.0, 0.0, 0.0, 0.0, 1.6878028905125651E9, 0.0, 2023-06-26 13:08:10.512
83.0, 47284.69071205744, 50036.52573067257, 57657.17418875387, -3077.1423074176682, -6221.831586579274, -9118.885888920533, 20238.85640369134, 13579.69058509953, 0.014, 0.99, 0.082, 192.0, 0.0, 0.0, 0.0, 0.0, 0.0, 0.0, 0.0, 0.0, 0.0, 1.6878028905165887E9, 0.0, 2023-06-26 13:08:10.516
84.0, 47246.93861567243, 50003.42279713426, 58802.54462987717, -3125.8020550968713, -6258.019060852416, -9176.19576170394, 20198.556208438422, 13528.035703663314, 0.014, 0.99, 0.082, 192.0, 0.0, 0.0, 0.0, 0.0, 0.0, 0.0, 0.0, 0.0, 0.0, 1.6878028905276515E9, 0.0, 2023-06-26 13:08:10.527
85.0, 47253.66649075347, 49998.952448243195, 59005.83374569819, -3114.42501716912, -6275.565180249832, -9161.443610363438, 20179.89250181824, 13527.856889707673, 0.014, 0.99, 0.082, 192.0, 0.0, 0.0, 0.0, 0.0, 0.0, 0.0, 0.0, 0.0, 0.0, 1.6878028905306623E9, 0.0, 2023-06-26 13:08:10.530
86.0, 47309.23292746937, 50051.23317852416, 56879.78051659829, -3018.2007572890234, -6191.366158886691, -9058.17855097992, 20260.850520235363, 13632.440702014053, 0.014, 0.99, 0.082, 192.0, 0.0, 0.0, 0.0, 0.0, 0.0, 0.0, 0.0, 0.0, 0.0, 1.6878028905336747E9, 0.0, 2023-06-26 13:08:10.533
87.0, 47279.750976532814, 50030.826035836464, 57522.61668713292, -3075.5106300724306, -6219.75287434493, -9117.969467397865, 20246.076017150404, 13586.731384602952, 0.014, 0.99, 0.082, 192.0, 0.0, 0.0, 0.0, 0.0, 0.0, 0.0, 0.0, 0.0, 0.0, 1.687802890537689E9, 0.0, 2023-06-26 13:08:10.537
88.0, 47262.562485046685, 50015.13511122884, 58508.9097629678, -3113.687409602095, -6241.411714722123, -9152.94994747042, 20215.320016779904, 13544.151311415591, 0.014, 0.99, 0.082, 192.0, 0.0, 0.0, 0.0, 0.0, 0.0, 0.0, 0.0, 0.0, 0.0, 1.6878028905407195E9, 0.0, 2023-06-26 13:08:10.540
89.0, 47250.78311571874, 49999.77946278804, 59257.29087082039, -3120.4823399165084, -6274.8499244272625, -9164.684613309457, 20186.84389434384, 13528.326276341233, 0.014, 0.99, 0.082, 192.0, 0.0, 0.0, 0.0, 0.0, 0.0, 0.0, 0.0, 0.0, 0.0, 1.687802890544732E9, 0.0, 2023-06-26 13:08:10.544
90.0, 47314.239718227356, 50052.52957970257, 57026.76558813639, -3020.1900625455455, -6203.7713770593855, -9069.332071463117, 20242.790310715474, 13612.83822212675, 0.014, 0.986, 0.082, 192.0, 0.0, 112.0, 30.0, 208.0, 2.0, 144.0, 0.0, 0.0, 0.0, 1.6878028905477364E9, 0.0, 2023-06-26 13:08:10.547
91.0, 47282.03085446726, 50030.04372478053, 57368.21083643566, -3063.910074700126, -6216.243650465447, -9104.401958513494, 20243.7290839826, 13593.392204450633, 0.014, 0.986, 0.082, 192.0, 0.0, 0.0, 0.0, 0.0, 0.0, 0.0, 0.0, 0.0, 0.0, 1.687802890550745E9, 0.0, 2023-06-26 13:08:10.550
92.0, 47263.83653448064, 50011.111797226884, 58274.03763223143, -3114.8273485693157, -6251.179427049092, -9164.215226675895, 20204.680586419177, 13533.53423279932, 0.014, 0.986, 0.082, 192.0, 0.0, 0.0, 0.0, 0.0, 0.0, 0.0, 0.0, 0.0, 0.0, 1.6878028905789013E9, 0.0, 2023-06-26 13:08:10.578
93.0, 47244.83755169363, 49992.17986967324, 59395.71522423211, -3130.205348754567, -6280.750784963463, -9175.86048553711, 20183.021746041984, 13519.162061114557, 0.014, 0.986, 0.082, 192.0, 0.0, 0.0, 0.0, 0.0, 0.0, 0.0, 0.0, 0.0, 0.0, 1.687802890581919E9, 0.0, 2023-06-26 13:08:10.581
94.0, 47309.25527921382, 50042.53834993105, 57333.23035636311, -3040.753667444428, -6218.814101077807, -9091.616760685058, 20227.792290185964, 13593.571018406275, 0.014, 0.986, 0.082, 192.0, 0.0, 0.0, 0.0, 0.0, 0.0, 0.0, 0.0, 0.0, 0.0, 1.6878028905849402E9, 0.0, 2023-06-26 13:08:10.584
95.0, 47300.180470964966, 50045.153504032314, 57150.37073497424, -3045.2240163354895, -6198.496365367933, -9085.13475479302, 20264.24798539257, 13618.090882073748, 0.014, 0.986, 0.082, 192.0, 0.0, 0.0, 0.0, 0.0, 0.0, 0.0, 0.0, 0.0, 0.0, 1.6878028905889535E9, 0.0, 2023-06-26 13:08:10.588
96.0, 47277.515802087284, 50025.68513461175, 58043.03235328584, -3104.634953097696, -6240.8082176218295, -9156.14624692753, 20221.24322906056, 13543.771331759852, 0.014, 0.986, 0.082, 192.0, 0.0, 0.0, 0.0, 0.0, 0.0, 0.0, 0.0, 0.0, 0.0, 1.687802890591982E9, 0.0, 2023-06-26 13:08:10.591
97.0, 47246.11160112758, 49997.924267998256, 59370.88243614226, -3133.1334272782124, -6277.465078528533, -9180.822572806188, 20191.671871146187, 13517.731549469418, 0.014, 0.986, 0.082, 192.0, 0.0, 0.0, 0.0, 0.0, 0.0, 0.0, 0.0, 0.0, 0.0, 1.6878028905949607E9, 0.0, 2023-06-26 13:08:10.594
98.0, 47300.672209342985, 50035.296384727524, 57753.1302277005, -3058.813876964316, -6240.227072265991, -9112.381531284038, 20211.922551622698, 13564.849026781205, 0.014, 0.986, 0.082, 192.0, 0.0, 0.0, 0.0, 0.0, 0.0, 0.0, 0.0, 0.0, 0.0, 1.6878028905990238E9, 0.0, 2023-06-26 13:08:10.599
99.0, 47307.0648082572, 50053.73657390316, 56995.49549764342, -3029.4883882389536, -6196.037673477849, -9075.456449443871, 20268.29365113898, 13617.152108806624, 0.014, 0.986, 0.082, 192.0, 0.0, 0.0, 0.0, 0.0, 0.0, 0.0, 0.0, 0.0, 0.0, 1.6878028906020296E9, 0.0, 2023-06-26 13:08:10.602
100.0, 47290.36805514909, 50040.59374816343, 57888.24652293284, -3088.8322697677936, -6232.269851239902, -9144.724505510869, 20229.982761142586, 13550.722724285451, 0.022, 0.98, 0.082, 192.0, 0.0, 176.0, 30.0, 160.0, 2.0, 144.0, 0.0, 0.0, 0.0, 1.6878028906050365E9, 0.0, 2023-06-26 13:08:10.605
101.0, 47252.39244131952, 50007.200241947205, 59235.69908567656, -3123.0974940177794, -6267.116220845726, -9179.593226861147, 20204.881752119276, 13524.951162928483, 0.022, 0.98, 0.082, 192.0, 0.0, 0.0, 0.0, 0.0, 0.0, 0.0, 0.0, 0.0, 0.0, 1.6878028906090405E9, 0.0, 2023-06-26 13:08:10.609
102.0, 47286.188278935944, 50025.57337588947, 58227.92598342014, -3069.2968451138554, -6255.023927095405, -9119.04235113172, 20209.352101010336, 13557.16002668858, 0.022, 0.98, 0.082, 192.0, 0.0, 0.0, 0.0, 0.0, 0.0, 0.0, 0.0, 0.0, 0.0, 1.687802890612058E9, 0.0, 2023-06-26 13:08:10.612
103.0, 47313.34564844915, 50059.928007117276, 56841.98371672437, -3009.4835769514534, -6182.291350637835, -9048.74611481978, 20283.02345073503, 13641.180234096078, 0.022, 0.98, 0.082, 192.0, 0.0, 0.0, 0.0, 0.0, 0.0, 0.0, 0.0, 0.0, 0.0, 1.6878028906161127E9, 0.0, 2023-06-26 13:08:10.616
104.0, 47284.668360312986, 50034.35761146041, 57748.59282357607, -3082.842002253771, -6224.42438893609, -9126.23961284633, 20243.706732238144, 13572.515675129376, 0.022, 0.98, 0.082, 192.0, 0.0, 0.0, 0.0, 0.0, 0.0, 0.0, 0.0, 0.0, 0.0, 1.687802890619108E9, 0.0, 2023-06-26 13:08:10.619
105.0, 47253.688842497926, 50007.960201258684, 59002.77155670781, -3118.5153864044414, -6253.951043361551, -9161.95770048591, 20212.771917912, 13541.15617765858, 0.022, 0.98, 0.082, 192.0, 0.0, 0.0, 0.0, 0.0, 0.0, 0.0, 0.0, 0.0, 0.0, 1.687802890622124E9, 0.0, 2023-06-26 13:08:10.622
106.0, 47277.940485231935, 50018.15259673031, 58680.88408480693, -3083.914885987626, -6264.366956277723, -9133.012191416286, 20198.422097971692, 13548.889881240117, 0.022, 0.98, 0.082, 192.0, 0.0, 0.0, 0.0, 0.0, 0.0, 0.0, 0.0, 0.0, 0.0, 1.6878028906252267E9, 0.0, 2023-06-26 13:08:10.625
107.0, 47317.994811295845, 50058.43044023877, 56819.09553040213, -3006.2649257498892, -6184.973559972473, -9048.74611481978, 20270.618232562334, 13639.1685770951, 0.022, 0.98, 0.082, 192.0, 0.0, 0.0, 0.0, 0.0, 0.0, 0.0, 0.0, 0.0, 0.0, 1.687802890629209E9, 0.0, 2023-06-26 13:08:10.629
108.0, 47283.43901436794, 50032.435361437245, 57638.17520596686, -3075.7788510058945, -6224.670258125098, -9116.382493541538, 20240.264563592027, 13583.222160723468, 0.022, 0.98, 0.082, 192.0, 0.0, 0.0, 0.0, 0.0, 0.0, 0.0, 0.0, 0.0, 0.0, 1.6878028906322289E9, 0.0, 2023-06-26 13:08:10.632
109.0, 47255.81225822118, 50006.79791054701, 58746.352344316525, -3115.699066603073, -6254.8898166286735, -9162.069459208185, 20207.273388775993, 13539.636259035618, 0.022, 0.98, 0.082, 192.0, 0.0, 0.0, 0.0, 0.0, 0.0, 0.0, 0.0, 0.0, 0.0, 1.6878028906392274E9, 0.0, 2023-06-26 13:08:10.639
110.0, 47258.986205933834, 50000.6511808218, 59063.45654290397, -3105.819595553827, -6277.420375039623, -9154.827494004667, 20184.98869955405, 13534.517709555354, 0.03, 0.978, 0.082, 192.0, 0.0, 240.0, 30.0, 144.0, 2.0, 144.0, 0.0, 0.0, 0.0, 1.6878028906422095E9, 0.0, 2023-06-26 13:08:10.642
111.0, 47314.418532183, 50051.16612329079, 56897.460746462435, -3013.7751118868723, -6199.166917701593, -9059.631414369514, 20254.547328298966, 13628.976181623482, 0.03, 0.978, 0.082, 192.0, 0.0, 0.0, 0.0, 0.0, 0.0, 0.0, 0.0, 0.0, 0.0, 1.6878028906452425E9, 0.0, 2023-06-26 13:08:10.645
112.0, 47286.4117963805, 50034.49172192714, 57494.90052400834, -3063.3512810887437, -6222.882118568674, -9103.731406179835, 20247.171252628716, 13597.773146363872, 0.03, 0.978, 0.082, 192.0, 0.0, 0.0, 0.0, 0.0, 0.0, 0.0, 0.0, 0.0, 0.0, 1.687802890649244E9, 0.0, 2023-06-26 13:08:10.649
113.0, 47269.11154617209, 50019.04666650852, 58455.869073375354, -3104.7914153088827, -6250.039488081871, -9153.195816659429, 20213.95656036813, 13550.4992068409, 0.03, 0.978, 0.082, 192.0, 0.0, 0.0, 0.0, 0.0, 0.0, 0.0, 0.0, 0.0, 0.0, 1.687802890652254E9, 0.0, 2023-06-26 13:08:10.652
114.0, 47254.56056053169, 50000.09238721042, 59317.30530468289, -3113.016857268436, -6281.734261719497, -9161.130685941063, 20188.676737389178, 13537.736360756919, 0.03, 0.978, 0.082, 192.0, 0.0, 0.0, 0.0, 0.0, 0.0, 0.0, 0.0, 0.0, 0.0, 1.687802890655276E9, 0.0, 2023-06-26 13:08:10.655
115.0, 47321.34757296414, 50056.82111463799, 57104.77317628541, -3012.9704490864815, -6208.6440573506425, -9068.54976040718, 20249.004095674052, 13623.634114698663, 0.03, 0.978, 0.082, 192.0, 0.0, 0.0, 0.0, 0.0, 0.0, 0.0, 0.0, 0.0, 0.0, 1.6878028906593032E9, 0.0, 2023-06-26 13:08:10.659
116.0, 47302.058017499214, 50046.47225695518, 57313.985504387085, -3044.9557954020256, -6210.588659118254, -9086.833487371623, 20265.499683082067, 13617.554440206819, 0.03, 0.978, 0.082, 192.0, 0.0, 0.0, 0.0, 0.0, 0.0, 0.0, 0.0, 0.0, 0.0, 1.6878028906623192E9, 0.0, 2023-06-26 13:08:10.662
121.0, 47280.06390095519, 50023.226442721665, 58025.97797226644, -3101.3492466627654, -6246.463208969022, -9156.660337050002, 20218.449261003647, 13546.699410283496, 0.03, 0.98, 0.082, 192.0, 0.0, 240.0, 30.0, 160.0, 2.0, 144.0, 0.0, 0.0, 0.0, 1.6878028906653416E9, 0.0, 2023-06-26 13:08:10.665
118.0, 47253.44297330892, 49999.868869765865, 59422.604372811846, -3124.1256742627234, -6280.639026241187, -9171.121915712585, 20190.107249034318, 13525.174680373035, 0.03, 0.98, 0.082, 192.0, 0.0, 0.0, 0.0, 0.0, 0.0, 0.0, 0.0, 0.0, 0.0, 1.687802890669364E9, 0.0, 2023-06-26 13:08:10.669
119.0, 47320.27468923029, 50050.78614363506, 57432.22623255566, -3036.909167398115, -6224.759665102919, -9088.711033905869, 20229.088691364374, 13591.40289919411, 0.03, 0.98, 0.082, 192.0, 0.0, 0.0, 0.0, 0.0, 0.0, 0.0, 0.0, 0.0, 0.0, 1.687802890672386E9, 0.0, 2023-06-26 13:08:10.672
122.0, 47242.781191203736, 49992.15751792878, 59385.5675322494, -3137.939052336103, -6285.668168743631, -9191.05967176672, 20186.128638521273, 13513.082386622715, 0.03, 0.98, 0.082, 192.0, 0.0, 0.0, 0.0, 0.0, 0.0, 0.0, 0.0, 0.0, 0.0, 1.687802890675392E9, 0.0, 2023-06-26 13:08:10.675
123.0, 47304.53906113375, 50038.7609051181, 57862.720830764876, -3057.5398275303637, -6242.0375635668715, -9113.901449907, 20213.643635945755, 13566.458352381987, 0.03, 0.98, 0.082, 192.0, 0.0, 0.0, 0.0, 0.0, 0.0, 0.0, 0.0, 0.0, 0.0, 1.6878028906794124E9, 0.0, 2023-06-26 13:08:10.679
124.0, 47314.84321532765, 50058.18457104976, 56953.20599713398, -3024.4145422475985, -6188.549839085322, -9061.55366439267, 20276.317927398435, 13631.79250142485, 0.03, 0.98, 0.082, 192.0, 0.0, 0.0, 0.0, 0.0, 0.0, 0.0, 0.0, 0.0, 0.0, 1.687802890682406E9, 0.0, 2023-06-26 13:08:10.682
125.0, 47287.68584581445, 50032.27889922606, 57870.29807213522, -3096.163641949134, -6231.666354139609, -9141.304688609205, 20229.043987875462, 13555.036610965326, 0.03, 0.98, 0.082, 192.0, 0.0, 0.0, 0.0, 0.0, 0.0, 0.0, 0.0, 0.0, 0.0, 1.6878028906854284E9, 0.0, 2023-06-26 13:08:10.685
126.0, 47247.4527057949, 49996.27023890856, 59211.58155340929, -3136.195616268589, -6265.886874900684, -9178.34152917165, 20196.544551437444, 13524.571183272743, 0.03, 0.98, 0.082, 192.0, 0.0, 0.0, 0.0, 0.0, 0.0, 0.0, 0.0, 0.0, 0.0, 1.6878028907045348E9, 0.0, 2023-06-26 13:08:10.704
127.0, 47285.76359579129, 50023.919346799776, 58342.1210458423, -3084.3395691322767, -6252.967566605516, -9128.877118692055, 20201.149010795238, 13555.260128409878, 0.03, 0.98, 0.082, 192.0, 0.0, 0.0, 0.0, 0.0, 0.0, 0.0, 0.0, 0.0, 0.0, 1.6878028907179494E9, 0.0, 2023-06-26 13:08:10.717
128.0, 47307.89182280205, 50056.93287336027, 56860.44625764445, -3028.2590422939115, -6189.734481541453, -9067.052193528676, 20268.092485438883, 13628.59620196774, 0.03, 0.98, 0.082, 192.0, 0.0, 0.0, 0.0, 0.0, 0.0, 0.0, 0.0, 0.0, 0.0, 1.687802890721595E9, 0.0, 2023-06-26 13:08:10.721
129.0, 47281.3603021336, 50038.93971907374, 57750.80564627715, -3091.335665146788, -6228.894737827151, -9125.479653534849, 20236.39771180126, 13569.721707072462, 0.03, 0.98, 0.082, 192.0, 0.0, 0.0, 0.0, 0.0, 0.0, 0.0, 0.0, 0.0, 0.0, 1.6878028907256243E9, 0.0, 2023-06-26 13:08:10.725
130.0, 47256.25929311029, 50023.785236333046, 58951.3625444606, -3122.873976573226, -6253.8392846392735, -9166.09277321014, 20213.6212842013, 13536.551718300787, 0.03, 0.98, 0.082, 192.0, 0.0, 0.0, 0.0, 0.0, 0.0, 0.0, 0.0, 0.0, 0.0, 1.6878028907466996E9, 0.0, 2023-06-26 13:08:10.746
131.0, 47270.56440956169, 50027.94266080173, 58778.874132499, -3100.7681013069277, -6264.076383599804, -9140.947060697921, 20197.460972960114, 13542.87726198164, 0.022, 0.978, 0.082, 192.0, 0.0, 176.0, 30.0, 144.0, 2.0, 144.0, 0.0, 0.0, 0.0, 1.687802890806018E9, 0.0, 2023-06-26 13:08:10.806
132.0, 47314.17266299399, 50072.06500435651, 56832.64068754205, -3020.301821267822, -6185.644112306132, -9055.630452112015, 20271.71346804064, 13632.954792136527, 0.022, 0.978, 0.082, 192.0, 0.0, 0.0, 0.0, 0.0, 0.0, 0.0, 0.0, 0.0, 0.0, 1.6878028908422225E9, 0.0, 2023-06-26 13:08:10.842
133.0, 47284.802470779716, 50053.24483552514, 57612.20247890979, -3083.177278420601, -6221.853938323729, -9119.198813342908, 20249.741703241078, 13579.77999207735, 0.022, 0.978, 0.082, 192.0, 0.0, 0.0, 0.0, 0.0, 0.0, 0.0, 0.0, 0.0, 0.0, 1.687802890845221E9, 0.0, 2023-06-26 13:08:10.845
134.0, 47262.38367109105, 50038.69384988474, 58678.31363419457, -3119.364752693743, -6242.149322289148, -9160.057802207208, 20221.734967438577, 13542.16200615907, 0.022, 0.978, 0.082, 192.0, 0.0, 0.0, 0.0, 0.0, 0.0, 0.0, 0.0, 0.0, 0.0, 1.6878028908482113E9, 0.0, 2023-06-26 13:08:10.848
135.0, 47253.01829016427, 50022.310021198995, 59134.95977341649, -3127.6125463977514, -6276.9062849171505, -9161.376555130071, 20191.291891490448, 13525.778177473328, 0.022, 0.978, 0.082, 192.0, 0.0, 0.0, 0.0, 0.0, 0.0, 0.0, 0.0, 0.0, 0.0, 1.6878028908522472E9, 0.0, 2023-06-26 13:08:10.852
178.0, 47310.104645503125, 50127.60908932795, 56859.95451926643, -3014.2668502648894, -6208.174670717081, -9068.37094645154, 20260.269374879525, 13621.555402464319, 0.022, 0.978, 0.082, 192.0, 0.0, 0.0, 0.0, 0.0, 0.0, 0.0, 0.0, 0.0, 0.0, 1.6878028908552353E9, 0.0, 2023-06-26 13:08:10.855
138.0, 47271.01144445079, 50051.389640735346, 58401.9343140047, -3113.7097613465503, -6246.083229313283, -9160.169560929486, 20217.04110110296, 13540.82090149175, 0.022, 0.978, 0.082, 192.0, 0.0, 0.0, 0.0, 0.0, 0.0, 0.0, 0.0, 0.0, 0.0, 1.687802890859264E9, 0.0, 2023-06-26 13:08:10.859
175.0, 47283.43901436794, 50105.145586150364, 57831.98718213883, -3079.891571985671, -6245.770304890908, -9142.176406642962, 20223.14312733926, 13555.975384232448, 0.022, 0.978, 0.082, 192.0, 0.0, 0.0, 0.0, 0.0, 0.0, 0.0, 0.0, 0.0, 0.0, 1.6878028908633053E9, 0.0, 2023-06-26 13:08:10.863
140.0, 47315.357305450125, 50085.69956847424, 57145.65451689417, -3033.5564057298193, -6214.500214397934, -9080.016205312753, 20236.040083889973, 13599.158954520102, 0.022, 0.978, 0.082, 192.0, 0.0, 0.0, 0.0, 0.0, 0.0, 0.0, 0.0, 0.0, 0.0, 1.6878028908663049E9, 0.0, 2023-06-26 13:08:10.866
141.0, 47293.85492728412, 50080.111632360415, 57280.61434991531, -3057.472772296998, -6213.404978919623, -9098.545801466204, 20256.447226577668, 13600.365948720688, 0.014, 0.974, 0.08, 192.0, 0.0, 112.0, 30.0, 112.0, 2.0, 128.0, 0.0, 0.0, 0.0, 1.6878028908692977E9, 0.0, 2023-06-26 13:08:10.869
142.0, 47269.78209850575, 50061.53733271806, 58175.30997697234, -3114.8720520582265, -6253.3698980057125, -9173.982939002864, 20211.09553707785, 13530.360285086666, 0.014, 0.974, 0.08, 192.0, 0.0, 0.0, 0.0, 0.0, 0.0, 0.0, 0.0, 0.0, 0.0, 1.6878028908733375E9, 0.0, 2023-06-26 13:08:10.873
172.0, 47243.8540749376, 50066.43236475377, 59288.158629913174, -3123.52217716243, -6284.684691987597, -9190.05384326623, 20184.206388498114, 13516.301037824278, 0.018000000000000002, 0.992, 0.076, 192.0, 0.0, 144.0, 31.0, 0.0, 2.0, 96.0, 0.0, 0.0, 0.0, 1.6878028908763485E9, 0.0, 2023-06-26 13:08:10.876
144.0, 47320.40879969702, 50098.82004246951, 57494.5205443526, -3038.250272065434, -6222.99387729095, -9087.861667616568, 20229.088691364374, 13587.245474725423, 0.018000000000000002, 0.992, 0.076, 192.0, 0.0, 0.0, 0.0, 0.0, 0.0, 0.0, 0.0, 0.0, 0.0, 1.6878028908793547E9, 0.0, 2023-06-26 13:08:10.879
145.0, 47305.23196521187, 50097.43423431328, 57089.14930691115, -3040.3513360442325, -6199.256324679413, -9087.526391449737, 20264.29268888148, 13609.038425569348, 0.018000000000000002, 0.992, 0.076, 192.0, 0.0, 0.0, 0.0, 0.0, 0.0, 0.0, 0.0, 0.0, 0.0, 1.687802890883456E9, 0.0, 2023-06-26 13:08:10.883
170.0, 47303.823805311185, 50119.6295165574, 57094.73724302498, -3020.8606148792046, -6200.75389155792, -9078.362176223061, 20267.891319738785, 13621.711864675506, 0.018000000000000002, 0.992, 0.076, 192.0, 0.0, 0.0, 0.0, 0.0, 0.0, 0.0, 0.0, 0.0, 0.0, 1.6878028908864007E9, 0.0, 2023-06-26 13:08:10.886
147.0, 47247.40800230599, 50048.461562211705, 59302.553153342385, -3134.0498488008798, -6274.693462216075, -9187.505744398326, 20188.453219944622, 13513.350607556178, 0.018000000000000002, 0.992, 0.076, 192.0, 0.0, 0.0, 0.0, 0.0, 0.0, 0.0, 0.0, 0.0, 0.0, 1.6878028908904133E9, 0.0, 2023-06-26 13:08:10.890
168.0, 47243.71996447086, 50058.49749547213, 59384.15937234872, -3125.042095785391, -6282.002482652961, -9181.135497228563, 20183.222911742083, 13515.742244212895, 0.018000000000000002, 0.992, 0.076, 192.0, 0.0, 0.0, 0.0, 0.0, 0.0, 0.0, 0.0, 0.0, 0.0, 1.6878028908934076E9, 0.0, 2023-06-26 13:08:10.893
149.0, 47311.669267615, 50112.409903098334, 56923.41112177505, -3026.917937626593, -6192.640208320643, -9068.88503657401, 20268.02543020552, 13624.751701921428, 0.018000000000000002, 0.992, 0.076, 192.0, 0.0, 0.0, 0.0, 0.0, 0.0, 0.0, 0.0, 0.0, 0.0, 1.6878028908964446E9, 0.0, 2023-06-26 13:08:10.896
150.0, 47284.89187775754, 50087.599466752945, 57826.10867334708, -3095.224868682011, -6233.94623207405, -9143.852787477112, 20225.825336673897, 13555.081314454237, 0.018000000000000002, 0.992, 0.076, 192.0, 0.0, 0.0, 0.0, 0.0, 0.0, 0.0, 0.0, 0.0, 0.0, 1.6878028909004707E9, 0.0, 2023-06-26 13:08:10.900
166.0, 47288.1105289591, 50099.08826340298, 57273.12651552278, -3055.3940600626543, -6209.5828306177655, -9102.949095123899, 20253.25092712056, 13595.537971918342, 0.018000000000000002, 0.992, 0.076, 192.0, 0.0, 0.0, 0.0, 0.0, 0.0, 0.0, 0.0, 0.0, 0.0, 1.6878028909034836E9, 0.0, 2023-06-26 13:08:10.903
188.0, 47274.74418577483, 50105.34675185046, 58264.135809437736, -3087.8040895228496, -6248.005479336439, -9161.845941763633, 20222.58433372788, 13544.10660792668, 0.018000000000000002, 0.992, 0.076, 192.0, 0.0, 0.0, 0.0, 0.0, 0.0, 0.0, 0.0, 0.0, 0.0, 1.6878028909065013E9, 0.0, 2023-06-26 13:08:10.906
153.0, 47308.45061641343, 50102.23985937117, 56839.100341689635, -3021.2629462794002, -6192.9084292541065, -9059.385545180505, 20272.004040718562, 13630.27258280189, 0.018000000000000002, 0.992, 0.076, 192.0, 0.0, 0.0, 0.0, 0.0, 0.0, 0.0, 0.0, 0.0, 0.0, 1.6878028909105103E9, 0.0, 2023-06-26 13:08:10.910
156.0, 47273.91717122998, 50067.10291708743, 58826.79627261118, -3101.7068745740503, -6268.904360402151, -9148.94898521292, 20197.975063082584, 13537.848119479195, 0.018000000000000002, 0.992, 0.076, 192.0, 0.0, 0.0, 0.0, 0.0, 0.0, 0.0, 0.0, 0.0, 0.0, 1.6878028909135213E9, 0.0, 2023-06-26 13:08:10.913
186.0, 47322.97925030938, 50138.270871433124, 56990.82398305226, -3003.0015710594143, -6204.419577648589, -9064.884074316511, 20258.05655217845, 13619.901373374627, 0.018000000000000002, 0.992, 0.076, 192.0, 0.0, 0.0, 0.0, 0.0, 0.0, 0.0, 0.0, 0.0, 0.0, 1.687802890916532E9, 0.0, 2023-06-26 13:08:10.916
162.0, 47288.848136526125, 50094.99789416765, 57431.645087199824, -3064.021833422403, -6213.673199853087, -9110.392226027516, 20256.33546785539, 13589.97238754897, 0.014, 0.99, 0.07200000000000001, 192.0, 0.0, 112.0, 30.0, 240.0, 2.0, 64.0, 0.0, 0.0, 0.0, 1.6878028909205818E9, 0.0, 2023-06-26 13:08:10.920
184.0, 47262.227208879856, 50090.751062721145, 58526.433530620765, -3104.634953097696, -6256.8344183962845, -9168.037374977754, 20214.828278401885, 13536.194090389501, 0.014, 0.99, 0.07200000000000001, 192.0, 0.0, 0.0, 0.0, 0.0, 0.0, 0.0, 0.0, 0.0, 0.0, 1.6878028909235923E9, 0.0, 2023-06-26 13:08:10.923
180.0, 47263.43420308044, 50093.85795520043, 58790.407632637936, -3104.970229264525, -6260.634214953687, -9165.511627854303, 20208.972121354596, 13534.227136877435, 0.014, 0.99, 0.07200000000000001, 192.0, 0.0, 0.0, 0.0, 0.0, 0.0, 0.0, 0.0, 0.0, 0.0, 1.6878028909266067E9, 0.0, 2023-06-26 13:08:10.926
181.0, 47275.41473810849, 50091.46631854372, 58868.30346206468, -3084.5407348323747, -6276.347491305768, -9147.294956123229, 20193.638824658254, 13539.189224146514, 0.014, 0.99, 0.07200000000000001, 192.0, 0.0, 0.0, 0.0, 0.0, 0.0, 0.0, 0.0, 0.0, 0.0, 1.687802890930613E9, 0.0, 2023-06-26 13:08:10.930
182.0, 47316.27372697279, 50131.38653414089, 56842.34134463565, -3002.085149536747, -6200.619781091187, -9058.647937613481, 20266.05847669345, 13629.289106045855, 0.028, 0.99, 0.078, 192.0, 0.0, 224.0, 30.0, 240.0, 2.0, 112.0, 0.0, 0.0, 0.0, 1.687802890933638E9, 0.0, 2023-06-26 13:08:10.933
189.0, 47244.904606927, 50074.65780671332, 59345.78142711895, -3111.4075316676535, -6290.362035079245, -9171.8148197907, 20189.32493797838, 13521.888973938105, 0.028, 0.99, 0.078, 192.0, 0.0, 0.0, 0.0, 0.0, 0.0, 0.0, 0.0, 0.0, 0.0, 1.6878028909376607E9, 0.0, 2023-06-26 13:08:10.937
190.0, 47309.59055538065, 50127.49733060567, 57286.6716726627, -3017.753722399917, -6227.218356993003, -9079.077432045631, 20236.33065656789, 13596.320282974279, 0.028, 0.99, 0.078, 192.0, 0.0, 0.0, 0.0, 0.0, 0.0, 0.0, 0.0, 0.0, 0.0, 1.687802890940666E9, 0.0, 2023-06-26 13:08:10.940
191.0, 47298.97347676438, 50129.84426377348, 57229.78648302394, -3021.911146868604, -6205.626571849176, -9079.055080301176, 20268.651279050264, 13615.520431461387, 0.028, 0.99, 0.078, 192.0, 0.0, 0.0, 0.0, 0.0, 0.0, 0.0, 0.0, 0.0, 0.0, 1.6878028909436677E9, 0.0, 2023-06-26 13:08:10.943
192.0, 47285.40596788001, 50114.645077543864, 58068.1557140536, -3071.84494398176, -6242.372839733701, -9137.773112985267, 20227.501717508047, 13554.567224331764, 0.03, 0.986, 0.084, 192.0, 0.0, 240.0, 30.0, 208.0, 2.0, 160.0, 0.0, 0.0, 0.0, 1.6878028909477108E9, 0.0, 2023-06-26 13:08:10.947
193.0, 47253.80060122021, 50086.79480395256, 59355.39267723473, -3102.019798996425, -6284.371767565223, -9165.086944709652, 20193.8176386139, 13524.280610594824, 0.03, 0.986, 0.084, 192.0, 0.0, 0.0, 0.0, 0.0, 0.0, 0.0, 0.0, 0.0, 0.0, 1.6878028909507139E9, 0.0, 2023-06-26 13:08:10.950
194.0, 47312.45157867093, 50130.246595173674, 57681.93992161035, -3024.4592457365093, -6245.300918257346, -9089.60510368408, 20221.265580805015, 13577.857742054195, 0.03, 0.986, 0.084, 192.0, 0.0, 0.0, 0.0, 0.0, 0.0, 0.0, 0.0, 0.0, 0.0, 1.6878028909547467E9, 0.0, 2023-06-26 13:08:10.954
195.0, 47315.84904382814, 50146.71983083723, 57047.977393624475, -3006.667257150085, -6203.816080548297, -9061.665423114948, 20273.72512504162, 13630.674914202085, 0.03, 0.986, 0.084, 192.0, 0.0, 0.0, 0.0, 0.0, 0.0, 0.0, 0.0, 0.0, 0.0, 1.6878028909577394E9, 0.0, 2023-06-26 13:08:10.957
196.0, 47293.09496797263, 50124.54690033757, 57919.22604074789, -3074.951836461048, -6245.077400812794, -9138.510720552293, 20227.367607041313, 13555.953032487992, 0.03, 0.986, 0.084, 192.0, 0.0, 0.0, 0.0, 0.0, 0.0, 0.0, 0.0, 0.0, 0.0, 1.6878028909607747E9, 0.0, 2023-06-26 13:08:10.960
197.0, 47258.986205933834, 50095.06494940102, 59228.34536175077, -3103.025627496914, -6278.068575628827, -9167.590340088647, 20199.651443916733, 13527.275744351835, 0.03, 0.986, 0.084, 192.0, 0.0, 0.0, 0.0, 0.0, 0.0, 0.0, 0.0, 0.0, 0.0, 1.687802890963785E9, 0.0, 2023-06-26 13:08:10.963
198.0, 47306.2154419679, 50128.6819730618, 58113.485051808966, -3044.5534640018304, -6258.5331509748885, -9115.734292952335, 20209.732080666075, 13554.947203987504, 0.03, 0.986, 0.084, 192.0, 0.0, 0.0, 0.0, 0.0, 0.0, 0.0, 0.0, 0.0, 0.0, 1.6878028909677927E9, 0.0, 2023-06-26 13:08:10.967
199.0, 47323.180416009476, 50155.36995594144, 56881.456897432436, -2996.87719307866, -6197.982275245461, -9062.291271959695, 20276.720258798632, 13625.019922854892, 0.03, 0.986, 0.084, 192.0, 0.0, 0.0, 0.0, 0.0, 0.0, 0.0, 0.0, 0.0, 0.0, 1.6878028909818711E9, 0.0, 2023-06-26 13:08:10.981
200.0, 47295.576011607176, 50131.855920774455, 57786.076699027624, -3058.1880281195677, -6237.18723502007, -9124.585583756636, 20244.44433980517, 13571.331032673244, 0.03, 0.986, 0.084, 192.0, 0.0, 0.0, 0.0, 0.0, 0.0, 0.0, 0.0, 0.0, 0.0, 1.6878028909848826E9, 0.0, 2023-06-26 13:08:10.984
201.0, 47261.26608386828, 50101.77047273761, 59006.906629432044, -3094.911944259637, -6263.495238243966, -9159.186084173452, 20220.595028471354, 13537.82576773474, 0.03, 0.986, 0.084, 192.0, 0.0, 0.0, 0.0, 0.0, 0.0, 0.0, 0.0, 0.0, 0.0, 1.6878028909888961E9, 0.0, 2023-06-26 13:08:10.988
202.0, 47282.38848237854, 50110.39824609736, 58573.34984223245, -3066.7710979904055, -6270.312520302835, -9128.430083802949, 20212.369586511802, 13552.130884186136, 0.03, 0.986, 0.084, 192.0, 0.0, 0.0, 0.0, 0.0, 0.0, 0.0, 0.0, 0.0, 0.0, 1.6878028909919174E9, 0.0, 2023-06-26 13:08:10.991
203.0, 47316.050209528235, 50147.34567968198, 56825.041094427244, -2997.9724285569705, -6196.060025222305, -9052.054172999166, 20284.185741446705, 13636.307553804822, 0.028, 0.984, 0.08, 192.0, 0.0, 224.0, 30.0, 192.0, 2.0, 128.0, 0.0, 0.0, 0.0, 1.6878028909949405E9, 0.0, 2023-06-26 13:08:10.994
204.0, 47290.680979571465, 50127.11735094993, 57663.63384290145, -3059.1938566200565, -6226.99483954845, -9113.99085688482, 20258.97297370112, 13583.06569851228, 0.028, 0.984, 0.08, 192.0, 0.0, 0.0, 0.0, 0.0, 0.0, 0.0, 0.0, 0.0, 0.0, 1.687802890998988E9, 0.0, 2023-06-26 13:08:10.998
205.0, 47260.97551119036, 50099.66940875881, 58743.64778323744, -3103.8079385528495, -6257.348508518757, -9161.331851641162, 20224.506583751034, 13538.809244490772, 0.028, 0.984, 0.08, 192.0, 0.0, 0.0, 0.0, 0.0, 0.0, 0.0, 0.0, 0.0, 0.0, 1.6878028910019636E9, 0.0, 2023-06-26 13:08:11.001
206.0, 47261.243732123825, 50088.940571420266, 58979.83866689666, -3102.1539094631567, -6284.461174543045, -9166.38334588806, 20196.65631015972, 13524.124148383637, 0.028, 0.984, 0.08, 192.0, 0.0, 0.0, 0.0, 0.0, 0.0, 0.0, 0.0, 0.0, 0.0, 1.6878028910059693E9, 0.0, 2023-06-26 13:08:11.005
207.0, 47313.882090316074, 50135.05222023156, 56864.00018501285, -3008.7459693844285, -6201.647961336132, -9062.31362370415, 20268.181892416706, 13619.901373374627, 0.028, 0.984, 0.08, 192.0, 0.0, 0.0, 0.0, 0.0, 0.0, 0.0, 0.0, 0.0, 0.0, 1.6878028910089898E9, 0.0, 2023-06-26 13:08:11.008
