%OpenBCI Raw EEG Data
%Number of channels = 8
%Sample Rate = 250 Hz
%Board = OpenBCI_GUI$BoardCytonSerial
Sample Index, EXG Channel 0, EXG Channel 1, EXG Channel 2, EXG Channel 3, EXG Channel 4, EXG Channel 5, EXG Channel 6, EXG Channel 7, Accel Channel 0, Accel Channel 1, Accel Channel 2, Other, Other, Other, Other, Other, Other, Other, Analog Channel 0, Analog Channel 1, Analog Channel 2, Timestamp, Other, Timestamp (Formatted)
160.0, 52294.38719682541, 50189.50106972469, 22190.230749873015, -26684.160731334774, -3575.8767814489347, -13952.741200058605, 22452.573174544952, 6733.887700305903, 0.0, 0.0, 0.0, 192.0, 0.0, 0.0, 0.0, 0.0, 0.0, 0.0, 0.0, 0.0, 0.0, 1.687804797706117E9, 0.0, 2023-06-26 13:39:57.706
161.0, 52325.120845451456, 50224.906232941896, 22232.922581782652, -26701.975071665656, -3462.285216127064, -13949.611955834862, 22482.569215603973, 6723.09180773399, 0.0, 0.0, 0.0, 192.0, 0.0, 0.0, 0.0, 0.0, 0.0, 0.0, 0.0, 0.0, 0.0, 1.6878047977061512E9, 0.0, 2023-06-26 13:39:57.706
162.0, 52338.24131944672, 50196.11718608346, 22189.336680094802, -26822.093346368474, -3484.726367560192, -14117.227687505208, 22378.94652830917, 6602.459442908698, 0.0, 0.0, 0.0, 192.0, 0.0, 0.0, 0.0, 0.0, 0.0, 0.0, 0.0, 0.0, 0.0, 1.6878047977061677E9, 0.0, 2023-06-26 13:39:57.706
163.0, 52328.2500896752, 50175.21830501775, 22160.324115791813, -26803.809619404034, -3572.345205824996, -14114.053739792555, 22356.013638498025, 6619.089140783446, 0.0, 0.0, 0.0, 192.0, 0.0, 0.0, 0.0, 0.0, 0.0, 0.0, 0.0, 0.0, 0.0, 1.6878047977061832E9, 0.0, 2023-06-26 13:39:57.706
164.0, 52304.66899927485, 50190.88687788092, 22188.10733414976, -26697.46001928568, -3586.3597495984736, -13964.677031597737, 22447.83460472043, 6727.204528713767, 0.03, 0.918, 0.38, 192.0, 0.0, 240.0, 28.0, 176.0, 11.0, 224.0, 0.0, 0.0, 0.0, 1.6878047977061987E9, 0.0, 2023-06-26 13:39:57.706
165.0, 52314.45906334628, 50216.61373574898, 22233.347264927303, -26691.067420371466, -3483.7205390597037, -13929.85301373637, 22503.870428069884, 6732.85952006096, 0.03, 0.918, 0.38, 192.0, 0.0, 0.0, 0.0, 0.0, 0.0, 0.0, 0.0, 0.0, 0.0, 1.6878047977062173E9, 0.0, 2023-06-26 13:39:57.706
166.0, 52339.381258413945, 50204.67790420984, 22202.859485490262, -26798.914587368323, -3465.8838469843686, -14080.012032987122, 22410.417784502242, 6621.860757095905, 0.03, 0.918, 0.38, 192.0, 0.0, 0.0, 0.0, 0.0, 0.0, 0.0, 0.0, 0.0, 0.0, 1.6878047977062333E9, 0.0, 2023-06-26 13:39:57.706
167.0, 52334.620336844964, 50179.6439504199, 22170.069476374327, -26816.661872465836, -3558.1965515847864, -14122.659161407848, 22363.233251957092, 6609.768463345584, 0.03, 0.918, 0.38, 192.0, 0.0, 0.0, 0.0, 0.0, 0.0, 0.0, 0.0, 0.0, 0.0, 1.6878047977062483E9, 0.0, 2023-06-26 13:39:57.706
168.0, 52305.183089397324, 50182.817898132555, 22187.34737483828, -26719.141211407332, -3594.831060747035, -13986.112354530378, 22444.325380840946, 6716.475691375219, 0.03, 0.918, 0.38, 192.0, 0.0, 0.0, 0.0, 0.0, 0.0, 0.0, 0.0, 0.0, 0.0, 1.687804797706264E9, 0.0, 2023-06-26 13:39:57.706
169.0, 52293.6942927473, 50197.5476977286, 22214.795317029395, -26694.911920417777, -3514.834167341491, -13929.294220124988, 22491.755782575106, 6734.4017904283755, 0.03, 0.918, 0.38, 192.0, 0.0, 0.0, 0.0, 0.0, 0.0, 0.0, 0.0, 0.0, 0.0, 1.6878047977062807E9, 0.0, 2023-06-26 13:39:57.706
170.0, 52325.120845451456, 50198.57587797355, 22215.48822110751, -26787.381087229383, -3457.5913497914494, -14052.407628584819, 22429.72969171163, 6642.670231183795, 0.03, 0.918, 0.38, 192.0, 0.0, 0.0, 0.0, 0.0, 0.0, 0.0, 0.0, 0.0, 0.0, 1.6878047977062979E9, 0.0, 2023-06-26 13:39:57.706
171.0, 52334.88855777843, 50180.47096496475, 22178.250214844968, -26819.8805236674, -3529.251042515164, -14117.384149716396, 22374.163254995736, 6618.7091611277065, 0.03, 0.918, 0.38, 192.0, 0.0, 0.0, 0.0, 0.0, 0.0, 0.0, 0.0, 0.0, 0.0, 1.6878047977063143E9, 0.0, 2023-06-26 13:39:57.706
172.0, 52299.99748468369, 50173.20664801677, 22169.91301416314, -26740.53183085106, -3600.1284241829426, -14010.453404242207, 22423.00181663058, 6700.963580723236, 0.03, 0.918, 0.38, 192.0, 0.0, 0.0, 0.0, 0.0, 0.0, 0.0, 0.0, 0.0, 0.0, 1.6878047977063296E9, 0.0, 2023-06-26 13:39:57.706
173.0, 52295.191859625804, 50201.86158440848, 22208.045090203894, -26678.304574287486, -3526.41237096934, -13914.452661806663, 22503.73631760315, 6756.440610461308, 0.03, 0.918, 0.38, 192.0, 0.0, 0.0, 0.0, 0.0, 0.0, 0.0, 0.0, 0.0, 0.0, 1.6878047977063453E9, 0.0, 2023-06-26 13:39:57.706
174.0, 52327.35601989699, 50212.948049658306, 22230.82151780385, -26755.172223469286, -3450.3717363323854, -14012.800337410014, 22457.24468913611, 6675.03555715508, 0.03, 0.916, 0.382, 192.0, 0.0, 240.0, 28.0, 160.0, 11.0, 240.0, 0.0, 0.0, 0.0, 1.6878047977063675E9, 0.0, 2023-06-26 13:39:57.706
175.0, 52339.02363050266, 50187.35530225698, 22204.155886668672, -26817.198314332763, -3513.895394074368, -14119.731082884204, 22369.156464237745, 6613.300038969522, 0.03, 0.916, 0.382, 192.0, 0.0, 0.0, 0.0, 0.0, 0.0, 0.0, 0.0, 0.0, 0.0, 1.687804797706386E9, 0.0, 2023-06-26 13:39:57.706
176.0, 52313.721455779254, 50180.73918589821, 22191.884778962707, -26741.71647330719, -3589.1984211442973, -14027.194860839232, 22413.234104303614, 6691.061757929535, 0.03, 0.916, 0.382, 192.0, 0.0, 0.0, 0.0, 0.0, 0.0, 0.0, 0.0, 0.0, 0.0, 1.6878047977066102E9, 0.0, 2023-06-26 13:39:57.706
177.0, 52293.78369972512, 50197.726511684246, 22221.72435781054, -26672.22489979564, -3537.6552984303594, -13910.876382693814, 22504.451573425722, 6762.944968097802, 0.03, 0.916, 0.382, 192.0, 0.0, 0.0, 0.0, 0.0, 0.0, 0.0, 0.0, 0.0, 0.0, 1.6878047977066271E9, 0.0, 2023-06-26 13:39:57.706
178.0, 52314.19084241281, 50205.57197398806, 22229.413357903166, -26744.95747625321, -3457.8372189804577, -13995.142459290322, 22471.08041895395, 6684.490345059675, 0.03, 0.916, 0.382, 192.0, 0.0, 0.0, 0.0, 0.0, 0.0, 0.0, 0.0, 0.0, 0.0, 1.687804797706643E9, 0.0, 2023-06-26 13:39:57.706
179.0, 52345.058601505596, 50198.754691929185, 22217.276360663935, -26800.948596113754, -3494.4940798871617, -14107.83995483398, 22389.585958669897, 6621.011390806603, 0.03, 0.916, 0.382, 192.0, 0.0, 0.0, 0.0, 0.0, 0.0, 0.0, 0.0, 0.0, 0.0, 1.6878047977066607E9, 0.0, 2023-06-26 13:39:57.706
180.0, 52317.67771454784, 50181.40973823187, 22190.34250859529, -26748.645514088337, -3580.123612895443, -14044.338648836452, 22403.466391976643, 6681.919894447315, 0.03, 0.916, 0.382, 192.0, 0.0, 0.0, 0.0, 0.0, 0.0, 0.0, 0.0, 0.0, 0.0, 1.6878047977066777E9, 0.0, 2023-06-26 13:39:57.706
181.0, 52297.516441049156, 50202.08510185303, 22210.660244305163, -26660.356123489873, -3559.7164702077475, -13916.017283918534, 22483.060953981992, 6767.8623518779705, 0.03, 0.916, 0.382, 192.0, 0.0, 0.0, 0.0, 0.0, 0.0, 0.0, 0.0, 0.0, 0.0, 1.6878047977066922E9, 0.0, 2023-06-26 13:39:57.706
182.0, 52320.426979115844, 50220.97232591776, 22233.30256143839, -26704.67963274475, -3463.0451754385444, -13955.043429737501, 22484.133837715846, 6722.622421100428, 0.03, 0.916, 0.382, 192.0, 0.0, 0.0, 0.0, 0.0, 0.0, 0.0, 0.0, 0.0, 0.0, 1.6878047977067132E9, 0.0, 2023-06-26 13:39:57.706
183.0, 52336.587290357034, 50195.31252328307, 22194.83520923081, -26812.482096252694, -3493.063568242022, -14106.677664122304, 22379.86294983184, 6617.345704715933, 0.03, 0.916, 0.382, 192.0, 0.0, 0.0, 0.0, 0.0, 0.0, 0.0, 0.0, 0.0, 0.0, 1.6878047977067287E9, 0.0, 2023-06-26 13:39:57.706
184.0, 52316.671886047356, 50170.68090089332, 22160.458226258546, -26788.9233575968, -3594.0711014355543, -14091.523181381606, 22362.830920556895, 6643.854873639927, 0.03, 0.916, 0.382, 192.0, 0.0, 0.0, 0.0, 0.0, 0.0, 0.0, 0.0, 0.0, 0.0, 1.6878047977067444E9, 0.0, 2023-06-26 13:39:57.706
185.0, 52294.5436590366, 50186.55063945659, 22186.922691693628, -26677.499911487095, -3588.9972554441997, -13940.581851074918, 22458.988125203625, 6748.751610368683, 0.03, 0.918, 0.376, 192.0, 0.0, 240.0, 28.0, 176.0, 11.0, 192.0, 0.0, 0.0, 0.0, 1.6878047977067592E9, 0.0, 2023-06-26 13:39:57.706
186.0, 52311.709798778276, 50211.629296735446, 22224.808898545372, -26687.401734280797, -3479.4290041242843, -13935.396246361286, 22489.07357324047, 6733.597127627984, 0.03, 0.918, 0.376, 192.0, 0.0, 0.0, 0.0, 0.0, 0.0, 0.0, 0.0, 0.0, 0.0, 1.6878047977067828E9, 0.0, 2023-06-26 13:39:57.706
187.0, 52344.276290449656, 50202.532136742135, 22213.87889550673, -26791.06912506451, -3470.8235825089914, -14085.421155145306, 22409.85899089086, 6631.516710700597, 0.03, 0.918, 0.376, 192.0, 0.0, 0.0, 0.0, 0.0, 0.0, 0.0, 0.0, 0.0, 0.0, 1.6878047977067983E9, 0.0, 2023-06-26 13:39:57.706
188.0, 52324.696162306805, 50172.02200556064, 22160.14530183617, -26799.987471102177, -3580.3247785955405, -14112.243248491675, 22367.368324681323, 6629.281536255066, 0.03, 0.918, 0.376, 192.0, 0.0, 0.0, 0.0, 0.0, 0.0, 0.0, 0.0, 0.0, 0.0, 1.6878047977068145E9, 0.0, 2023-06-26 13:39:57.706
189.0, 52292.48729854671, 50181.25327602068, 22171.298822319368, -26699.069344886466, -3608.2197556757637, -13972.723659601648, 22443.140738384813, 6729.372647925931, 0.03, 0.918, 0.376, 192.0, 0.0, 0.0, 0.0, 0.0, 0.0, 0.0, 0.0, 0.0, 0.0, 1.6878047977068312E9, 0.0, 2023-06-26 13:39:57.706
190.0, 52304.713702763765, 50211.15991010188, 22224.048939233893, -26682.372591778352, -3500.7749200791027, -13929.249516636077, 22501.590550135443, 6745.95764231177, 0.03, 0.918, 0.376, 192.0, 0.0, 0.0, 0.0, 0.0, 0.0, 0.0, 0.0, 0.0, 0.0, 1.687804797706849E9, 0.0, 2023-06-26 13:39:57.706
191.0, 52340.32003168107, 50209.7517502012, 22223.35603515578, -26773.16537775581, -3453.344518344941, -14056.140369908855, 22437.418691804254, 6654.65076621184, 0.03, 0.918, 0.376, 192.0, 0.0, 0.0, 0.0, 0.0, 0.0, 0.0, 0.0, 0.0, 0.0, 1.687804797706867E9, 0.0, 2023-06-26 13:39:57.706
192.0, 52330.64172633192, 50178.72752889723, 22167.67783971761, -26801.775610658602, -3550.574606725527, -14112.690283380782, 22376.130208507802, 6627.135768787357, 0.03, 0.918, 0.376, 192.0, 0.0, 0.0, 0.0, 0.0, 0.0, 0.0, 0.0, 0.0, 0.0, 1.6878047977070112E9, 0.0, 2023-06-26 13:39:57.707
193.0, 52297.44938581579, 50178.52636319713, 22171.6340984862, -26708.345318835418, -3604.9116974963786, -13987.520514431062, 22441.889040695318, 6724.723485079227, 0.03, 0.918, 0.376, 192.0, 0.0, 0.0, 0.0, 0.0, 0.0, 0.0, 0.0, 0.0, 0.0, 1.687804797707028E9, 0.0, 2023-06-26 13:39:57.707
194.0, 52304.289019619115, 50211.048151379604, 22226.775852057443, -26667.061646826467, -3513.8730423299126, -13912.597467016873, 22512.319387473988, 6761.134476796923, 0.03, 0.918, 0.376, 192.0, 0.0, 0.0, 0.0, 0.0, 0.0, 0.0, 0.0, 0.0, 0.0, 1.6878047977070453E9, 0.0, 2023-06-26 13:39:57.707
195.0, 52338.93422352484, 50213.79741594761, 22234.06252074987, -26758.033246759565, -3447.0189746640895, -14033.654514986816, 22456.64119203582, 6667.614777995918, 0.028, 0.912, 0.374, 192.0, 0.0, 224.0, 28.0, 128.0, 11.0, 176.0, 0.0, 0.0, 0.0, 1.687804797707072E9, 0.0, 2023-06-26 13:39:57.707
196.0, 52332.251051932704, 50177.96756958575, 22181.737086979996, -26808.704651439748, -3540.2704525316303, -14131.599859189972, 22374.52088290702, 6608.583820889452, 0.028, 0.912, 0.374, 192.0, 0.0, 0.0, 0.0, 0.0, 0.0, 0.0, 0.0, 0.0, 0.0, 1.68780479770709E9, 0.0, 2023-06-26 13:39:57.707
197.0, 52293.940161936305, 50166.9928630582, 22168.34839205127, -26729.020682456576, -3609.180880687342, -14026.479605016662, 22422.420671274744, 6693.878077730904, 0.028, 0.912, 0.374, 192.0, 0.0, 0.0, 0.0, 0.0, 0.0, 0.0, 0.0, 0.0, 0.0, 1.6878047977071068E9, 0.0, 2023-06-26 13:39:57.707
198.0, 52294.16367938086, 50200.18520357433, 22215.73409029652, -26668.201585793686, -3532.0003070831667, -13918.297161852975, 22505.256236226112, 6760.821552374548, 0.028, 0.912, 0.374, 192.0, 0.0, 0.0, 0.0, 0.0, 0.0, 0.0, 0.0, 0.0, 0.0, 1.6878047977071247E9, 0.0, 2023-06-26 13:39:57.707
199.0, 52322.9974297282, 50207.89655541141, 22228.519288124953, -26744.733958808658, -3453.545684045039, -14018.343570034931, 22457.66937228076, 6670.632263497385, 0.028, 0.912, 0.374, 192.0, 0.0, 0.0, 0.0, 0.0, 0.0, 0.0, 0.0, 0.0, 0.0, 1.687804797707142E9, 0.0, 2023-06-26 13:39:57.707
200.0, 52339.42596190285, 50189.12109006895, 22198.50089532148, -26799.428677490792, -3511.1684812508206, -14118.904068339358, 22381.114647521335, 6618.30682972751, 0.028, 0.912, 0.374, 192.0, 0.0, 0.0, 0.0, 0.0, 0.0, 0.0, 0.0, 0.0, 0.0, 1.6878047977071595E9, 0.0, 2023-06-26 13:39:57.707
201.0, 52307.641781287406, 50171.016177060155, 22172.885796175695, -26741.157679695807, -3602.2965433951076, -14040.49414879014, 22407.422650745233, 6684.825621226504, 0.028, 0.912, 0.374, 192.0, 0.0, 0.0, 0.0, 0.0, 0.0, 0.0, 0.0, 0.0, 0.0, 1.6878047977071764E9, 0.0, 2023-06-26 13:39:57.707
202.0, 52295.57183928155, 50198.1511948289, 22214.817668773852, -26659.104425800375, -3555.4919905056945, -13915.972580429625, 22494.21447446519, 6764.733107654227, 0.028, 0.912, 0.374, 192.0, 0.0, 0.0, 0.0, 0.0, 0.0, 0.0, 0.0, 0.0, 0.0, 1.6878047977072067E9, 0.0, 2023-06-26 13:39:57.707
203.0, 52317.498900592196, 50209.349418801, 22233.190802716115, -26722.96335970919, -3465.3250533729856, -13986.67114814176, 22467.258270652088, 6691.955827707748, 0.028, 0.912, 0.374, 192.0, 0.0, 0.0, 0.0, 0.0, 0.0, 0.0, 0.0, 0.0, 0.0, 1.687804797707227E9, 0.0, 2023-06-26 13:39:57.707
204.0, 52327.981868741736, 50176.112374795965, 22185.268662603936, -26819.54524750057, -3514.700056874759, -14134.259716780152, 22358.539385621476, 6591.752957314606, 0.028, 0.912, 0.374, 192.0, 0.0, 0.0, 0.0, 0.0, 0.0, 0.0, 0.0, 0.0, 0.0, 1.687804797707242E9, 0.0, 2023-06-26 13:39:57.707
205.0, 52307.95470570978, 50163.14836301188, 22157.038409356883, -26772.0701422775, -3606.8786510084456, -14081.822524288002, 22361.221594956114, 6642.111437572413, 0.026000000000000002, 0.914, 0.378, 192.0, 0.0, 208.0, 28.0, 144.0, 11.0, 208.0, 0.0, 0.0, 0.0, 1.6878047977072585E9, 0.0, 2023-06-26 13:39:57.707
220.0, 52336.43082814584, 50214.602078748, 22231.559125370877, -26751.35007516743, -3453.389221833852, -14037.051980144022, 22449.153357643292, 6666.676004728795, 0.026000000000000002, 0.914, 0.378, 192.0, 0.0, 0.0, 0.0, 0.0, 0.0, 0.0, 0.0, 0.0, 0.0, 1.687804797707275E9, 0.0, 2023-06-26 13:39:57.707
218.0, 52302.21030738477, 50180.448613220295, 22191.54950279588, -26701.550388521006, -3598.116767181965, -13999.545752948017, 22443.431311062734, 6719.292011176588, 0.026000000000000002, 0.914, 0.378, 192.0, 0.0, 0.0, 0.0, 0.0, 0.0, 0.0, 0.0, 0.0, 0.0, 1.6878047977073195E9, 0.0, 2023-06-26 13:39:57.707
208.0, 52346.62322361746, 50203.73913094272, 22211.554314083376, -26790.711497153225, -3482.6029518369382, -14102.989626287179, 22394.52569419452, 6617.479815182664, 0.026000000000000002, 0.914, 0.378, 192.0, 0.0, 0.0, 0.0, 0.0, 0.0, 0.0, 0.0, 0.0, 0.0, 1.6878047977073357E9, 0.0, 2023-06-26 13:39:57.707
211.0, 52312.98384821223, 50213.21627059177, 22237.951724285096, -26684.13837959032, -3482.8488210259466, -13939.799540018981, 22494.68386109875, 6736.435799173809, 0.026000000000000002, 0.914, 0.378, 192.0, 0.0, 0.0, 0.0, 0.0, 0.0, 0.0, 0.0, 0.0, 0.0, 1.6878047977073512E9, 0.0, 2023-06-26 13:39:57.707
216.0, 52340.11886598097, 50208.5000525117, 22226.664093335163, -26761.67658110578, -3452.070468910989, -14055.291003619554, 22434.06593013596, 6656.12598134589, 0.026000000000000002, 0.914, 0.378, 192.0, 0.0, 0.0, 0.0, 0.0, 0.0, 0.0, 0.0, 0.0, 0.0, 1.6878047977073677E9, 0.0, 2023-06-26 13:39:57.707
213.0, 52337.72722932425, 50182.393214987904, 22178.786656711898, -26775.981697557178, -3552.5639119820494, -14094.764184327625, 22387.171970268726, 6644.279556784578, 0.026000000000000002, 0.914, 0.378, 192.0, 0.0, 0.0, 0.0, 0.0, 0.0, 0.0, 0.0, 0.0, 0.0, 1.6878047977073848E9, 0.0, 2023-06-26 13:39:57.707
214.0, 52306.30067662009, 50187.288247023615, 22196.466886576043, -26675.28708878602, -3589.6454560334037, -13960.497255384596, 22462.63145954984, 6744.080095777524, 0.026000000000000002, 0.914, 0.378, 192.0, 0.0, 0.0, 0.0, 0.0, 0.0, 0.0, 0.0, 0.0, 0.0, 1.6878047977074E9, 0.0, 2023-06-26 13:39:57.707
221.0, 52332.4522176328, 50180.82859287603, 22184.016964914437, -26802.73673567018, -3533.9672605952337, -14130.75049290067, 22382.209882999647, 6615.289344226044, 0.026000000000000002, 0.914, 0.378, 192.0, 0.0, 0.0, 0.0, 0.0, 0.0, 0.0, 0.0, 0.0, 0.0, 1.6878047977074175E9, 0.0, 2023-06-26 13:39:57.707
222.0, 52305.406606841876, 50177.02879631863, 22179.971299168028, -26718.940045707233, -3605.604601574493, -14019.10352934641, 22429.707339967175, 6705.433929614298, 0.026000000000000002, 0.914, 0.378, 192.0, 0.0, 0.0, 0.0, 0.0, 0.0, 0.0, 0.0, 0.0, 0.0, 1.6878047977074337E9, 0.0, 2023-06-26 13:39:57.707
223.0, 52299.34928409449, 50204.87906990994, 22225.59120960131, -26652.823585608436, -3534.7495716511694, -13912.66452225024, 22510.084213028458, 6769.561084456574, 0.026000000000000002, 0.914, 0.378, 192.0, 0.0, 0.0, 0.0, 0.0, 0.0, 0.0, 0.0, 0.0, 0.0, 1.68780479770745E9, 0.0, 2023-06-26 13:39:57.707
237.0, 52329.92647050935, 50190.84217439201, 22215.465869363055, -26769.83496783197, -3477.6855680567705, -14074.714669551215, 22413.792897914995, 6643.229024795178, 0.026000000000000002, 0.914, 0.378, 192.0, 0.0, 0.0, 0.0, 0.0, 0.0, 0.0, 0.0, 0.0, 0.0, 1.6878047977074664E9, 0.0, 2023-06-26 13:39:57.707
225.0, 52330.90994726538, 50182.88495336592, 22187.77205798293, -26807.765878172624, -3523.059609301044, -14125.810757376046, 22368.46356015963, 6609.746111601128, 0.026000000000000002, 0.914, 0.378, 192.0, 0.0, 0.0, 0.0, 0.0, 0.0, 0.0, 0.0, 0.0, 0.0, 1.6878047977074833E9, 0.0, 2023-06-26 13:39:57.707
228.0, 52309.56403131057, 50205.59432573251, 22223.557200855877, -26722.56102830899, -3475.7856697780694, -13982.178447506243, 22480.93753825874, 6703.735197035694, 0.026000000000000002, 0.914, 0.378, 192.0, 0.0, 0.0, 0.0, 0.0, 0.0, 0.0, 0.0, 0.0, 0.0, 1.6878047977075007E9, 0.0, 2023-06-26 13:39:57.707
229.0, 52327.288964663625, 50183.533153955126, 22187.302671349367, -26809.218741562217, -3515.8176440975244, -14122.212126518742, 22374.990269540584, 6613.568259902985, 0.026000000000000002, 0.914, 0.378, 192.0, 0.0, 0.0, 0.0, 0.0, 0.0, 0.0, 0.0, 0.0, 0.0, 1.6878047977075167E9, 0.0, 2023-06-26 13:39:57.707
234.0, 52332.385162399434, 50187.46706097926, 22163.76628443793, -26777.21104350222, -3598.362636370973, -14100.150954741355, 22372.039839272482, 6636.814074136505, 0.026000000000000002, 0.914, 0.378, 192.0, 0.0, 0.0, 0.0, 0.0, 0.0, 0.0, 0.0, 0.0, 0.0, 1.687804797707532E9, 0.0, 2023-06-26 13:39:57.707
231.0, 52281.4902402747, 50183.108470810475, 22185.313366092847, -26674.795350408003, -3600.240182905219, -13935.37389461683, 22475.64017482283, 6751.009136558669, 0.026000000000000002, 0.914, 0.378, 192.0, 0.0, 0.0, 0.0, 0.0, 0.0, 0.0, 0.0, 0.0, 0.0, 1.687804797707548E9, 0.0, 2023-06-26 13:39:57.707
232.0, 52312.35799936748, 50217.37369506046, 22218.483354864522, -26693.503760517095, -3486.8050797945357, -13950.036638979513, 22485.78786680554, 6723.829415301016, 0.026000000000000002, 0.914, 0.378, 192.0, 0.0, 0.0, 0.0, 0.0, 0.0, 0.0, 0.0, 0.0, 0.0, 1.6878047977075639E9, 0.0, 2023-06-26 13:39:57.707
238.0, 52306.72535976474, 50147.70330759326, 22163.453360015556, -26788.878654107888, -3578.6483977613925, -14115.148975270866, 22368.03887701498, 6630.846158366938, 0.026000000000000002, 0.914, 0.378, 192.0, 0.0, 0.0, 0.0, 0.0, 0.0, 0.0, 0.0, 0.0, 0.0, 1.6878047977076745E9, 0.0, 2023-06-26 13:39:57.707
239.0, 52271.00727212516, 50145.915168036845, 22189.739011494996, -26685.9488708912, -3605.179918429842, -13973.237749724121, 22459.21164264818, 6737.508682907664, 0.026000000000000002, 0.914, 0.378, 192.0, 0.0, 0.0, 0.0, 0.0, 0.0, 0.0, 0.0, 0.0, 0.0, 1.6878047977076955E9, 0.0, 2023-06-26 13:39:57.707
240.0, 52274.1365163489, 50167.28343573611, 22233.481375394033, -26668.916841616257, -3509.2462312276643, -13919.571211286928, 22504.228055981166, 6754.227787760233, 0.026000000000000002, 0.914, 0.378, 192.0, 0.0, 0.0, 0.0, 0.0, 0.0, 0.0, 0.0, 0.0, 0.0, 1.6878047977077131E9, 0.0, 2023-06-26 13:39:57.707
241.0, 52298.902249205385, 50154.989976285695, 22213.409508873166, -26774.998220801142, -3472.54466683205, -14061.840064744958, 22420.00668287357, 6646.693545185751, 0.026000000000000002, 0.914, 0.378, 192.0, 0.0, 0.0, 0.0, 0.0, 0.0, 0.0, 0.0, 0.0, 0.0, 1.6878047977077303E9, 0.0, 2023-06-26 13:39:57.707
242.0, 52290.40858631237, 50115.78501651109, 22170.71767696353, -26815.70074745426, -3556.408412028362, -14131.599859189972, 22371.212824727634, 6618.150367516323, 0.026000000000000002, 0.914, 0.378, 192.0, 0.0, 0.0, 0.0, 0.0, 0.0, 0.0, 0.0, 0.0, 0.0, 1.687804797707748E9, 0.0, 2023-06-26 13:39:57.707
243.0, 52264.27939704411, 50117.26023164514, 22188.44261031659, -26719.990577696633, -3611.796034788613, -14007.748843163115, 22436.792842959505, 6716.743912308683, 0.026000000000000002, 0.914, 0.378, 192.0, 0.0, 0.0, 0.0, 0.0, 0.0, 0.0, 0.0, 0.0, 0.0, 1.6878047977077644E9, 0.0, 2023-06-26 13:39:57.707
244.0, 52256.79156265158, 50134.69459232028, 22221.3443781548, -26675.600013208394, -3529.5863186819934, -13924.04156017799, 22505.16682924829, 6758.474619206741, 0.026000000000000002, 0.914, 0.378, 192.0, 0.0, 0.0, 0.0, 0.0, 0.0, 0.0, 0.0, 0.0, 0.0, 1.6878047977077813E9, 0.0, 2023-06-26 13:39:57.707
245.0, 52280.171487351836, 50128.0337724726, 22221.903171766186, -26765.230508474175, -3468.7895737635586, -14040.047113901033, 22445.241802363613, 6663.345594804954, 0.026000000000000002, 0.914, 0.378, 192.0, 0.0, 0.0, 0.0, 0.0, 0.0, 0.0, 0.0, 0.0, 0.0, 1.6878047977078001E9, 0.0, 2023-06-26 13:39:57.707
246.0, 52291.280304346124, 50104.85501347244, 22176.484427033, -26819.053509122554, -3544.4949322336834, -14135.220841791732, 22368.195339226168, 6615.982248304159, 0.024, 0.916, 0.374, 192.0, 0.0, 192.0, 28.0, 160.0, 11.0, 176.0, 0.0, 0.0, 0.0, 1.687804797707817E9, 0.0, 2023-06-26 13:39:57.707
247.0, 52247.381478235904, 50080.49161201616, 22162.67104895962, -26746.544450109537, -3619.3062209255963, -14042.97519242468, 22411.557723469465, 6693.878077730904, 0.024, 0.916, 0.374, 192.0, 0.0, 0.0, 0.0, 0.0, 0.0, 0.0, 0.0, 0.0, 0.0, 1.6878047977078357E9, 0.0, 2023-06-26 13:39:57.707
248.0, 52236.18325426379, 50103.133929149386, 22203.887665735205, -26678.32692603194, -3560.5211330081383, -13932.244650393088, 22489.11827672938, 6755.904168594381, 0.024, 0.916, 0.374, 192.0, 0.0, 0.0, 0.0, 0.0, 0.0, 0.0, 0.0, 0.0, 0.0, 1.6878047977078545E9, 0.0, 2023-06-26 13:39:57.707
82.0, 52283.77011820914, 50092.4721470442, 22163.900394904664, -26817.086555610487, -3608.2644591646745, -14196.755194277192, 22349.889260517273, 6580.331215897944, 0.024, 0.918, 0.384, 192.0, 0.0, 192.0, 28.0, 176.0, 12.0, 0.0, 0.0, 0.0, 0.0, 1.6878047977078702E9, 0.0, 2023-06-26 13:39:57.707
83.0, 52249.415486981336, 50087.48770803067, 22162.693400704076, -26727.52311557807, -3668.636520938459, -14084.147105711354, 22414.664615948754, 6666.877170428893, 0.024, 0.918, 0.384, 192.0, 0.0, 0.0, 0.0, 0.0, 0.0, 0.0, 0.0, 0.0, 0.0, 1.6878047977078872E9, 0.0, 2023-06-26 13:39:57.707
84.0, 52258.289129530094, 50126.3797433829, 22213.856543762275, -26668.670972427248, -3577.6202175164485, -13983.00546205109, 22503.535151903052, 6722.421255400331, 0.024, 0.918, 0.384, 192.0, 0.0, 0.0, 0.0, 0.0, 0.0, 0.0, 0.0, 0.0, 0.0, 1.6878047977079039E9, 0.0, 2023-06-26 13:39:57.707
85.0, 52286.72054847724, 50128.54786259507, 22215.39881412969, -26751.797110056534, -3509.5591556500385, -14090.0256145031, 22446.091168652914, 6653.197902822245, 0.024, 0.918, 0.384, 192.0, 0.0, 0.0, 0.0, 0.0, 0.0, 0.0, 0.0, 0.0, 0.0, 1.6878047977079182E9, 0.0, 2023-06-26 13:39:57.707
125.0, 52253.43880098329, 50105.88319371739, 22205.452287847078, -26682.88668190082, -3646.307128227607, -14011.839212398436, 22469.180520675247, 6719.85080478797, 0.024, 0.918, 0.384, 192.0, 0.0, 0.0, 0.0, 0.0, 0.0, 0.0, 0.0, 0.0, 0.0, 1.6878047977079759E9, 0.0, 2023-06-26 13:39:57.707
87.0, 52263.89941738838, 50092.11451913292, 22171.544691508378, -26727.880743489357, -3651.380974218962, -14086.717556323714, 22426.86866842135, 6679.394147323865, 0.024, 0.918, 0.384, 192.0, 0.0, 0.0, 0.0, 0.0, 0.0, 0.0, 0.0, 0.0, 0.0, 1.6878047977079947E9, 0.0, 2023-06-26 13:39:57.707
123.0, 52297.516441049156, 50122.982278225696, 22222.059633977373, -26779.379162714384, -3529.988650082189, -14144.206243062765, 22425.527563754033, 6616.988076804648, 0.028, 0.924, 0.374, 192.0, 0.0, 224.0, 28.0, 224.0, 11.0, 176.0, 0.0, 0.0, 0.0, 1.687804797708012E9, 0.0, 2023-06-26 13:39:57.708
89.0, 52286.51938277714, 50132.414714385835, 22229.055729991884, -26722.672787031268, -3497.9138967888234, -14054.106361163422, 22469.471093353164, 6674.7673362216165, 0.028, 0.924, 0.374, 192.0, 0.0, 0.0, 0.0, 0.0, 0.0, 0.0, 0.0, 0.0, 0.0, 1.6878047977080307E9, 0.0, 2023-06-26 13:39:57.708
147.0, 52268.05684185706, 50130.7830370406, 22238.085834751826, -26736.240295915642, -3531.240347771686, -13983.966587062669, 22483.55269236001, 6701.991760968181, 0.028, 0.924, 0.374, 192.0, 0.0, 0.0, 0.0, 0.0, 0.0, 0.0, 0.0, 0.0, 0.0, 1.6878047977080483E9, 0.0, 2023-06-26 13:39:57.708
91.0, 52274.337682049, 50096.38370232388, 22176.05974388835, -26732.261685402595, -3648.9446340733334, -14102.877867564901, 22399.4877814636, 6661.311586059522, 0.028, 0.924, 0.374, 192.0, 0.0, 0.0, 0.0, 0.0, 0.0, 0.0, 0.0, 0.0, 0.0, 1.6878047977080677E9, 0.0, 2023-06-26 13:39:57.708
92.0, 52252.79060039409, 50115.226222899706, 22216.851677519284, -26653.71765538665, -3606.833947519535, -13978.222188737655, 22495.801448321516, 6743.677764377328, 0.028, 0.924, 0.374, 192.0, 0.0, 0.0, 0.0, 0.0, 0.0, 0.0, 0.0, 0.0, 0.0, 1.687804797708085E9, 0.0, 2023-06-26 13:39:57.708
145.0, 52282.92075191984, 50096.137833134875, 22185.20160737057, -26808.30232003955, -3627.531662885149, -14118.144109027877, 22376.733705608094, 6630.913213600304, 0.028, 0.924, 0.374, 192.0, 0.0, 0.0, 0.0, 0.0, 0.0, 0.0, 0.0, 0.0, 0.0, 1.687804797708104E9, 0.0, 2023-06-26 13:39:57.708
143.0, 52271.54371399209, 50130.96185099624, 22246.892422067216, -26750.813633300502, -3520.4221034553175, -14016.466023500685, 22476.109561456393, 6680.914065946826, 0.028, 0.924, 0.374, 192.0, 0.0, 0.0, 0.0, 0.0, 0.0, 0.0, 0.0, 0.0, 0.0, 1.6878047977081256E9, 0.0, 2023-06-26 13:39:57.708
141.0, 52261.0383940981, 50084.738443462666, 22179.4348573011, -26801.797962403056, -3647.558825917104, -14117.585315416494, 22385.76381036804, 6638.222234037189, 0.028, 0.924, 0.374, 192.0, 0.0, 0.0, 0.0, 0.0, 0.0, 0.0, 0.0, 0.0, 0.0, 1.6878047977081428E9, 0.0, 2023-06-26 13:39:57.708
96.0, 52252.075344571516, 50109.280658874595, 22213.454212362078, -26667.88866137131, -3621.04965699311, -13987.475810942151, 22484.335003415945, 6745.041220789101, 0.028, 0.924, 0.374, 192.0, 0.0, 0.0, 0.0, 0.0, 0.0, 0.0, 0.0, 0.0, 0.0, 1.687804797708171E9, 0.0, 2023-06-26 13:39:57.708
230.0, 52261.977167365214, 50162.969549056244, 22234.040169005417, -26672.649582940292, -3569.1042028789766, -13942.347638886886, 22517.08030904297, 6751.947909825792, 0.028, 0.924, 0.374, 192.0, 0.0, 0.0, 0.0, 0.0, 0.0, 0.0, 0.0, 0.0, 0.0, 1.6878047977081885E9, 0.0, 2023-06-26 13:39:57.708
231.0, 52287.592266511, 50166.657586891364, 22251.87686108075, -26748.9137350218, -3499.2997049450523, -14038.594250511438, 22472.68974455473, 6674.208542610234, 0.028, 0.924, 0.374, 192.0, 0.0, 0.0, 0.0, 0.0, 0.0, 0.0, 0.0, 0.0, 0.0, 1.6878047977082076E9, 0.0, 2023-06-26 13:39:57.708
232.0, 52290.56504852355, 50136.99682199917, 22212.895418750697, -26807.095325838964, -3566.2431795886973, -14140.004115105166, 22393.631624416306, 6615.512861670597, 0.028, 0.924, 0.374, 192.0, 0.0, 0.0, 0.0, 0.0, 0.0, 0.0, 0.0, 0.0, 0.0, 1.687804797708225E9, 0.0, 2023-06-26 13:39:57.708
233.0, 52264.68172844431, 50132.23590043019, 22196.24336913149, -26731.8593540024, -3646.508293927705, -14049.300736105532, 22433.64124699131, 6692.179345152301, 0.028, 0.924, 0.374, 192.0, 0.0, 0.0, 0.0, 0.0, 0.0, 0.0, 0.0, 0.0, 0.0, 1.6878047977082424E9, 0.0, 2023-06-26 13:39:57.708
234.0, 52264.927597633316, 50165.16002001286, 22251.027494791448, -26654.74583563159, -3584.9739414422443, -13929.025999191523, 22521.952989334226, 6764.57664544304, 0.028, 0.924, 0.374, 192.0, 0.0, 0.0, 0.0, 0.0, 0.0, 0.0, 0.0, 0.0, 0.0, 1.687804797708258E9, 0.0, 2023-06-26 13:39:57.708
235.0, 52286.96641766625, 50173.3407584835, 22262.315125741377, -26721.62225504187, -3495.768129321114, -14004.507840217095, 22498.193084978233, 6692.872249230415, 0.028, 0.924, 0.374, 192.0, 0.0, 0.0, 0.0, 0.0, 0.0, 0.0, 0.0, 0.0, 0.0, 1.6878047977083037E9, 0.0, 2023-06-26 13:39:57.708
236.0, 52290.76621422365, 50136.59449059898, 22213.007177472973, -26810.179866573795, -3557.4365922733064, -14142.328696528519, 22396.85027561787, 6605.275762710066, 0.008, 0.93, 0.34400000000000003, 192.0, 0.0, 64.0, 29.0, 16.0, 10.0, 192.0, 0.0, 0.0, 0.0, 1.6878047977083228E9, 0.0, 2023-06-26 13:39:57.708
237.0, 52259.63023419741, 50114.42156009931, 22177.378496811212, -26766.14692999684, -3660.0087475787104, -14088.103364479945, 22404.360461754855, 6657.93647264677, 0.008, 0.93, 0.34400000000000003, 192.0, 0.0, 0.0, 0.0, 0.0, 0.0, 0.0, 0.0, 0.0, 0.0, 1.6878047977083414E9, 0.0, 2023-06-26 13:39:57.708
238.0, 52260.27843478661, 50154.05120301857, 22222.68548282212, -26666.391094492807, -3618.568613358571, -13944.783979032514, 22507.02202403808, 6752.931386581825, 0.008, 0.93, 0.34400000000000003, 192.0, 0.0, 0.0, 0.0, 0.0, 0.0, 0.0, 0.0, 0.0, 0.0, 1.6878047977083583E9, 0.0, 2023-06-26 13:39:57.708
239.0, 52280.372653051934, 50168.71394738126, 22258.895308839717, -26710.826362469958, -3507.860423071435, -13990.649758654805, 22501.50114315762, 6703.064644702035, 0.008, 0.93, 0.34400000000000003, 192.0, 0.0, 0.0, 0.0, 0.0, 0.0, 0.0, 0.0, 0.0, 0.0, 1.6878047977083735E9, 0.0, 2023-06-26 13:39:57.708
240.0, 52291.32500783503, 50139.343755166985, 22217.3434158973, -26804.904854882345, -3535.12955130691, -14134.0361993356, 22403.82401988793, 6611.981286046659, 0.008, 0.93, 0.34400000000000003, 192.0, 0.0, 0.0, 0.0, 0.0, 0.0, 0.0, 0.0, 0.0, 0.0, 1.6878047977083888E9, 0.0, 2023-06-26 13:39:57.708
241.0, 52269.42029826884, 50118.53428107909, 22198.702061021577, -26771.73486611067, -3629.4315611638503, -14104.151916998855, 22400.359499497357, 6644.480722484675, 0.008, 0.93, 0.34400000000000003, 192.0, 0.0, 0.0, 0.0, 0.0, 0.0, 0.0, 0.0, 0.0, 0.0, 1.6878047977084036E9, 0.0, 2023-06-26 13:39:57.708
242.0, 52263.050051099075, 50151.413697172844, 22237.951724285096, -26659.90908860077, -3612.9136220113783, -13950.707191313171, 22503.155172247312, 6753.311366237565, 0.008, 0.93, 0.34400000000000003, 192.0, 0.0, 0.0, 0.0, 0.0, 0.0, 0.0, 0.0, 0.0, 0.0, 1.6878047977084181E9, 0.0, 2023-06-26 13:39:57.708
243.0, 52274.96353089375, 50167.48460143621, 22260.83991060733, -26687.289975558517, -3514.990629552678, -13962.754781574582, 22524.389329479854, 6726.109293235457, 0.008, 0.93, 0.34400000000000003, 192.0, 0.0, 0.0, 0.0, 0.0, 0.0, 0.0, 0.0, 0.0, 0.0, 1.6878047977084332E9, 0.0, 2023-06-26 13:39:57.708
244.0, 52290.05095840108, 50140.84132204549, 22228.87691603624, -26797.59583444546, -3522.478463945206, -14118.188812516788, 22431.495479523597, 6619.670286139284, 0.008, 0.93, 0.34400000000000003, 192.0, 0.0, 0.0, 0.0, 0.0, 0.0, 0.0, 0.0, 0.0, 0.0, 1.6878047977084565E9, 0.0, 2023-06-26 13:39:57.708
245.0, 52266.51457148964, 50106.84431872897, 22175.72446772152, -26803.675508937304, -3630.9738315312666, -14143.490987240195, 22386.76963886853, 6609.589649389941, 0.008, 0.93, 0.34400000000000003, 192.0, 0.0, 0.0, 0.0, 0.0, 0.0, 0.0, 0.0, 0.0, 0.0, 1.6878047977084725E9, 0.0, 2023-06-26 13:39:57.708
246.0, 52249.79546663707, 50128.65962131735, 22204.06647969085, -26698.37644080835, -3649.3022619846183, -13998.852848869903, 22473.78498003304, 6711.200679683767, 0.01, 0.934, 0.34600000000000003, 192.0, 0.0, 80.0, 29.0, 48.0, 10.0, 208.0, 0.0, 0.0, 0.0, 1.6878047977084897E9, 0.0, 2023-06-26 13:39:57.708
247.0, 52262.7371266767, 50159.616787387946, 22257.174224516657, -26688.452266270193, -3540.2033972982645, -13955.155188459777, 22528.23382952617, 6732.971278783236, 0.01, 0.934, 0.34600000000000003, 192.0, 0.0, 0.0, 0.0, 0.0, 0.0, 0.0, 0.0, 0.0, 0.0, 1.6878047977085075E9, 0.0, 2023-06-26 13:39:57.708
248.0, 52285.558257765566, 50147.50214189317, 22239.22577371905, -26782.798979616044, -3509.0450655275663, -14090.919684281313, 22454.093093167914, 6640.680925927273, 0.01, 0.934, 0.34600000000000003, 192.0, 0.0, 0.0, 0.0, 0.0, 0.0, 0.0, 0.0, 0.0, 0.0, 1.687804797708528E9, 0.0, 2023-06-26 13:39:57.708
249.0, 52268.50387674617, 50110.1300251639, 22192.242406873993, -26804.30135778205, -3606.6551335638924, -14143.245118051187, 22394.2351215166, 6616.496338426631, 0.01, 0.934, 0.34600000000000003, 192.0, 0.0, 0.0, 0.0, 0.0, 0.0, 0.0, 0.0, 0.0, 0.0, 1.6878047977085452E9, 0.0, 2023-06-26 13:39:57.708
250.0, 52260.47960048671, 50134.381667897906, 22216.20347693008, -26693.32494656145, -3640.0709915245766, -14006.340683262431, 22471.05806720949, 6718.174423953823, 0.01, 0.934, 0.34600000000000003, 192.0, 0.0, 0.0, 0.0, 0.0, 0.0, 0.0, 0.0, 0.0, 0.0, 1.6878047977085624E9, 0.0, 2023-06-26 13:39:57.708
251.0, 52277.2881123171, 50175.71004339577, 22269.3559252448, -26653.56119317546, -3540.5833769540045, -13928.154281157767, 22542.158966321822, 6759.793372129604, 0.01, 0.934, 0.34600000000000003, 192.0, 0.0, 0.0, 0.0, 0.0, 0.0, 0.0, 0.0, 0.0, 0.0, 1.687804797708599E9, 0.0, 2023-06-26 13:39:57.708
252.0, 52289.179240367324, 50157.42631643132, 22246.266573222467, -26761.58717412796, -3497.399806666351, -14056.386239097863, 22472.600337576907, 6662.518580260108, 0.01, 0.934, 0.34600000000000003, 192.0, 0.0, 0.0, 0.0, 0.0, 0.0, 0.0, 0.0, 0.0, 0.0, 1.6878047977086103E9, 0.0, 2023-06-26 13:39:57.708
253.0, 52280.81968794104, 50119.18248166829, 22197.182142398615, -26810.626901462903, -3581.107089651476, -14148.453074509272, 22396.67146166223, 6611.064864523991, 0.01, 0.934, 0.34600000000000003, 192.0, 0.0, 0.0, 0.0, 0.0, 0.0, 0.0, 0.0, 0.0, 0.0, 1.6878047977086213E9, 0.0, 2023-06-26 13:39:57.708
254.0, 52252.2318067827, 50115.76266476663, 22193.24823537448, -26724.43857484324, -3654.7784393761685, -14044.964497681201, 22437.44104354871, 6690.6147230404285, 0.01, 0.934, 0.34600000000000003, 192.0, 0.0, 0.0, 0.0, 0.0, 0.0, 0.0, 0.0, 0.0, 0.0, 1.6878047977086315E9, 0.0, 2023-06-26 13:39:57.708
255.0, 52257.26094928515, 50153.71592685174, 22240.58923013082, -26667.061646826467, -3581.732938496225, -13947.957926745168, 22520.701291644727, 6746.516435923152, 0.01, 0.934, 0.34600000000000003, 192.0, 0.0, 0.0, 0.0, 0.0, 0.0, 0.0, 0.0, 0.0, 0.0, 1.6878047977086425E9, 0.0, 2023-06-26 13:39:57.708
0.0, 52283.12191761994, 50160.6896711218, 22256.391913460724, -26736.866144760388, -3501.7807485795915, -14040.851776701425, 22479.149398702313, 6663.077373871491, 0.01, 0.934, 0.34600000000000003, 192.0, 0.0, 0.0, 0.0, 0.0, 0.0, 0.0, 0.0, 0.0, 0.0, 1.6878047977086535E9, 0.0, 2023-06-26 13:39:57.708
1.0, 52286.40762405487, 50127.653792816855, 22215.53292459642, -26796.701764667247, -3566.42199354434, -14146.150844830376, 22395.129191294815, 6601.945352786226, 0.008, 0.932, 0.34600000000000003, 192.0, 0.0, 64.0, 29.0, 32.0, 10.0, 208.0, 0.0, 0.0, 0.0, 1.6878047977086644E9, 0.0, 2023-06-26 13:39:57.708
2.0, 52264.59232146649, 50123.898699748366, 22202.501857578976, -26729.244199901128, -3649.81635210709, -14061.705954278226, 22433.753005713585, 6686.32318810501, 0.008, 0.932, 0.34600000000000003, 192.0, 0.0, 0.0, 0.0, 0.0, 0.0, 0.0, 0.0, 0.0, 0.0, 1.687804797708676E9, 0.0, 2023-06-26 13:39:57.708
3.0, 52264.994652866684, 50161.51668566665, 22248.769968601464, -26642.36296920335, -3592.8417554905127, -13932.244650393088, 22532.413605739308, 6766.856523377482, 0.008, 0.932, 0.34600000000000003, 192.0, 0.0, 0.0, 0.0, 0.0, 0.0, 0.0, 0.0, 0.0, 0.0, 1.6878047977086868E9, 0.0, 2023-06-26 13:39:57.708
4.0, 52287.41345255536, 50171.75378462717, 22275.726172414565, -26703.785562966536, -3499.8808503008904, -14000.81980238197, 22509.50306767262, 6698.728406277705, 0.008, 0.932, 0.34600000000000003, 192.0, 0.0, 0.0, 0.0, 0.0, 0.0, 0.0, 0.0, 0.0, 0.0, 1.6878047977086973E9, 0.0, 2023-06-26 13:39:57.708
5.0, 52286.49703103269, 50129.35252539546, 22220.338549654312, -26799.093401323964, -3550.127571836421, -14141.971068617233, 22411.535371725007, 6605.901611554816, 0.008, 0.932, 0.34600000000000003, 192.0, 0.0, 0.0, 0.0, 0.0, 0.0, 0.0, 0.0, 0.0, 0.0, 1.687804797708708E9, 0.0, 2023-06-26 13:39:57.708
30.0, 52289.98390316772, 50130.00072598466, 22219.980921743027, -26801.239168791675, -3553.770906182636, -14153.102237355977, 22413.211752559157, 6600.581896374452, 0.008, 0.932, 0.34600000000000003, 192.0, 0.0, 0.0, 0.0, 0.0, 0.0, 0.0, 0.0, 0.0, 0.0, 1.687804797708718E9, 0.0, 2023-06-26 13:39:57.708
7.0, 52259.51847547513, 50149.35733668296, 22241.282134208934, -26651.907164085766, -3622.726037827258, -13954.417580892752, 22510.97828280667, 6749.265700491154, 0.008, 0.932, 0.34600000000000003, 192.0, 0.0, 0.0, 0.0, 0.0, 0.0, 0.0, 0.0, 0.0, 0.0, 1.6878047977087286E9, 0.0, 2023-06-26 13:39:57.708
8.0, 52285.17827810982, 50173.98895907271, 22269.132407800247, -26678.7963126655, -3517.3375627204855, -13978.378650948842, 22522.534134690064, 6713.435854129298, 0.008, 0.932, 0.34600000000000003, 192.0, 0.0, 0.0, 0.0, 0.0, 0.0, 0.0, 0.0, 0.0, 0.0, 1.6878047977087393E9, 0.0, 2023-06-26 13:39:57.708
28.0, 52265.844019155986, 50157.3369094535, 22255.58725066033, -26645.380454704817, -3609.38204638744, -13949.164920945756, 22523.048224812537, 6755.278319749632, 0.008, 0.932, 0.34600000000000003, 192.0, 0.0, 0.0, 0.0, 0.0, 0.0, 0.0, 0.0, 0.0, 0.0, 1.6878047977087543E9, 0.0, 2023-06-26 13:39:57.708
10.0, 52284.4406705428, 50132.86174927494, 22214.705910051576, -26752.9146972793, -3630.795017575624, -14101.827335575503, 22422.130098596823, 6653.667289455806, 0.008, 0.932, 0.34600000000000003, 192.0, 0.0, 0.0, 0.0, 0.0, 0.0, 0.0, 0.0, 0.0, 0.0, 1.6878047977088256E9, 0.0, 2023-06-26 13:39:57.708
26.0, 52282.898400175385, 50117.930783978794, 22203.954720968573, -26807.229436305697, -3572.1663918693534, -14161.171217104342, 22410.775412413528, 6602.839422564438, 0.008, 0.932, 0.34600000000000003, 192.0, 0.0, 0.0, 0.0, 0.0, 0.0, 0.0, 0.0, 0.0, 0.0, 1.6878047977088363E9, 0.0, 2023-06-26 13:39:57.708
12.0, 52291.906153190874, 50191.87035463695, 22265.153797287203, -26671.710809673168, -3531.2626995161418, -13957.211548949666, 22538.046245342048, 6732.077209005023, 0.008, 0.932, 0.34600000000000003, 192.0, 0.0, 0.0, 0.0, 0.0, 0.0, 0.0, 0.0, 0.0, 0.0, 1.6878047977088468E9, 0.0, 2023-06-26 13:39:57.708
76.0, 52203.63911433687, 50032.99415504863, 22203.753555268475, -26799.898064124354, -3583.56578154156, -14171.698888742792, 22414.597560715385, 6608.673227867273, 0.008, 0.932, 0.34600000000000003, 192.0, 0.0, 0.0, 0.0, 0.0, 0.0, 0.0, 0.0, 0.0, 0.0, 1.6878047977088614E9, 0.0, 2023-06-26 13:39:57.708
92.0, 52147.58093924296, 50029.641393380334, 22219.600942087287, -26755.976886269676, -3535.6436414293817, -14103.83899257648, 22471.818026520974, 6647.811132408516, 0.008, 0.932, 0.34600000000000003, 192.0, 0.0, 0.0, 0.0, 0.0, 0.0, 0.0, 0.0, 0.0, 0.0, 1.687804797708872E9, 0.0, 2023-06-26 13:39:57.708
74.0, 52200.35340790194, 50091.6227807549, 22246.15481450019, -26645.60397214937, -3619.1944622033197, -13964.38645891982, 22520.298960244534, 6747.499912679185, 0.008, 0.932, 0.34600000000000003, 192.0, 0.0, 0.0, 0.0, 0.0, 0.0, 0.0, 0.0, 0.0, 0.0, 1.6878047977088823E9, 0.0, 2023-06-26 13:39:57.708
22.0, 52292.66611250235, 50123.183443925795, 22213.63302631772, -26793.818389632514, -3597.088586937021, -14153.482217011717, 22378.655955631253, 6602.235925464145, 0.008, 0.932, 0.34600000000000003, 192.0, 0.0, 0.0, 0.0, 0.0, 0.0, 0.0, 0.0, 0.0, 0.0, 1.687804797708893E9, 0.0, 2023-06-26 13:39:57.708
19.0, 52258.713812674745, 50122.714057292236, 22209.20738091557, -26702.690327488224, -3669.8435151390454, -14027.284267817053, 22444.571250029952, 6701.969409223725, 0.008, 0.932, 0.34600000000000003, 192.0, 0.0, 0.0, 0.0, 0.0, 0.0, 0.0, 0.0, 0.0, 0.0, 1.6878047977089033E9, 0.0, 2023-06-26 13:39:57.708
72.0, 52213.02684700809, 50049.154466289816, 22187.123857393726, -26810.470439251716, -3603.19061317332, -14184.9981766937, 22392.782258127005, 6590.478907880653, -0.012, 0.934, 0.336, 192.0, 255.0, 160.0, 29.0, 48.0, 10.0, 128.0, 0.0, 0.0, 0.0, 1.6878047977089138E9, 0.0, 2023-06-26 13:39:57.708
31.0, 52269.77792618012, 50117.036714200585, 22202.01011920096, -26758.659095604315, -3649.05639279561, -14108.309341467542, 22415.513982238055, 6645.151274818334, 0.002, 0.924, 0.34400000000000003, 192.0, 0.0, 16.0, 28.0, 224.0, 10.0, 192.0, 0.0, 0.0, 0.0, 1.6878047977089248E9, 0.0, 2023-06-26 13:39:57.708
90.0, 52103.995037555105, 49990.436433605726, 22179.881892190206, -26703.696155988713, -3693.759881706224, -14057.213253642709, 22464.374895617355, 6703.198755168767, 0.002, 0.924, 0.34400000000000003, 192.0, 0.0, 0.0, 0.0, 0.0, 0.0, 0.0, 0.0, 0.0, 0.0, 1.687804797708936E9, 0.0, 2023-06-26 13:39:57.708
47.0, 52291.146193879395, 50124.658659059845, 22219.377424642735, -26787.582252929482, -3588.885496721923, -14167.13913287391, 22396.760868640053, 6596.849155050416, 0.002, 0.924, 0.34400000000000003, 192.0, 0.0, 0.0, 0.0, 0.0, 0.0, 0.0, 0.0, 0.0, 0.0, 1.6878047977089536E9, 0.0, 2023-06-26 13:39:57.708
34.0, 52307.17239465385, 50157.13574375341, 22232.721416082553, -26779.379162714384, -3523.12666453441, -14125.07314980902, 22437.95513367118, 6621.905460584815, 0.002, 0.924, 0.34400000000000003, 192.0, 0.0, 0.0, 0.0, 0.0, 0.0, 0.0, 0.0, 0.0, 0.0, 1.6878047977089684E9, 0.0, 2023-06-26 13:39:57.708
88.0, 52141.16598858428, 50006.7532070581, 22212.269569905948, -26776.80871210202, -3542.1927025547866, -14129.342332999986, 22465.045447951015, 6629.370943232888, 0.002, 0.924, 0.34400000000000003, 192.0, 0.0, 0.0, 0.0, 0.0, 0.0, 0.0, 0.0, 0.0, 0.0, 1.687804797708984E9, 0.0, 2023-06-26 13:39:57.708
36.0, 52261.79835340958, 50143.322365680026, 22236.700026595598, -26662.054856068477, -3641.1885787473416, -13980.189142249721, 22498.751878589617, 6730.33377293751, 0.002, 0.924, 0.34400000000000003, 192.0, 0.0, 0.0, 0.0, 0.0, 0.0, 0.0, 0.0, 0.0, 0.0, 1.6878047977089996E9, 0.0, 2023-06-26 13:39:57.708
154.0, 51861.67977591512, 50375.66874929294, 21636.242763548227, -24933.393291639484, -3817.3203250551614, -12327.076474079666, 23577.357659024914, 7258.3490322052285, 0.002, 0.924, 0.34400000000000003, 192.0, 0.0, 0.0, 0.0, 0.0, 0.0, 0.0, 0.0, 0.0, 0.0, 1.687804797719134E9, 0.0, 2023-06-26 13:39:57.719
0.0, 51891.4970030185, 50405.66479035196, 21662.640173749947, -24964.730437365823, -3717.8997657179557, -12334.765474172293, 23589.29349056405, 7222.139206187631, 0.002, 0.924, 0.34400000000000003, 192.0, 0.0, 0.0, 0.0, 0.0, 0.0, 0.0, 0.0, 0.0, 0.0, 1.6878047977231328E9, 0.0, 2023-06-26 13:39:57.723
1.0, 51981.596884917846, 50470.149573105526, 21650.6596387219, -25026.734176484846, -3718.145634906964, -12439.215176011941, 23520.539524619526, 7142.790513371291, 0.126, 0.9420000000000001, 0.27, 192.0, 3.0, 240.0, 29.0, 112.0, 8.0, 112.0, 0.0, 0.0, 0.0, 1.6878047977281532E9, 0.0, 2023-06-26 13:39:57.728
2.0, 51962.8661230643, 50447.68606992794, 21623.41286223088, -25010.52916175475, -3806.4797289943376, -12442.255013257864, 23521.679463586745, 7169.120868339643, 0.126, 0.9420000000000001, 0.27, 192.0, 0.0, 0.0, 0.0, 0.0, 0.0, 0.0, 0.0, 0.0, 0.0, 1.687804797732165E9, 0.0, 2023-06-26 13:39:57.732
3.0, 51867.08889807331, 50376.22754290433, 21622.697606408314, -24955.543870394693, -3832.161883373485, -12347.707134211914, 23582.587967227457, 7246.390848921639, 0.126, 0.9420000000000001, 0.27, 192.0, 0.0, 0.0, 0.0, 0.0, 0.0, 0.0, 0.0, 0.0, 0.0, 1.6878047977361977E9, 0.0, 2023-06-26 13:39:57.736
4.0, 51882.533953491926, 50394.98065650233, 21657.34281031404, -24959.969515796845, -3732.3613443805393, -12312.547840183717, 23604.42562156029, 7242.948680275522, 0.126, 0.9420000000000001, 0.27, 192.0, 0.0, 0.0, 0.0, 0.0, 0.0, 0.0, 0.0, 0.0, 0.0, 1.6878047977422533E9, 0.0, 2023-06-26 13:39:57.742
5.0, 51969.99632954554, 50459.19721832243, 21647.19511833133, -25039.452319079915, -3704.0640359001204, -12424.150100249064, 23539.806728339998, 7146.880882606612, 0.126, 0.9420000000000001, 0.27, 192.0, 0.0, 0.0, 0.0, 0.0, 0.0, 0.0, 0.0, 0.0, 0.0, 1.6878047977452393E9, 0.0, 2023-06-26 13:39:57.745
6.0, 51973.32673946938, 50452.44699149692, 21619.791879629123, -25046.493118583337, -3787.570153185148, -12467.713650192458, 23515.331568161437, 7153.072315820732, 0.126, 0.9420000000000001, 0.27, 192.0, 0.0, 0.0, 0.0, 0.0, 0.0, 0.0, 0.0, 0.0, 0.0, 1.687804797748255E9, 0.0, 2023-06-26 13:39:57.748
7.0, 51876.52133423345, 50377.63570280501, 21611.99112081422, -24989.18324579993, -3842.3766305895606, -12364.82857046468, 23558.649248915823, 7226.229575422952, 0.126, 0.9420000000000001, 0.27, 192.0, 0.0, 0.0, 0.0, 0.0, 0.0, 0.0, 0.0, 0.0, 0.0, 1.687804797752275E9, 0.0, 2023-06-26 13:39:57.752
8.0, 51862.953825349075, 50375.02054870374, 21642.255382806707, -24982.90240560799, -3755.0930684915866, -12320.460357720895, 23591.215740587206, 7220.909860242589, 0.126, 0.9420000000000001, 0.27, 192.0, 0.0, 0.0, 0.0, 0.0, 0.0, 0.0, 0.0, 0.0, 0.0, 1.6878047977562833E9, 0.0, 2023-06-26 13:39:57.756
9.0, 51956.92055903919, 50447.73077341685, 21651.106673611008, -25044.347351115626, -3698.2302305972853, -12409.375597164108, 23541.840737085433, 7147.238510517897, 0.126, 0.9420000000000001, 0.27, 192.0, 0.0, 0.0, 0.0, 0.0, 0.0, 0.0, 0.0, 0.0, 0.0, 1.6878047977603211E9, 0.0, 2023-06-26 13:39:57.760
10.0, 51983.116803540805, 50455.48682874285, 21624.03871107563, -25060.753531545823, -3771.7004146218796, -12450.838083128701, 23497.964262719663, 7144.980984327911, 0.126, 0.9420000000000001, 0.27, 192.0, 0.0, 0.0, 0.0, 0.0, 0.0, 0.0, 0.0, 0.0, 0.0, 1.6878047977673433E9, 0.0, 2023-06-26 13:39:57.767
11.0, 51899.76714846696, 50390.97969424483, 21618.27196100616, -25000.917911638968, -3836.6098805200913, -12363.710983241914, 23541.259591729595, 7223.882642255145, 0.126, 0.9380000000000001, 0.274, 192.0, 3.0, 240.0, 29.0, 80.0, 8.0, 144.0, 0.0, 0.0, 0.0, 1.687804797770372E9, 0.0, 2023-06-26 13:39:57.770
12.0, 51851.66619439914, 50363.12942065352, 21637.47210949327, -24984.869359120057, -3773.7120716228574, -12316.615857674582, 23581.068048604495, 7241.518168630382, 0.126, 0.9380000000000001, 0.274, 192.0, 0.0, 0.0, 0.0, 0.0, 0.0, 0.0, 0.0, 0.0, 0.0, 1.687804797773362E9, 0.0, 2023-06-26 13:39:57.773
13.0, 51936.60282332931, 50429.961136574886, 21650.860804422, -25042.268638881284, -3697.1349951189754, -12383.224056151397, 23548.90388833331, 7167.176266572031, 0.126, 0.9380000000000001, 0.274, 192.0, 0.0, 0.0, 0.0, 0.0, 0.0, 0.0, 0.0, 0.0, 0.0, 1.6878047977774036E9, 0.0, 2023-06-26 13:39:57.777
14.0, 51991.20813503363, 50460.04658461173, 21633.784071658145, -25071.504720628825, -3751.494437634282, -12442.031495813311, 23505.65326281229, 7134.989754556389, 0.126, 0.9380000000000001, 0.274, 192.0, 0.0, 0.0, 0.0, 0.0, 0.0, 0.0, 0.0, 0.0, 0.0, 1.6878047977804027E9, 0.0, 2023-06-26 13:39:57.780
15.0, 51909.8030817274, 50392.72313031234, 21616.483821449736, -25019.04517639222, -3837.9956886763202, -12368.896587955545, 23528.161469478782, 7207.767034502868, 0.126, 0.9380000000000001, 0.274, 192.0, 0.0, 0.0, 0.0, 0.0, 0.0, 0.0, 0.0, 0.0, 0.0, 1.6878047977884555E9, 0.0, 2023-06-26 13:39:57.788
16.0, 51847.844046097285, 50353.048783904174, 21635.7063216813, -24986.32222250965, -3786.430214217927, -12297.14748825401, 23575.010725857108, 7245.273261698874, 0.126, 0.9380000000000001, 0.274, 192.0, 0.0, 0.0, 0.0, 0.0, 0.0, 0.0, 0.0, 0.0, 0.0, 1.6878047977914891E9, 0.0, 2023-06-26 13:39:57.791
17.0, 51918.07322717586, 50413.733770100334, 21656.67225798038, -25029.751661986313, -3689.915381659911, -12350.63521273556, 23548.009818555096, 7182.286045823818, 0.126, 0.9380000000000001, 0.274, 192.0, 0.0, 0.0, 0.0, 0.0, 0.0, 0.0, 0.0, 0.0, 0.0, 1.6878047977944689E9, 0.0, 2023-06-26 13:39:57.794
18.0, 51990.00114083304, 50465.76863119229, 21645.317571797084, -25068.91191827201, -3722.4818733312936, -12424.463024671439, 23504.826248267444, 7140.6000424146705, 0.126, 0.9380000000000001, 0.274, 192.0, 0.0, 0.0, 0.0, 0.0, 0.0, 0.0, 0.0, 0.0, 0.0, 1.6878047977984767E9, 0.0, 2023-06-26 13:39:57.798
19.0, 51921.85067198881, 50407.76585433076, 21617.355539483495, -25036.412481833995, -3813.140548842019, -12378.59724504915, 23518.7513850631, 7193.260752351374, 0.126, 0.9380000000000001, 0.274, 192.0, 0.0, 0.0, 0.0, 0.0, 0.0, 0.0, 0.0, 0.0, 0.0, 1.6878047978015068E9, 0.0, 2023-06-26 13:39:57.801
20.0, 51842.4349239391, 50349.1819321134, 21632.599429202015, -24992.871283635057, -3788.0395398187093, -12287.223313715855, 23581.470380004692, 7247.1955117220305, 0.126, 0.9380000000000001, 0.274, 192.0, 0.0, 0.0, 0.0, 0.0, 0.0, 0.0, 0.0, 0.0, 0.0, 1.6878047978045795E9, 0.0, 2023-06-26 13:39:57.804
21.0, 51892.256962329986, 50391.58319134512, 21659.980316159763, -25028.835240463646, -3686.272047313696, -12316.079415807655, 23583.794961428044, 7199.228668120942, 0.128, 0.9400000000000001, 0.276, 192.0, 4.0, 0.0, 29.0, 96.0, 8.0, 160.0, 0.0, 0.0, 0.0, 1.6878047978086448E9, 0.0, 2023-06-26 13:39:57.808
22.0, 51979.94285582815, 50451.46351474089, 21647.79861543162, -25086.145113247054, -3704.0416841556653, -12410.40377740905, 23517.45498388469, 7149.294871007785, 0.128, 0.9400000000000001, 0.276, 192.0, 0.0, 0.0, 0.0, 0.0, 0.0, 0.0, 0.0, 0.0, 0.0, 1.6878047978185592E9, 0.0, 2023-06-26 13:39:57.818
23.0, 51948.04691649043, 50422.42859869345, 21623.61402793098, -25057.132548944064, -3798.3213422681506, -12375.825628736691, 23515.64449258381, 7193.931304685034, 0.128, 0.9400000000000001, 0.276, 192.0, 0.0, 0.0, 0.0, 0.0, 0.0, 0.0, 0.0, 0.0, 0.0, 1.6878047978225887E9, 0.0, 2023-06-26 13:39:57.822
24.0, 51853.83431361131, 50355.216903116336, 21629.358426255993, -25005.81294367468, -3800.0871300801196, -12283.691738091915, 23573.42375200078, 7256.5832443932595, 0.128, 0.9400000000000001, 0.276, 192.0, 0.0, 0.0, 0.0, 0.0, 0.0, 0.0, 0.0, 0.0, 0.0, 1.687804797825643E9, 0.0, 2023-06-26 13:39:57.825
25.0, 51881.88575290272, 50386.55404884268, 21652.403074789414, -25034.154955644008, -3703.1252626329974, -12300.321435966664, 23577.04473460254, 7217.624153807659, 0.128, 0.9400000000000001, 0.276, 192.0, 0.0, 0.0, 0.0, 0.0, 0.0, 0.0, 0.0, 0.0, 0.0, 1.6878047978286574E9, 0.0, 2023-06-26 13:39:57.828
26.0, 51972.34326271335, 50452.49169498583, 21642.590658973535, -25097.54450291926, -3707.953239435344, -12407.587457607682, 23507.46375411317, 7138.096647035676, 0.128, 0.9400000000000001, 0.276, 192.0, 0.0, 0.0, 0.0, 0.0, 0.0, 0.0, 0.0, 0.0, 0.0, 1.6878047978316572E9, 0.0, 2023-06-26 13:39:57.831
27.0, 51958.373422428784, 50432.84451160962, 21610.582960913536, -25083.284089956775, -3799.595391702103, -12408.816803552725, 23494.03035569553, 7159.5543217127715, 0.128, 0.9400000000000001, 0.276, 192.0, 0.0, 0.0, 0.0, 0.0, 0.0, 0.0, 0.0, 0.0, 0.0, 1.68780479783471E9, 0.0, 2023-06-26 13:39:57.834
28.0, 51869.92756961913, 50368.11385966705, 21624.351635498006, -25017.23468509134, -3813.6769907089465, -12305.99877905831, 23558.42573147127, 7235.773770305368, 0.128, 0.9400000000000001, 0.276, 192.0, 0.0, 0.0, 0.0, 0.0, 0.0, 0.0, 0.0, 0.0, 0.0, 1.687804797839707E9, 0.0, 2023-06-26 13:39:57.839
29.0, 51872.90035163169, 50378.26155164976, 21656.560499258103, -25020.81096420419, -3717.0056959397434, -12286.642168360017, 23586.991260885152, 7228.174177190564, 0.128, 0.9400000000000001, 0.276, 192.0, 0.0, 0.0, 0.0, 0.0, 0.0, 0.0, 0.0, 0.0, 0.0, 1.6878047978427444E9, 0.0, 2023-06-26 13:39:57.842
30.0, 51968.722280111586, 50447.10492457211, 21651.218432333284, -25086.68155511398, -3692.798756694646, -12377.323195615196, 23522.21590545367, 7144.153969783065, 0.128, 0.9400000000000001, 0.276, 192.0, 0.0, 0.0, 0.0, 0.0, 0.0, 0.0, 0.0, 0.0, 0.0, 1.6878047978467405E9, 0.0, 2023-06-26 13:39:57.846
31.0, 51971.38213770177, 50438.92418610146, 21614.718033637768, -25095.935177318475, -3781.602237415581, -12412.929524532501, 23480.12757064433, 7139.057772047255, 0.124, 0.9400000000000001, 0.28200000000000003, 192.0, 3.0, 224.0, 29.0, 96.0, 8.0, 208.0, 0.0, 0.0, 0.0, 1.6878047978497376E9, 0.0, 2023-06-26 13:39:57.849
32.0, 51868.02767134043, 50358.010871173254, 21606.000853300196, -25039.34056035764, -3833.3465258296164, -12334.340791027642, 23531.111899746884, 7213.042046194321, 0.124, 0.9400000000000001, 0.28200000000000003, 192.0, 0.0, 0.0, 0.0, 0.0, 0.0, 0.0, 0.0, 0.0, 0.0, 1.687804797852762E9, 0.0, 2023-06-26 13:39:57.852
33.0, 51854.773086878435, 50358.010871173254, 21646.681028208855, -25018.844010692123, -3740.922062506922, -12289.234970716832, 23582.766781183098, 7229.358819646695, 0.124, 0.9400000000000001, 0.28200000000000003, 192.0, 0.0, 0.0, 0.0, 0.0, 0.0, 0.0, 0.0, 0.0, 0.0, 1.6878047978558023E9, 0.0, 2023-06-26 13:39:57.855
34.0, 51945.34235541134, 50427.34598247361, 21658.460397536805, -25079.01490676581, -3682.4722507562938, -12369.83536122267, 23543.00302779711, 7160.247225790886, 0.124, 0.9400000000000001, 0.28200000000000003, 192.0, 0.0, 0.0, 0.0, 0.0, 0.0, 0.0, 0.0, 0.0, 0.0, 1.687804797860804E9, 0.0, 2023-06-26 13:39:57.860
35.0, 51978.73586162757, 50445.85322688261, 21628.062025077586, -25093.20826449493, -3759.429306915916, -12412.013103009833, 23488.911806215267, 7145.27155700583, 0.124, 0.9400000000000001, 0.28200000000000003, 192.0, 0.0, 0.0, 0.0, 0.0, 0.0, 0.0, 0.0, 0.0, 0.0, 1.6878047978645587E9, 0.0, 2023-06-26 13:39:57.864
36.0, 51886.62432272724, 50370.86312423505, 21605.732632366733, -25040.34638885813, -3836.364011331083, -12340.308706797208, 23523.445251398713, 7214.114929928176, 0.124, 0.9400000000000001, 0.28200000000000003, 192.0, 0.0, 0.0, 0.0, 0.0, 0.0, 0.0, 0.0, 0.0, 0.0, 1.687804797867836E9, 0.0, 2023-06-26 13:39:57.867
37.0, 51847.10643853026, 50350.65714724745, 21645.85401366401, -25002.907216895488, -3756.7918010701896, -12269.297214662698, 23585.29252830655, 7248.469561155983, 0.124, 0.9400000000000001, 0.28200000000000003, 192.0, 0.0, 0.0, 0.0, 0.0, 0.0, 0.0, 0.0, 0.0, 0.0, 1.6878047978718407E9, 0.0, 2023-06-26 13:39:57.871
38.0, 51932.3559918828, 50417.64532538001, 21664.115388883994, -25056.23847916585, -3672.1904483068524, -12341.336887042153, 23557.688123904245, 7179.112098111164, 0.124, 0.9400000000000001, 0.28200000000000003, 192.0, 0.0, 0.0, 0.0, 0.0, 0.0, 0.0, 0.0, 0.0, 0.0, 1.6878047978778696E9, 0.0, 2023-06-26 13:39:57.877
39.0, 51991.69987341164, 50455.41977350948, 21637.226240304262, -25090.995441793853, -3738.016335727732, -12415.410568167039, 23491.705774272177, 7145.048039561277, 0.124, 0.9400000000000001, 0.28200000000000003, 192.0, 0.0, 0.0, 0.0, 0.0, 0.0, 0.0, 0.0, 0.0, 0.0, 1.6878047978808908E9, 0.0, 2023-06-26 13:39:57.880
40.0, 51913.915802707175, 50393.818365790656, 21618.18255402834, -25040.458147580404, -3819.399037289505, -12351.149302858032, 23519.265475185573, 7213.153804916597, 0.124, 0.9400000000000001, 0.28200000000000003, 192.0, 0.0, 0.0, 0.0, 0.0, 0.0, 0.0, 0.0, 0.0, 0.0, 1.6878047978839073E9, 0.0, 2023-06-26 13:39:57.883
41.0, 51846.525293174425, 50344.97980415581, 21637.47210949327, -24998.123943582053, -3771.499248921782, -12267.844351273103, 23585.5160457511, 7254.839808325745, 0.124, 0.9400000000000001, 0.28200000000000003, 192.0, 0.0, 0.0, 0.0, 0.0, 0.0, 0.0, 0.0, 0.0, 0.0, 1.6878047978880236E9, 0.0, 2023-06-26 13:39:57.888
42.0, 51921.046009188416, 50407.38587467503, 21665.34473482904, -25038.692359768436, -3672.793945407146, -12309.373892471063, 23575.256595046118, 7203.587258289726, 0.13, 0.936, 0.292, 192.0, 4.0, 16.0, 29.0, 64.0, 9.0, 32.0, 0.0, 0.0, 0.0, 1.6878047978919375E9, 0.0, 2023-06-26 13:39:57.891
43.0, 51989.01766407701, 50453.27400604177, 21642.434196762348, -25087.68738361447, -3718.123283162509, -12404.525268617304, 23506.23440816813, 7144.6457081610815, 0.13, 0.936, 0.292, 192.0, 0.0, 0.0, 0.0, 0.0, 0.0, 0.0, 0.0, 0.0, 0.0, 1.687804797895959E9, 0.0, 2023-06-26 13:39:57.895
44.0, 51936.24519541803, 50407.40822641948, 21625.446870976313, -25043.319170870684, -3806.882060394533, -12362.146361130042, 23519.533696119037, 7198.513412298372, 0.13, 0.936, 0.292, 192.0, 0.0, 0.0, 0.0, 0.0, 0.0, 0.0, 0.0, 0.0, 0.0, 1.6878047979019866E9, 0.0, 2023-06-26 13:39:57.901
45.0, 51860.718650903545, 50355.552179283164, 21649.005609632208, -24983.86353061957, -3773.5779611561256, -12265.0950867051, 23590.52283650909, 7262.662918885103, 0.13, 0.936, 0.292, 192.0, 0.0, 0.0, 0.0, 0.0, 0.0, 0.0, 0.0, 0.0, 0.0, 1.6878047979050243E9, 0.0, 2023-06-26 13:39:57.905
46.0, 51899.02954089994, 50390.57736284463, 21666.57408077408, -25025.14720262852, -3678.5830472210705, -12301.036691789233, 23583.19146432775, 7206.5153368133715, 0.13, 0.936, 0.292, 192.0, 0.0, 0.0, 0.0, 0.0, 0.0, 0.0, 0.0, 0.0, 0.0, 1.6878047979080262E9, 0.0, 2023-06-26 13:39:57.908
47.0, 51975.47250693709, 50442.14283730303, 21647.083359609052, -25086.122761502596, -3693.2681433282073, -12398.892629014568, 23512.090565215418, 7147.998469829377, 0.13, 0.936, 0.292, 192.0, 0.0, 0.0, 0.0, 0.0, 0.0, 0.0, 0.0, 0.0, 0.0, 1.6878047979110403E9, 0.0, 2023-06-26 13:39:57.911
48.0, 51928.64560230322, 50394.75713905777, 21608.32543472355, -25071.035333995263, -3798.589563201614, -12388.789640520768, 23497.472524341647, 7173.546513741793, 0.13, 0.936, 0.292, 192.0, 0.0, 0.0, 0.0, 0.0, 0.0, 0.0, 0.0, 0.0, 0.0, 1.6878047979151428E9, 0.0, 2023-06-26 13:39:57.915
49.0, 51836.77993259191, 50327.321926036115, 21610.582960913536, -25017.18998160243, -3813.9675633868655, -12300.634360389038, 23551.8096151125, 7235.818473794279, 0.13, 0.936, 0.292, 192.0, 0.0, 0.0, 0.0, 0.0, 0.0, 0.0, 0.0, 0.0, 0.0, 1.6878047979241276E9, 0.0, 2023-06-26 13:39:57.924
50.0, 51869.21231379656, 50364.35876659856, 21648.71503695429, -25025.14720262852, -3706.20980336783, -12292.297159707208, 23574.586042712457, 7221.647467809614, 0.13, 0.936, 0.292, 192.0, 0.0, 0.0, 0.0, 0.0, 0.0, 0.0, 0.0, 0.0, 0.0, 1.687804797927138E9, 0.0, 2023-06-26 13:39:57.927
51.0, 51960.250968963024, 50431.615165664574, 21635.616914703478, -25090.05666852673, -3700.01837015371, -12396.255123168841, 23502.814591266466, 7143.259900004852, 0.13, 0.936, 0.292, 192.0, 0.0, 0.0, 0.0, 0.0, 0.0, 0.0, 0.0, 0.0, 0.0, 1.687804797930163E9, 0.0, 2023-06-26 13:39:57.930
52.0, 51954.97595727158, 50421.489825426324, 21614.829792360044, -25068.688400827457, -3783.882115350022, -12399.45142262595, 23497.070192941454, 7168.807943917268, 0.126, 0.9400000000000001, 0.28600000000000003, 192.0, 3.0, 240.0, 29.0, 96.0, 8.0, 240.0, 0.0, 0.0, 0.0, 1.68780479793417E9, 0.0, 2023-06-26 13:39:57.934
53.0, 51856.091839801295, 50343.124609366016, 21613.421632459358, -25015.33478681264, -3819.6449064785133, -12305.171764513465, 23545.975809809664, 7236.734895316947, 0.126, 0.9400000000000001, 0.28600000000000003, 192.0, 0.0, 0.0, 0.0, 0.0, 0.0, 0.0, 0.0, 0.0, 0.0, 1.6878047979371812E9, 0.0, 2023-06-26 13:39:57.937
54.0, 51858.97521483603, 50352.713507737346, 21645.38462703045, -25012.965501900377, -3724.9629169658324, -12274.996909498801, 23573.513158978603, 7226.520148100871, 0.126, 0.9400000000000001, 0.28600000000000003, 192.0, 0.0, 0.0, 0.0, 0.0, 0.0, 0.0, 0.0, 0.0, 0.0, 1.6878047979401722E9, 0.0, 2023-06-26 13:39:57.940
55.0, 51961.94970154163, 50434.923223843965, 21653.967696901287, -25064.553328103226, -3683.2322100677743, -12363.085134397166, 23525.7027775887, 7159.353156012673, 0.126, 0.9400000000000001, 0.28600000000000003, 192.0, 0.0, 0.0, 0.0, 0.0, 0.0, 0.0, 0.0, 0.0, 0.0, 1.687804797943206E9, 0.0, 2023-06-26 13:39:57.943
56.0, 51969.25872197851, 50432.41982846497, 21624.888077364933, -25077.025601509285, -3773.8685338340447, -12403.519440116817, 23487.950681203685, 7156.9168158670445, 0.126, 0.9400000000000001, 0.28600000000000003, 192.0, 0.0, 0.0, 0.0, 0.0, 0.0, 0.0, 0.0, 0.0, 0.0, 1.687804797947234E9, 0.0, 2023-06-26 13:39:57.947
57.0, 51873.50384873198, 50356.5356560392, 21620.596542429514, -25019.46985953687, -3826.8645199375774, -12317.241706519331, 23536.878649816354, 7229.783502791346, 0.126, 0.9400000000000001, 0.28600000000000003, 192.0, 0.0, 0.0, 0.0, 0.0, 0.0, 0.0, 0.0, 0.0, 0.0, 1.6878047979512544E9, 0.0, 2023-06-26 13:39:57.951
58.0, 51858.14820029119, 50355.976862427815, 21656.225223091275, -24998.950958126898, -3737.5245973497153, -12267.844351273103, 23581.80565617152, 7243.2616046978965, 0.126, 0.9400000000000001, 0.28600000000000003, 192.0, 0.0, 0.0, 0.0, 0.0, 0.0, 0.0, 0.0, 0.0, 0.0, 1.6878047979562528E9, 0.0, 2023-06-26 13:39:57.956
59.0, 51945.76703855599, 50421.6015841486, 21662.394304560938, -25064.329810658674, -3679.343006532551, -12361.721677985392, 23530.28488520204, 7157.65442343407, 0.126, 0.9400000000000001, 0.28600000000000003, 192.0, 0.0, 0.0, 0.0, 0.0, 0.0, 0.0, 0.0, 0.0, 0.0, 1.6878047979603052E9, 0.0, 2023-06-26 13:39:57.960
60.0, 51979.071137794395, 50437.851302367606, 21628.821984389066, -25088.29088071476, -3760.882170305511, -12423.524251404317, 23482.049820667486, 7132.7322283664025, 0.126, 0.9400000000000001, 0.28600000000000003, 192.0, 0.0, 0.0, 0.0, 0.0, 0.0, 0.0, 0.0, 0.0, 0.0, 1.6878047979643087E9, 0.0, 2023-06-26 13:39:57.964
61.0, 51889.64180822871, 50368.426784089424, 21611.834658603035, -25033.797327732722, -3833.4806362963486, -12350.523454013284, 23525.27809444405, 7206.4035780910945, 0.126, 0.9400000000000001, 0.28600000000000003, 192.0, 0.0, 0.0, 0.0, 0.0, 0.0, 0.0, 0.0, 0.0, 0.0, 1.6878047979673193E9, 0.0, 2023-06-26 13:39:57.967
62.0, 51843.84308383979, 50344.35395531106, 21641.204850817307, -25005.365908785574, -3762.111516250553, -12283.937607280923, 23582.00682187162, 7237.897186028623, 0.124, 0.9420000000000001, 0.28200000000000003, 192.0, 3.0, 224.0, 29.0, 112.0, 8.0, 208.0, 0.0, 0.0, 0.0, 1.6878047979743955E9, 0.0, 2023-06-26 13:39:57.974
63.0, 51923.974087712064, 50411.073912510146, 21657.991010903243, -25053.08688319765, -3683.4780792567826, -12348.310631312208, 23550.736731378645, 7168.472667750439, 0.124, 0.9420000000000001, 0.28200000000000003, 192.0, 0.0, 0.0, 0.0, 0.0, 0.0, 0.0, 0.0, 0.0, 0.0, 1.6878047979804056E9, 0.0, 2023-06-26 13:39:57.980
64.0, 51985.977826831084, 50450.6588519405, 21641.540126984135, -25081.406543422527, -3734.9541467373547, -12417.131652490098, 23501.138210432317, 7139.683620892003, 0.124, 0.9420000000000001, 0.28200000000000003, 192.0, 0.0, 0.0, 0.0, 0.0, 0.0, 0.0, 0.0, 0.0, 0.0, 1.6878047979834287E9, 0.0, 2023-06-26 13:39:57.983
65.0, 51915.92745970815, 50389.951513999884, 21619.85893486249, -25039.47467082437, -3820.337810556628, -12367.533131543772, 23523.445251398713, 7200.458014065983, 0.124, 0.9420000000000001, 0.28200000000000003, 192.0, 0.0, 0.0, 0.0, 0.0, 0.0, 0.0, 0.0, 0.0, 0.0, 1.6878047979864233E9, 0.0, 2023-06-26 13:39:57.986
66.0, 51851.420325210136, 50347.34908906807, 21643.99881887422, -24995.441734247415, -3776.3272257241283, -12279.891941534514, 23585.13606609536, 7251.9117298021, 0.124, 0.9420000000000001, 0.28200000000000003, 192.0, 0.0, 0.0, 0.0, 0.0, 0.0, 0.0, 0.0, 0.0, 0.0, 1.6878047979894211E9, 0.0, 2023-06-26 13:39:57.989
67.0, 51919.25786963199, 50408.05642700868, 21672.877272710477, -25029.684606752948, -3674.0232913521877, -12314.783014629247, 23577.447066002736, 7206.627095535648, 0.124, 0.9420000000000001, 0.28200000000000003, 192.0, 0.0, 0.0, 0.0, 0.0, 0.0, 0.0, 0.0, 0.0, 0.0, 1.687804797992453E9, 0.0, 2023-06-26 13:39:57.992
68.0, 51993.64447517926, 50456.91734038798, 21647.23982182024, -25083.194682978952, -3709.8084342251345, -12410.783757064792, 23500.825286009942, 7145.070391305732, 0.124, 0.9420000000000001, 0.28200000000000003, 192.0, 0.0, 0.0, 0.0, 0.0, 0.0, 0.0, 0.0, 0.0, 0.0, 1.6878047979965096E9, 0.0, 2023-06-26 13:39:57.996
69.0, 51931.21605291558, 50402.37908391703, 21613.93572258183, -25056.685514054956, -3812.4029412749937, -12379.938349716467, 23509.9000942588, 7184.5659237582595, 0.124, 0.9420000000000001, 0.28200000000000003, 192.0, 0.0, 0.0, 0.0, 0.0, 0.0, 0.0, 0.0, 0.0, 0.0, 1.6878047979994948E9, 0.0, 2023-06-26 13:39:57.999
70.0, 51859.19873228059, 50356.71446999484, 21642.14362408443, -24992.08897257912, -3787.7489671407902, -12278.48378163383, 23579.481074748168, 7253.4763519139715, 0.124, 0.9420000000000001, 0.28200000000000003, 192.0, 0.0, 0.0, 0.0, 0.0, 0.0, 0.0, 0.0, 0.0, 0.0, 1.6878047980035036E9, 0.0, 2023-06-26 13:39:58.003
71.0, 51901.331770578836, 50397.1934792034, 21664.830644706566, -25018.061699636186, -3688.7754426926904, -12306.334055225141, 23575.86009214641, 7208.035255436333, 0.124, 0.9420000000000001, 0.28200000000000003, 192.0, 0.0, 0.0, 0.0, 0.0, 0.0, 0.0, 0.0, 0.0, 0.0, 1.687804798007526E9, 0.0, 2023-06-26 13:39:58.007
72.0, 51984.61437041931, 50455.5091804873, 21644.602315974513, -25082.367668434104, -3705.181623122886, -12411.700178587458, 23500.8476377544, 7132.084027777199, 0.122, 0.9480000000000001, 0.28, 192.0, 3.0, 208.0, 29.0, 160.0, 8.0, 192.0, 0.0, 0.0, 0.0, 1.6878047980125456E9, 0.0, 2023-06-26 13:39:58.012
73.0, 51959.200436973624, 50432.86686335407, 21624.888077364933, -25048.19185116194, -3794.633304433025, -12388.074384698199, 23505.340338389917, 7175.871095165146, 0.122, 0.9480000000000001, 0.28, 192.0, 0.0, 0.0, 0.0, 0.0, 0.0, 0.0, 0.0, 0.0, 0.0, 1.6878047980165691E9, 0.0, 2023-06-26 13:39:58.016
74.0, 51872.945055120595, 50369.70083352338, 21639.081435094053, -24978.342649739105, -3798.142528312508, -12281.23304620183, 23571.52385372208, 7264.607520652715, 0.122, 0.9480000000000001, 0.28, 192.0, 0.0, 0.0, 0.0, 0.0, 0.0, 0.0, 0.0, 0.0, 0.0, 1.687804798019575E9, 0.0, 2023-06-26 13:39:58.019
75.0, 51895.252096086995, 50394.93595301342, 21672.9666796883, -24990.725516167346, -3695.078634629087, -12272.024127486246, 23598.43535404627, 7242.5016453864155, 0.122, 0.9480000000000001, 0.28, 192.0, 0.0, 0.0, 0.0, 0.0, 0.0, 0.0, 0.0, 0.0, 0.0, 1.6878047980236084E9, 0.0, 2023-06-26 13:39:58.023
76.0, 51983.42972796318, 50460.11363984509, 21660.33794407105, -25061.75936004631, -3681.8687536560005, -12377.032622937277, 23531.89421080282, 7163.041193847799, 0.122, 0.9480000000000001, 0.28, 192.0, 0.0, 0.0, 0.0, 0.0, 0.0, 0.0, 0.0, 0.0, 0.0, 1.6878047980286276E9, 0.0, 2023-06-26 13:39:58.028
77.0, 51970.6668818792, 50442.053430325206, 21627.95026635531, -25057.713694299902, -3780.2834844927174, -12396.188067935476, 23502.926349988742, 7173.7029759529805, 0.122, 0.9480000000000001, 0.28, 192.0, 0.0, 0.0, 0.0, 0.0, 0.0, 0.0, 0.0, 0.0, 0.0, 1.6878047980316262E9, 0.0, 2023-06-26 13:39:58.031
78.0, 51876.588389466815, 50370.57255155713, 21630.0066268452, -24990.79257140071, -3819.175519844952, -12297.39335744302, 23556.70464714821, 7250.10123850122, 0.122, 0.9480000000000001, 0.28, 192.0, 0.0, 0.0, 0.0, 0.0, 0.0, 0.0, 0.0, 0.0, 0.0, 1.687804798035618E9, 0.0, 2023-06-26 13:39:58.035
79.0, 51876.61074121127, 50381.92723774043, 21666.127045884972, -24982.254205018784, -3717.0056959397434, -12266.682060561427, 23590.500484764634, 7245.742648332435, 0.122, 0.9480000000000001, 0.28, 192.0, 0.0, 0.0, 0.0, 0.0, 0.0, 0.0, 0.0, 0.0, 0.0, 1.6878047980396726E9, 0.0, 2023-06-26 13:39:58.039
80.0, 51964.47544866508, 50451.1058868296, 21664.27185109518, -25048.0130372063, -3677.1301838314753, -12365.812047220714, 23539.538507406534, 7163.577635714726, 0.122, 0.9480000000000001, 0.28, 192.0, 0.0, 0.0, 0.0, 0.0, 0.0, 0.0, 0.0, 0.0, 0.0, 1.6878047980436952E9, 0.0, 2023-06-26 13:39:58.043
81.0, 51980.43459420617, 50455.28566304275, 21637.315647282085, -25062.094636213144, -3754.9366062803992, -12400.904286015546, 23506.59203607941, 7162.482400236417, 0.122, 0.9480000000000001, 0.28, 192.0, 0.0, 0.0, 0.0, 0.0, 0.0, 0.0, 0.0, 0.0, 0.0, 1.6878047980487225E9, 0.0, 2023-06-26 13:39:58.048
82.0, 51891.27348557395, 50385.145888941996, 21630.52071696767, -25003.533065740237, -3815.0851506096305, -12322.87434612207, 23549.440330200236, 7229.962316746988, 0.122, 0.9480000000000001, 0.28, 192.0, 0.0, 0.0, 0.0, 0.0, 0.0, 0.0, 0.0, 0.0, 0.0, 1.6878047980517068E9, 0.0, 2023-06-26 13:39:58.051
83.0, 51861.23274102602, 50367.73388001131, 21665.05416215112, -24984.914062608965, -3728.9638792233327, -12269.252511173787, 23602.01163315912, 7243.932157031555, 0.12, 0.9440000000000001, 0.276, 192.0, 3.0, 192.0, 29.0, 128.0, 8.0, 160.0, 0.0, 0.0, 0.0, 1.6878047980557275E9, 0.0, 2023-06-26 13:39:58.055
84.0, 51946.482294378555, 50431.86103485359, 21668.116351141496, -25053.265697153296, -3667.4965819712384, -12370.148285645044, 23556.637591914845, 7176.60870273217, 0.12, 0.9440000000000001, 0.276, 192.0, 0.0, 0.0, 0.0, 0.0, 0.0, 0.0, 0.0, 0.0, 0.0, 1.6878047980608096E9, 0.0, 2023-06-26 13:39:58.060
85.0, 51992.14690830075, 50458.83959041114, 21644.781129930154, -25076.35504917563, -3738.1504461944637, -12410.582591364693, 23499.908864487275, 7154.771048399335, 0.12, 0.9440000000000001, 0.276, 192.0, 0.0, 0.0, 0.0, 0.0, 0.0, 0.0, 0.0, 0.0, 0.0, 1.6878047980648026E9, 0.0, 2023-06-26 13:39:58.064
86.0, 51904.66218050268, 50384.095356952595, 21624.150469797907, -25024.208429361395, -3818.3038018111947, -12333.58083171616, 23530.37429217986, 7216.573621818259, 0.12, 0.9440000000000001, 0.276, 192.0, 0.0, 0.0, 0.0, 0.0, 0.0, 0.0, 0.0, 0.0, 0.0, 1.6878047980698261E9, 0.0, 2023-06-26 13:39:58.069
87.0, 51859.109325302765, 50356.51330429474, 21652.13485385595, -24991.172551056454, -3756.3447661810837, -12268.246682673298, 23588.041792874552, 7246.748476832924, 0.12, 0.9440000000000001, 0.276, 192.0, 0.0, 0.0, 0.0, 0.0, 0.0, 0.0, 0.0, 0.0, 0.0, 1.6878047980728438E9, 0.0, 2023-06-26 13:39:58.072
88.0, 51931.84190176033, 50418.71820911387, 21669.502159297725, -25046.560173816702, -3672.6151314515037, -12335.056046850212, 23564.863033874397, 7182.37545280164, 0.12, 0.9440000000000001, 0.276, 192.0, 0.0, 0.0, 0.0, 0.0, 0.0, 0.0, 0.0, 0.0, 0.0, 1.6878047980758395E9, 0.0, 2023-06-26 13:39:58.075
89.0, 51988.19064953216, 50457.18556132145, 21640.08726359454, -25083.507607401327, -3730.59555656857, -12415.388216422585, 23497.78544876402, 7141.203539514964, 0.12, 0.9440000000000001, 0.276, 192.0, 0.0, 0.0, 0.0, 0.0, 0.0, 0.0, 0.0, 0.0, 0.0, 1.6878047980788608E9, 0.0, 2023-06-26 13:39:58.078
90.0, 51924.97991621255, 50404.59190661811, 21623.010530830685, -25035.09372891113, -3817.879118666544, -12360.82760820718, 23514.99629199461, 7202.492022811416, 0.12, 0.9440000000000001, 0.276, 192.0, 0.0, 0.0, 0.0, 0.0, 0.0, 0.0, 0.0, 0.0, 0.0, 1.6878047980849133E9, 0.0, 2023-06-26 13:39:58.084
91.0, 51853.76725837794, 50357.11680139504, 21641.495423495224, -24989.496170222304, -3778.763565869757, -12272.158237952977, 23573.110827578406, 7251.755267590913, 0.12, 0.9440000000000001, 0.276, 192.0, 0.0, 0.0, 0.0, 0.0, 0.0, 0.0, 0.0, 0.0, 0.0, 1.68780479808791E9, 0.0, 2023-06-26 13:39:58.087
92.0, 51912.66410501768, 50405.28481069623, 21662.103731883017, -25033.57381028817, -3688.1272421034864, -12317.82285187517, 23558.112807048896, 7189.483307538428, 0.12, 0.9440000000000001, 0.276, 192.0, 0.0, 0.0, 0.0, 0.0, 0.0, 0.0, 0.0, 0.0, 0.0, 1.687804798091906E9, 0.0, 2023-06-26 13:39:58.091
93.0, 51994.940876357665, 50464.3604712916, 21646.99395263123, -25081.987688778365, -3712.691809259869, -12411.78958556528, 23507.5978645799, 7137.202577257464, 0.122, 0.9440000000000001, 0.276, 192.0, 3.0, 208.0, 29.0, 128.0, 8.0, 160.0, 0.0, 0.0, 0.0, 1.6878047980959444E9, 0.0, 2023-06-26 13:39:58.095
94.0, 51954.30540493791, 50428.485921440835, 21631.884173379443, -25037.73123475686, -3798.611914946069, -12372.15994264602, 23524.13815547683, 7193.752490729391, 0.122, 0.9440000000000001, 0.276, 192.0, 0.0, 0.0, 0.0, 0.0, 0.0, 0.0, 0.0, 0.0, 0.0, 1.68780479809897E9, 0.0, 2023-06-26 13:39:58.098
95.0, 51873.25797954297, 50370.86312423505, 21650.57023174408, -24981.22602477384, -3786.7654903847565, -12275.041612987712, 23587.080667862974, 7256.873817071179, 0.122, 0.9440000000000001, 0.276, 192.0, 0.0, 0.0, 0.0, 0.0, 0.0, 0.0, 0.0, 0.0, 0.0, 1.687804798102981E9, 0.0, 2023-06-26 13:39:58.102
96.0, 51906.360913081284, 50402.28967693922, 21672.13966514345, -25011.736155955336, -3687.1661170919083, -12302.95894181239, 23580.978641626676, 7201.8214704777565, 0.122, 0.9440000000000001, 0.276, 192.0, 0.0, 0.0, 0.0, 0.0, 0.0, 0.0, 0.0, 0.0, 0.0, 1.687804798107E9, 0.0, 2023-06-26 13:39:58.107
97.0, 51990.64934142224, 50460.024232867276, 21657.90160392542, -25072.6670113405, -3697.11264337452, -12402.379501149595, 23515.84565828391, 7137.694315635481, 0.122, 0.9440000000000001, 0.276, 192.0, 0.0, 0.0, 0.0, 0.0, 0.0, 0.0, 0.0, 0.0, 0.0, 1.6878047981130404E9, 0.0, 2023-06-26 13:39:58.113
98.0, 51959.82628581837, 50428.24005225182, 21627.07854832155, -25053.422159364483, -3802.3446562701056, -12393.55056208975, 23499.193608664707, 7168.115039839154, 0.122, 0.9440000000000001, 0.276, 192.0, 0.0, 0.0, 0.0, 0.0, 0.0, 0.0, 0.0, 0.0, 0.0, 1.687804798116044E9, 0.0, 2023-06-26 13:39:58.116
99.0, 51881.25990405797, 50375.266417892744, 21650.749045699722, -24977.202710771886, -3799.1483568129966, -12283.311758436175, 23578.452894503225, 7255.331546703762, 0.122, 0.9440000000000001, 0.276, 192.0, 0.0, 0.0, 0.0, 0.0, 0.0, 0.0, 0.0, 0.0, 0.0, 1.6878047981211314E9, 0.0, 2023-06-26 13:39:58.121
100.0, 51886.8478401718, 50386.26347616476, 21669.300993597626, -24999.956786627386, -3706.0309894121874, -12287.402127671496, 23596.647214489843, 7223.18973817703, 0.122, 0.9440000000000001, 0.276, 192.0, 0.0, 0.0, 0.0, 0.0, 0.0, 0.0, 0.0, 0.0, 0.0, 1.6878047981251216E9, 0.0, 2023-06-26 13:39:58.125
101.0, 51981.730995384576, 50455.57623572067, 21663.601298761525, -25064.0168862363, -3686.7637856917127, -12386.643873053059, 23535.202268982204, 7157.408554245062, 0.122, 0.9440000000000001, 0.276, 192.0, 0.0, 0.0, 0.0, 0.0, 0.0, 0.0, 0.0, 0.0, 0.0, 1.6878047981291356E9, 0.0, 2023-06-26 13:39:58.129
102.0, 51975.494858681544, 50440.06412506868, 21632.890001879932, -25060.127682701073, -3777.087185035609, -12404.391158150573, 23505.429745367735, 7162.392993258595, 0.122, 0.9440000000000001, 0.276, 192.0, 0.0, 0.0, 0.0, 0.0, 0.0, 0.0, 0.0, 0.0, 0.0, 1.6878047981321335E9, 0.0, 2023-06-26 13:39:58.132
103.0, 51882.4445465141, 50369.85729573456, 21633.962885613786, -24998.05688834869, -3818.6614297224796, -12315.028883818255, 23560.549147194524, 7235.930232516555, 0.122, 0.9460000000000001, 0.28, 192.0, 3.0, 208.0, 29.0, 144.0, 8.0, 192.0, 0.0, 0.0, 0.0, 1.687804798136158E9, 0.0, 2023-06-26 13:39:58.136
104.0, 51878.197715067596, 50373.07594693613, 21675.067743667096, -24987.037478332222, -3719.397332596461, -12277.187380455422, 23606.884313450377, 7244.267433198385, 0.122, 0.9460000000000001, 0.28, 192.0, 0.0, 0.0, 0.0, 0.0, 0.0, 0.0, 0.0, 0.0, 0.0, 1.6878047981401656E9, 0.0, 2023-06-26 13:39:58.140
105.0, 51967.76115510001, 50439.684145412946, 21678.465208824302, -25053.891545998045, -3677.1301838314753, -12372.383460090574, 23556.414074470293, 7166.908045638567, 0.122, 0.9460000000000001, 0.28, 192.0, 0.0, 0.0, 0.0, 0.0, 0.0, 0.0, 0.0, 0.0, 0.0, 1.6878047981431816E9, 0.0, 2023-06-26 13:39:58.143
106.0, 51992.43748097867, 50453.18459906395, 21653.52066201218, -25054.360932631607, -3755.0930684915866, -12406.603980851649, 23516.717376317665, 7162.013013602855, 0.122, 0.9460000000000001, 0.28, 192.0, 0.0, 0.0, 0.0, 0.0, 0.0, 0.0, 0.0, 0.0, 0.0, 1.6878047981481922E9, 0.0, 2023-06-26 13:39:58.148
107.0, 51903.18696536863, 50381.97194122934, 21644.9599438858, -24990.099667322596, -3814.3475430426056, -12315.632380918549, 23561.7114379062, 7238.835959295745, 0.122, 0.9460000000000001, 0.28, 192.0, 0.0, 0.0, 0.0, 0.0, 0.0, 0.0, 0.0, 0.0, 0.0, 1.687804798152218E9, 0.0, 2023-06-26 13:39:58.152
108.0, 51861.16568579265, 50356.58035952811, 21668.80925521961, -24979.728457895337, -3729.4109141124386, -12272.828790286636, 23597.138952867863, 7250.4812181569605, 0.122, 0.9460000000000001, 0.28, 192.0, 0.0, 0.0, 0.0, 0.0, 0.0, 0.0, 0.0, 0.0, 0.0, 1.6878047981552305E9, 0.0, 2023-06-26 13:39:58.155
109.0, 51950.28209093596, 50425.64724989501, 21681.639156536956, -25041.218106891884, -3661.595721435037, -12357.363087816608, 23557.151682037318, 7175.826391676234, 0.122, 0.9460000000000001, 0.28, 192.0, 0.0, 0.0, 0.0, 0.0, 0.0, 0.0, 0.0, 0.0, 0.0, 1.6878047981593735E9, 0.0, 2023-06-26 13:39:58.159
110.0, 52001.19936480515, 50457.140857832535, 21662.371952816484, -25065.268583925794, -3729.433265856894, -12412.638951854582, 23515.55508560599, 7153.6311094321145, 0.122, 0.9460000000000001, 0.28, 192.0, 0.0, 0.0, 0.0, 0.0, 0.0, 0.0, 0.0, 0.0, 0.0, 1.6878047981632693E9, 0.0, 2023-06-26 13:39:58.163
111.0, 51928.5561953254, 50399.808633304674, 21649.027961376665, -25006.930530897444, -3801.204717302885, -12333.357314271607, 23554.827100613966, 7225.8272440227565, 0.122, 0.9460000000000001, 0.28, 192.0, 0.0, 0.0, 0.0, 0.0, 0.0, 0.0, 0.0, 0.0, 0.0, 1.687804798167297E9, 0.0, 2023-06-26 13:39:58.167
112.0, 51873.727366176536, 50365.565760799145, 21664.942403428842, -24977.537986938714, -3746.9570335098547, -12270.481857118828, 23599.128258124383, 7249.140113489642, 0.122, 0.9460000000000001, 0.28, 192.0, 0.0, 0.0, 0.0, 0.0, 0.0, 0.0, 0.0, 0.0, 0.0, 1.687804798171304E9, 0.0, 2023-06-26 13:39:58.171
113.0, 51941.386096642746, 50421.154549259496, 21676.073572167585, -25033.685569010446, -3673.3750907629837, -12343.795578932237, 23572.686144433756, 7179.80500218928, 0.126, 0.9460000000000001, 0.28, 192.0, 3.0, 240.0, 29.0, 144.0, 8.0, 192.0, 0.0, 0.0, 0.0, 1.6878047981753314E9, 0.0, 2023-06-26 13:39:58.175
114.0, 51993.19744029015, 50451.21764555188, 21642.992990373732, -25082.68059285648, -3728.0027542117546, -12435.862414343646, 23499.506533087082, 7135.056809789755, 0.126, 0.9460000000000001, 0.28, 192.0, 0.0, 0.0, 0.0, 0.0, 0.0, 0.0, 0.0, 0.0, 0.0, 1.687804798180343E9, 0.0, 2023-06-26 13:39:58.180
115.0, 51929.76318952599, 50399.182784459925, 21622.675254663856, -25036.658351023, -3827.646830993513, -12383.849904996147, 23514.906885016786, 7194.4230430630505, 0.126, 0.9460000000000001, 0.28, 192.0, 0.0, 0.0, 0.0, 0.0, 0.0, 0.0, 0.0, 0.0, 0.0, 1.6878047981853988E9, 0.0, 2023-06-26 13:39:58.185
116.0, 51855.73421189001, 50349.7854292137, 21639.506118238703, -24985.47285622035, -3796.309685267173, -12294.062947519178, 23574.161359567806, 7240.847616296723, 0.126, 0.9460000000000001, 0.28, 192.0, 0.0, 0.0, 0.0, 0.0, 0.0, 0.0, 0.0, 0.0, 0.0, 1.6878047981894093E9, 0.0, 2023-06-26 13:39:58.189
117.0, 51924.398770856715, 50412.325610199645, 21677.14645590144, -25006.84112391962, -3686.7190822028024, -12313.039578561733, 23570.5627287105, 7205.2859908683295, 0.126, 0.9460000000000001, 0.28, 192.0, 0.0, 0.0, 0.0, 0.0, 0.0, 0.0, 0.0, 0.0, 0.0, 1.687804798192551E9, 0.0, 2023-06-26 13:39:58.192
118.0, 52002.09343458336, 50467.02032888179, 21654.347676557027, -25063.368685647096, -3721.051361686154, -12408.928562275001, 23500.42295460975, 7140.287117992297, 0.126, 0.9460000000000001, 0.28, 192.0, 0.0, 0.0, 0.0, 0.0, 0.0, 0.0, 0.0, 0.0, 0.0, 1.6878047981954217E9, 0.0, 2023-06-26 13:39:58.195
119.0, 51951.95847177011, 50421.53452891523, 21624.508097709193, -25034.400824833017, -3820.069589623164, -12385.816858508213, 23499.97591972064, 7176.854571921179, 0.126, 0.9460000000000001, 0.28, 192.0, 0.0, 0.0, 0.0, 0.0, 0.0, 0.0, 0.0, 0.0, 0.0, 1.687804798199457E9, 0.0, 2023-06-26 13:39:58.199
120.0, 51871.134563819716, 50363.66586252044, 21647.41863577588, -24969.759579868267, -3798.65661843498, -12285.323415437153, 23585.069010861997, 7252.559930391304, 0.126, 0.9460000000000001, 0.28, 192.0, 0.0, 0.0, 0.0, 0.0, 0.0, 0.0, 0.0, 0.0, 0.0, 1.6878047982054875E9, 0.0, 2023-06-26 13:39:58.205
121.0, 51897.330808321334, 50390.57736284463, 21667.512854041204, -25000.29206279422, -3704.0193324112097, -12306.423462202962, 23587.080667862974, 7208.258772880885, 0.126, 0.9460000000000001, 0.28, 192.0, 0.0, 0.0, 0.0, 0.0, 0.0, 0.0, 0.0, 0.0, 0.0, 1.6878047982085023E9, 0.0, 2023-06-26 13:39:58.208
122.0, 51980.34518722835, 50449.2059885509, 21647.28452530915, -25064.06158972521, -3715.664591272425, -12405.486393628884, 23512.492896615615, 7143.997507571878, 0.126, 0.9460000000000001, 0.28, 192.0, 0.0, 0.0, 0.0, 0.0, 0.0, 0.0, 0.0, 0.0, 0.0, 1.6878047982125075E9, 0.0, 2023-06-26 13:39:58.212
123.0, 51967.604692888825, 50437.31486050068, 21629.47018497827, -25036.30072311172, -3801.94232486991, -12397.350358647152, 23521.545353120015, 7179.000339388888, 0.126, 0.9460000000000001, 0.28, 192.0, 0.0, 0.0, 0.0, 0.0, 0.0, 0.0, 0.0, 0.0, 0.0, 1.687804798216534E9, 0.0, 2023-06-26 13:39:58.216
124.0, 51863.62437768273, 50360.49191480779, 21628.28554252214, -24984.936414353422, -3818.5049675112928, -12312.212564016887, 23575.413057257305, 7242.144017475131, 0.126, 0.9460000000000001, 0.278, 192.0, 3.0, 240.0, 29.0, 144.0, 8.0, 176.0, 0.0, 0.0, 0.0, 1.6878047982205622E9, 0.0, 2023-06-26 13:39:58.220
125.0, 51887.630151227735, 50387.17989768743, 21669.636269764458, -24980.488417206816, -3707.1262248904977, -12284.652863103494, 23606.66079600582, 7238.008944750899, 0.126, 0.9460000000000001, 0.278, 192.0, 0.0, 0.0, 0.0, 0.0, 0.0, 0.0, 0.0, 0.0, 0.0, 1.687804798223576E9, 0.0, 2023-06-26 13:39:58.223
126.0, 51988.45887046563, 50461.16417183449, 21677.14645590144, -25037.57477254567, -3672.9951111072437, -12376.183256647975, 23553.217775013185, 7168.718536939447, 0.126, 0.9460000000000001, 0.278, 192.0, 0.0, 0.0, 0.0, 0.0, 0.0, 0.0, 0.0, 0.0, 0.0, 1.6878047982275789E9, 0.0, 2023-06-26 13:39:58.227
127.0, 51981.08279479537, 50445.49559897132, 21642.009513617697, -25045.19671740493, -3767.207713986363, -12400.367844148619, 23524.60754211039, 7170.014938117855, 0.126, 0.9460000000000001, 0.278, 192.0, 0.0, 0.0, 0.0, 0.0, 0.0, 0.0, 0.0, 0.0, 0.0, 1.6878047982316015E9, 0.0, 2023-06-26 13:39:58.231
128.0, 51894.42508154215, 50381.34609238459, 21647.753911942713, -24976.71097239387, -3807.820833661656, -12300.075566777656, 23577.04473460254, 7253.811628080801, 0.126, 0.9460000000000001, 0.278, 192.0, 0.0, 0.0, 0.0, 0.0, 0.0, 0.0, 0.0, 0.0, 0.0, 1.6878047982356188E9, 0.0, 2023-06-26 13:39:58.235
129.0, 51875.8954853887, 50376.56281907116, 21672.67610701038, -24975.928661337934, -3719.5537948076485, -12271.979423997334, 23608.046604162053, 7253.9457385475325, 0.126, 0.9460000000000001, 0.278, 192.0, 0.0, 0.0, 0.0, 0.0, 0.0, 0.0, 0.0, 0.0, 0.0, 1.687804798239645E9, 0.0, 2023-06-26 13:39:58.239
130.0, 51957.680518350666, 50438.70066865691, 21667.75872323021, -25050.315266885194, -3676.3031692866293, -12372.450515323939, 23543.830042341953, 7163.890560137101, 0.126, 0.9460000000000001, 0.278, 192.0, 0.0, 0.0, 0.0, 0.0, 0.0, 0.0, 0.0, 0.0, 0.0, 1.687804798242669E9, 0.0, 2023-06-26 13:39:58.242
131.0, 51977.77473661599, 50444.22154953737, 21636.063949592586, -25064.218051936397, -3757.0600220036536, -12425.64766712757, 23517.07500422895, 7154.078144321221, 0.126, 0.9460000000000001, 0.278, 192.0, 0.0, 0.0, 0.0, 0.0, 0.0, 0.0, 0.0, 0.0, 0.0, 1.6878047982466836E9, 0.0, 2023-06-26 13:39:58.246
132.0, 51890.155898351186, 50374.372348114535, 21628.062025077586, -25004.449487262904, -3823.332944313639, -12350.411695291006, 23562.784321640054, 7225.424912622561, 0.126, 0.9460000000000001, 0.278, 192.0, 0.0, 0.0, 0.0, 0.0, 0.0, 0.0, 0.0, 0.0, 0.0, 1.6878047982516975E9, 0.0, 2023-06-26 13:39:58.251
133.0, 51858.01408982445, 50356.87093220603, 21657.879252180966, -24983.394143986006, -3744.587748597592, -12291.71601435137, 23608.20306637324, 7234.231499937952, 0.126, 0.9460000000000001, 0.278, 192.0, 0.0, 0.0, 0.0, 0.0, 0.0, 0.0, 0.0, 0.0, 0.0, 1.6878047982557185E9, 0.0, 2023-06-26 13:39:58.255
134.0, 51942.436628632146, 50425.73665687283, 21670.53033954267, -25035.987798689344, -3665.6190354369924, -12354.122084870587, 23561.9126036063, 7166.058679349266, 0.128, 0.9460000000000001, 0.28, 192.0, 4.0, 0.0, 29.0, 144.0, 8.0, 192.0, 0.0, 0.0, 0.0, 1.687804798263775E9, 0.0, 2023-06-26 13:39:58.263
135.0, 52000.79703340495, 50464.18165733596, 21655.04058063514, -25051.186984918953, -3722.817149498123, -12405.26287618433, 23522.908809531786, 7154.74869665488, 0.128, 0.9460000000000001, 0.28, 192.0, 0.0, 0.0, 0.0, 0.0, 0.0, 0.0, 0.0, 0.0, 0.0, 1.6878047982667975E9, 0.0, 2023-06-26 13:39:58.266
136.0, 51915.34631435232, 50391.87376402304, 21628.66552217788, -25007.176400086453, -3809.8324906626335, -12349.092942368145, 23550.781434867557, 7216.23834565143, 0.128, 0.9460000000000001, 0.28, 192.0, 0.0, 0.0, 0.0, 0.0, 0.0, 0.0, 0.0, 0.0, 0.0, 1.6878047982708051E9, 0.0, 2023-06-26 13:39:58.270
137.0, 51862.238569526504, 50362.347109597584, 21657.543976014134, -24963.70225712088, -3759.4516586603713, -12268.738421051316, 23610.170019885307, 7258.6396048831475, 0.128, 0.9460000000000001, 0.28, 192.0, 0.0, 0.0, 0.0, 0.0, 0.0, 0.0, 0.0, 0.0, 0.0, 1.6878047982738414E9, 0.0, 2023-06-26 13:39:58.273
138.0, 51929.159692425696, 50418.78526434723, 21674.77717098918, -25018.106403125097, -3673.82212565209, -12332.195023559932, 23581.7162491937, 7188.097499382198, 0.128, 0.9460000000000001, 0.28, 192.0, 0.0, 0.0, 0.0, 0.0, 0.0, 0.0, 0.0, 0.0, 0.0, 1.6878047982768369E9, 0.0, 2023-06-26 13:39:58.276
139.0, 51998.58421070388, 50467.93675040445, 21656.225223091275, -25058.741874544845, -3719.486739574282, -12416.997542023366, 23516.02447223955, 7141.404705215062, 0.128, 0.9460000000000001, 0.28, 192.0, 0.0, 0.0, 0.0, 0.0, 0.0, 0.0, 0.0, 0.0, 0.0, 1.687804798297959E9, 0.0, 2023-06-26 13:39:58.297
140.0, 51938.68153556366, 50418.6511538805, 21636.265115292685, -25010.23858907683, -3811.240650563318, -12366.415544321007, 23535.068158515474, 7201.575601288749, 0.128, 0.9460000000000001, 0.28, 192.0, 0.0, 0.0, 0.0, 0.0, 0.0, 0.0, 0.0, 0.0, 0.0, 1.687804798300949E9, 0.0, 2023-06-26 13:39:58.300
141.0, 51868.36294750726, 50371.10899342406, 21658.236880092252, -24958.114321007055, -3774.404975700972, -12266.279729161231, 23613.29926410905, 7268.139096276653, 0.128, 0.9460000000000001, 0.28, 192.0, 0.0, 0.0, 0.0, 0.0, 0.0, 0.0, 0.0, 0.0, 0.0, 1.6878047983039863E9, 0.0, 2023-06-26 13:39:58.303
142.0, 51922.90120397821, 50419.41111319198, 21682.019136192695, -24991.507827223282, -3679.499468743738, -12293.302988207697, 23601.09521163645, 7223.457959110494, 0.128, 0.9460000000000001, 0.28, 192.0, 0.0, 0.0, 0.0, 0.0, 0.0, 0.0, 0.0, 0.0, 0.0, 1.6878047983069713E9, 0.0, 2023-06-26 13:39:58.306
143.0, 52001.84756539435, 50473.32352081818, 21666.417618562893, -25045.777862760766, -3712.311829604129, -12402.759480805336, 23525.233390955138, 7144.980984327911, 0.128, 0.9460000000000001, 0.28, 192.0, 0.0, 0.0, 0.0, 0.0, 0.0, 0.0, 0.0, 0.0, 0.0, 1.6878047983110063E9, 0.0, 2023-06-26 13:39:58.311
144.0, 51952.852541548324, 50430.31876448617, 21636.555687970602, -25019.894542681523, -3815.3086680541837, -12378.485486326872, 23514.325739660948, 7190.936170928022, 0.124, 0.9420000000000001, 0.276, 192.0, 3.0, 224.0, 29.0, 112.0, 8.0, 160.0, 0.0, 0.0, 0.0, 1.6878047983140187E9, 0.0, 2023-06-26 13:39:58.314
145.0, 51860.62924392572, 50363.12942065352, 21645.161109585897, -24959.388370441007, -3813.22995581984, -12271.688851319415, 23586.991260885152, 7266.7979916093345, 0.124, 0.9420000000000001, 0.276, 192.0, 0.0, 0.0, 0.0, 0.0, 0.0, 0.0, 0.0, 0.0, 0.0, 1.6878047983170316E9, 0.0, 2023-06-26 13:39:58.317
146.0, 51892.07814837434, 50393.93012451293, 21678.778133246677, -24986.411629487473, -3701.627695754492, -12289.704357350392, 23595.261406333615, 7225.737837044935, 0.124, 0.9420000000000001, 0.276, 192.0, 0.0, 0.0, 0.0, 0.0, 0.0, 0.0, 0.0, 0.0, 0.0, 1.68780479832014E9, 0.0, 2023-06-26 13:39:58.320
147.0, 51985.374329730796, 50463.444049768936, 21672.72081049929, -25044.213240648896, -3697.671436985903, -12391.717719044414, 23524.27226594356, 7150.613623930648, 0.124, 0.9420000000000001, 0.276, 192.0, 0.0, 0.0, 0.0, 0.0, 0.0, 0.0, 0.0, 0.0, 0.0, 1.687804798324142E9, 0.0, 2023-06-26 13:39:58.324
148.0, 51959.37925092927, 50435.28085175525, 21635.683969936847, -25035.25019112232, -3799.4389294909156, -12395.539867346271, 23516.359748406383, 7169.925531140034, 0.124, 0.9420000000000001, 0.276, 192.0, 0.0, 0.0, 0.0, 0.0, 0.0, 0.0, 0.0, 0.0, 0.0, 1.6878047983271449E9, 0.0, 2023-06-26 13:39:58.327
149.0, 51877.86243890077, 50375.758156270764, 21650.14554859943, -24964.75278911028, -3816.4039035324936, -12302.131927267543, 23580.28573754856, 7246.122627988176, 0.124, 0.9420000000000001, 0.276, 192.0, 0.0, 0.0, 0.0, 0.0, 0.0, 0.0, 0.0, 0.0, 0.0, 1.6878047983301325E9, 0.0, 2023-06-26 13:39:58.330
150.0, 51889.440642528614, 50391.359673900566, 21686.73535427277, -24968.150254267486, -3710.367227836517, -12288.407956171985, 23616.942598455265, 7234.589127849237, 0.124, 0.9420000000000001, 0.276, 192.0, 0.0, 0.0, 0.0, 0.0, 0.0, 0.0, 0.0, 0.0, 0.0, 1.6878047983341196E9, 0.0, 2023-06-26 13:39:58.334
151.0, 51983.13915528526, 50463.712270702395, 21681.32623211458, -25033.350292843617, -3683.053396112132, -12395.673977813003, 23554.80474886951, 7152.290004764796, 0.124, 0.9420000000000001, 0.276, 192.0, 0.0, 0.0, 0.0, 0.0, 0.0, 0.0, 0.0, 0.0, 0.0, 1.6878047983371332E9, 0.0, 2023-06-26 13:39:58.337
152.0, 51984.3685012303, 50454.905683387005, 21644.535260741148, -25041.352217358617, -3778.3165309806504, -12419.433882168994, 23504.446268611704, 7150.971251841933, 0.124, 0.9420000000000001, 0.276, 192.0, 0.0, 0.0, 0.0, 0.0, 0.0, 0.0, 0.0, 0.0, 0.0, 1.6878047983401506E9, 0.0, 2023-06-26 13:39:58.340
153.0, 51898.26958158846, 50390.175031444436, 21652.313667811595, -24969.670172890448, -3821.678915223946, -12314.693607651427, 23561.107940805905, 7242.680459342058, 0.124, 0.9420000000000001, 0.276, 192.0, 0.0, 0.0, 0.0, 0.0, 0.0, 0.0, 0.0, 0.0, 0.0, 1.687804798343188E9, 0.0, 2023-06-26 13:39:58.343
154.0, 51878.42123251215, 50385.54822034219, 21680.14158965845, -24960.103626263575, -3737.144617693975, -12276.829752544136, 23606.616092516913, 7240.355877918706, 0.126, 0.9380000000000001, 0.28, 192.0, 3.0, 240.0, 29.0, 80.0, 8.0, 192.0, 0.0, 0.0, 0.0, 1.6878047983461995E9, 0.0, 2023-06-26 13:39:58.346
155.0, 51967.537637655456, 50451.821142652174, 21683.96373796031, -25030.422214319973, -3683.209858323319, -12382.128820673088, 23557.643420415334, 7155.039269332799, 0.126, 0.9380000000000001, 0.28, 192.0, 0.0, 0.0, 0.0, 0.0, 0.0, 0.0, 0.0, 0.0, 0.0, 1.6878047983501897E9, 0.0, 2023-06-26 13:39:58.350
156.0, 51999.74650141555, 50468.07086087118, 21664.607127262014, -25038.53589755725, -3753.729612079813, -12422.831347326202, 23531.625989869357, 7154.994565843888, 0.126, 0.9380000000000001, 0.28, 192.0, 0.0, 0.0, 0.0, 0.0, 0.0, 0.0, 0.0, 0.0, 0.0, 1.6878047983532207E9, 0.0, 2023-06-26 13:39:58.353
157.0, 51908.77490148245, 50397.95343851489, 21646.39045553094, -24983.640013175012, -3831.0666478951753, -12345.20373883292, 23556.726998892667, 7224.016752721876, 0.126, 0.9380000000000001, 0.28, 192.0, 0.0, 0.0, 0.0, 0.0, 0.0, 0.0, 0.0, 0.0, 0.0, 1.687804798356246E9, 0.0, 2023-06-26 13:39:58.356
158.0, 51880.72346219105, 50389.54918259969, 21687.562368817613, -24945.105605734065, -3748.4769521328158, -12273.365232153563, 23617.18846764427, 7260.360689206206, 0.126, 0.9380000000000001, 0.28, 192.0, 0.0, 0.0, 0.0, 0.0, 0.0, 0.0, 0.0, 0.0, 0.0, 1.687804798359256E9, 0.0, 2023-06-26 13:39:58.359
159.0, 51963.1119922533, 50454.190427564434, 21703.409755636425, -25002.482533750837, -3667.988320349255, -12356.737238971858, 23593.33915631046, 7189.080976138232, 0.126, 0.9380000000000001, 0.28, 192.0, 0.0, 0.0, 0.0, 0.0, 0.0, 0.0, 0.0, 0.0, 0.0, 1.6878047983632772E9, 0.0, 2023-06-26 13:39:58.363
160.0, 52017.15851034624, 50488.99209368135, 21674.82187447809, -25035.026673677767, -3733.8365595145897, -12422.496071159372, 23537.817423083477, 7156.89446412259, 0.126, 0.9380000000000001, 0.28, 192.0, 0.0, 0.0, 0.0, 0.0, 0.0, 0.0, 0.0, 0.0, 0.0, 1.6878047983662598E9, 0.0, 2023-06-26 13:39:58.366
161.0, 51938.54742509693, 50424.99904930581, 21649.564403243592, -24985.47285622035, -3821.5001012683038, -12355.68670698246, 23563.633687929356, 7215.008999706388, 0.126, 0.9380000000000001, 0.28, 192.0, 0.0, 0.0, 0.0, 0.0, 0.0, 0.0, 0.0, 0.0, 0.0, 1.68780479836977E9, 0.0, 2023-06-26 13:39:58.369
162.0, 51868.184133551615, 50374.88643823701, 21671.29029885415, -24953.018123271242, -3770.4487169323825, -12274.66163333197, 23615.936769954777, 7253.878683314167, 0.126, 0.9380000000000001, 0.28, 192.0, 0.0, 0.0, 0.0, 0.0, 0.0, 0.0, 0.0, 0.0, 0.0, 1.6878047983723693E9, 0.0, 2023-06-26 13:39:58.372
163.0, 51941.83313153186, 50438.41009597899, 21698.82764802309, -24993.51948422426, -3666.960140104311, -12327.34469501313, 23593.070935376996, 7201.150918144098, 0.126, 0.9380000000000001, 0.28, 192.0, 0.0, 0.0, 0.0, 0.0, 0.0, 0.0, 0.0, 0.0, 0.0, 1.687804798376316E9, 0.0, 2023-06-26 13:39:58.376
164.0, 52009.35775153134, 50485.460518057414, 21673.659583766414, -25039.452319079915, -3721.2972308751623, -12424.261858971342, 23527.066234000475, 7145.539777939293, 0.126, 0.9380000000000001, 0.28, 192.0, 0.0, 0.0, 0.0, 0.0, 0.0, 0.0, 0.0, 0.0, 0.0, 1.6878047983793373E9, 0.0, 2023-06-26 13:39:58.379
165.0, 51946.482294378555, 50432.86686335407, 21650.547879999624, -24999.509751738282, -3815.75570294329, -12382.35233811764, 23545.84169934293, 7199.809813476779, 0.122, 0.9440000000000001, 0.28, 192.0, 3.0, 208.0, 29.0, 128.0, 8.0, 192.0, 0.0, 0.0, 0.0, 1.6878047983833437E9, 0.0, 2023-06-26 13:39:58.383
166.0, 51874.01793885445, 50381.90488599597, 21674.106618655518, -24943.54098362219, -3788.397167729994, -12284.988139270323, 23614.796830987554, 7260.807724095313, 0.122, 0.9440000000000001, 0.28, 192.0, 0.0, 0.0, 0.0, 0.0, 0.0, 0.0, 0.0, 0.0, 0.0, 1.6878047983904085E9, 0.0, 2023-06-26 13:39:58.390
167.0, 51921.33658186634, 50425.44608419491, 21693.86556075401, -24977.761504383267, -3692.1952595943526, -12320.862689121092, 23604.537380282567, 7207.565868802771, 0.122, 0.9440000000000001, 0.28, 192.0, 0.0, 0.0, 0.0, 0.0, 0.0, 0.0, 0.0, 0.0, 0.0, 1.6878047983933847E9, 0.0, 2023-06-26 13:39:58.393
168.0, 52004.172146817706, 50481.77248022229, 21677.23586287926, -25035.47370856687, -3711.373056337006, -12420.663228114037, 23533.12355674786, 7144.265728505341, 0.122, 0.9440000000000001, 0.28, 192.0, 0.0, 0.0, 0.0, 0.0, 0.0, 0.0, 0.0, 0.0, 0.0, 1.6878047984024549E9, 0.0, 2023-06-26 13:39:58.402
169.0, 51966.352995199326, 50445.383840249044, 21650.52552825517, -25007.869304164567, -3804.758644671279, -12395.584570835183, 23534.688178859735, 7182.75543245738, 0.122, 0.9440000000000001, 0.28, 192.0, 0.0, 0.0, 0.0, 0.0, 0.0, 0.0, 0.0, 0.0, 0.0, 1.68780479840547E9, 0.0, 2023-06-26 13:39:58.405
170.0, 51877.08012784483, 50383.98359823032, 21658.34863881453, -24955.052132016677, -3804.13279582653, -12299.740290610825, 23597.831856945977, 7249.251872211918, 0.122, 0.9440000000000001, 0.28, 192.0, 0.0, 0.0, 0.0, 0.0, 0.0, 0.0, 0.0, 0.0, 0.0, 1.6878047984094732E9, 0.0, 2023-06-26 13:39:58.409
171.0, 51896.19086935412, 50407.60939211958, 21682.265005381705, -24975.61573691556, -3710.6130970255253, -12313.374854728563, 23600.804638958532, 7218.227650907952, 0.122, 0.9440000000000001, 0.28, 192.0, 0.0, 0.0, 0.0, 0.0, 0.0, 0.0, 0.0, 0.0, 0.0, 1.6878047984124773E9, 0.0, 2023-06-26 13:39:58.412
172.0, 51992.23631527857, 50479.93963717695, 21684.164903660407, -25025.482478795348, -3696.620904996503, -12405.754614562347, 23546.780472610055, 7156.492132722394, 0.122, 0.9440000000000001, 0.28, 192.0, 0.0, 0.0, 0.0, 0.0, 0.0, 0.0, 0.0, 0.0, 0.0, 1.6878047984154892E9, 0.0, 2023-06-26 13:39:58.415
173.0, 51974.041995291955, 50453.89985488652, 21653.61006899, -25015.53595251274, -3794.5215457107483, -12400.658416826536, 23523.065271742973, 7176.5192957543495, 0.122, 0.9440000000000001, 0.28, 192.0, 0.0, 0.0, 0.0, 0.0, 0.0, 0.0, 0.0, 0.0, 0.0, 1.687804798419516E9, 0.0, 2023-06-26 13:39:58.419
174.0, 51882.176325580636, 50384.58709533061, 21656.739313213744, -24954.962725038855, -3822.237708835329, -12307.742215125825, 23562.739618151143, 7244.178026220564, 0.122, 0.9440000000000001, 0.28, 192.0, 0.0, 0.0, 0.0, 0.0, 0.0, 0.0, 0.0, 0.0, 0.0, 1.6878047984225807E9, 0.0, 2023-06-26 13:39:58.422
175.0, 51890.26765707346, 50398.46752863735, 21689.75283977423, -24957.667286117947, -3719.889070974478, -12291.224275973354, 23607.398403572846, 7233.583299348748, 0.12, 0.9440000000000001, 0.278, 192.0, 3.0, 192.0, 29.0, 128.0, 8.0, 176.0, 0.0, 0.0, 0.0, 1.6878047984255593E9, 0.0, 2023-06-26 13:39:58.425
176.0, 51983.608541918824, 50469.32255856068, 21684.991918205254, -25025.61658926208, -3692.821108439101, -12393.908190001035, 23558.939821593744, 7159.397859501584, 0.12, 0.9440000000000001, 0.278, 192.0, 0.0, 0.0, 0.0, 0.0, 0.0, 0.0, 0.0, 0.0, 0.0, 1.68780479842857E9, 0.0, 2023-06-26 13:39:58.428
177.0, 52004.306257284436, 50481.6160180111, 21666.730542985268, -25017.10057462461, -3772.7062431223685, -12410.269666942319, 23529.74844333511, 7170.529028240327, 0.12, 0.9440000000000001, 0.278, 192.0, 0.0, 0.0, 0.0, 0.0, 0.0, 0.0, 0.0, 0.0, 0.0, 1.6878047984315808E9, 0.0, 2023-06-26 13:39:58.431
178.0, 51911.27829686145, 50409.62104912056, 21659.15330161492, -24957.488472162306, -3819.622554734058, -12320.259192020798, 23580.911586393308, 7242.43459015305, 0.12, 0.9440000000000001, 0.278, 192.0, 0.0, 0.0, 0.0, 0.0, 0.0, 0.0, 0.0, 0.0, 0.0, 1.687804798435604E9, 0.0, 2023-06-26 13:39:58.435
179.0, 51883.36096803677, 50395.003008246786, 21682.086191426064, -24952.928716293423, -3736.630527571503, -12287.737403838326, 23618.104889166938, 7242.255776197408, 0.12, 0.9440000000000001, 0.278, 192.0, 0.0, 0.0, 0.0, 0.0, 0.0, 0.0, 0.0, 0.0, 0.0, 1.6878047984406276E9, 0.0, 2023-06-26 13:39:58.440
180.0, 51973.23733249156, 50465.679224214466, 21690.781020019178, -25010.015071632275, -3679.4547652548276, -12375.06566942521, 23578.13997008085, 7174.194714330997, 0.12, 0.9440000000000001, 0.278, 192.0, 0.0, 0.0, 0.0, 0.0, 0.0, 0.0, 0.0, 0.0, 0.0, 1.6878047984446568E9, 0.0, 2023-06-26 13:39:58.444
181.0, 52001.95932411663, 50477.07861388667, 21658.48274928126, -25035.831336478157, -3753.595501613081, -12435.750655621368, 23523.66876884327, 7145.673888406025, 0.12, 0.9440000000000001, 0.278, 192.0, 0.0, 0.0, 0.0, 0.0, 0.0, 0.0, 0.0, 0.0, 0.0, 1.6878047984476707E9, 0.0, 2023-06-26 13:39:58.447
182.0, 51917.268564375474, 50412.97381078885, 21650.70434221081, -24973.581728170127, -3827.8032932047004, -12354.591471504149, 23551.273173245572, 7212.013865949377, 0.12, 0.9440000000000001, 0.278, 192.0, 0.0, 0.0, 0.0, 0.0, 0.0, 0.0, 0.0, 0.0, 0.0, 1.68780479845167E9, 0.0, 2023-06-26 13:39:58.451
183.0, 51882.1986773251, 50396.5452786142, 21689.216397907305, -24934.108547462052, -3750.1309812225086, -12279.71312757887, 23617.05435717754, 7254.281014714363, 0.12, 0.9440000000000001, 0.278, 192.0, 0.0, 0.0, 0.0, 0.0, 0.0, 0.0, 0.0, 0.0, 0.0, 1.6878047984567008E9, 0.0, 2023-06-26 13:39:58.456
184.0, 51959.53571314046, 50460.60537822311, 21698.648834067444, -24992.75952491278, -3671.63165469547, -12360.44762855144, 23579.57048172599, 7179.737946955914, 0.12, 0.9440000000000001, 0.278, 192.0, 0.0, 0.0, 0.0, 0.0, 0.0, 0.0, 0.0, 0.0, 0.0, 1.6878047984607277E9, 0.0, 2023-06-26 13:39:58.460
185.0, 52026.94857441766, 50507.74520727935, 21687.29414788415, -25010.417403032472, -3728.5168443342263, -12414.583553622193, 23524.629893854846, 7153.318185009741, 0.124, 0.9440000000000001, 0.28400000000000003, 192.0, 3.0, 224.0, 29.0, 128.0, 8.0, 224.0, 0.0, 0.0, 0.0, 1.6878047984637475E9, 0.0, 2023-06-26 13:39:58.463
186.0, 51947.77869555697, 50442.053430325206, 21662.03667664965, -24968.23966124531, -3826.0598571371866, -12359.039468650755, 23542.600696396912, 7210.091615926221, 0.124, 0.9440000000000001, 0.28400000000000003, 192.0, 0.0, 0.0, 0.0, 0.0, 0.0, 0.0, 0.0, 0.0, 0.0, 1.6878047984667451E9, 0.0, 2023-06-26 13:39:58.466
187.0, 51883.94211339261, 50402.08851123912, 21679.024002435686, -24927.090099703088, -3786.7207868958462, -12279.109630478577, 23598.927092424285, 7254.906863559111, 0.124, 0.9440000000000001, 0.28400000000000003, 192.0, 0.0, 0.0, 0.0, 0.0, 0.0, 0.0, 0.0, 0.0, 0.0, 1.6878047984727793E9, 0.0, 2023-06-26 13:39:58.472
188.0, 51943.12953271026, 50451.84349439663, 21694.804334021133, -24979.28142300623, -3694.989227651266, -12339.839320163646, 23584.62197597289, 7188.9468656715, 0.124, 0.9440000000000001, 0.28400000000000003, 192.0, 0.0, 0.0, 0.0, 0.0, 0.0, 0.0, 0.0, 0.0, 0.0, 1.6878047984758036E9, 0.0, 2023-06-26 13:39:58.475
189.0, 52015.05744636744, 50497.66457053001, 21674.665412266902, -25026.063624151186, -3726.3487251220618, -12435.102455032165, 23538.197402739217, 7139.057772047255, 0.124, 0.9440000000000001, 0.28400000000000003, 192.0, 0.0, 0.0, 0.0, 0.0, 0.0, 0.0, 0.0, 0.0, 0.0, 1.6878047984798603E9, 0.0, 2023-06-26 13:39:58.479
190.0, 51951.84671304783, 50439.46062796839, 21642.09892059552, -24998.28040579324, -3829.0773426386527, -12405.017006995322, 23535.470489915668, 7184.700034224991, 0.124, 0.9440000000000001, 0.28400000000000003, 192.0, 0.0, 0.0, 0.0, 0.0, 0.0, 0.0, 0.0, 0.0, 0.0, 1.6878047984848387E9, 0.0, 2023-06-26 13:39:58.484
191.0, 51880.81286916887, 50390.800880289185, 21670.776208731677, -24934.30971316215, -3797.203755045385, -12296.901619065002, 23606.996072172653, 7255.465657170494, 0.124, 0.9440000000000001, 0.28400000000000003, 192.0, 0.0, 0.0, 0.0, 0.0, 0.0, 0.0, 0.0, 0.0, 0.0, 1.6878047984888647E9, 0.0, 2023-06-26 13:39:58.488
192.0, 51926.90216623571, 50432.44218020942, 21696.413659621914, -24963.188166998407, -3698.4537480418385, -12326.405921746007, 23601.050508147542, 7206.895316469111, 0.124, 0.9440000000000001, 0.28400000000000003, 192.0, 0.0, 0.0, 0.0, 0.0, 0.0, 0.0, 0.0, 0.0, 0.0, 1.6878047984918752E9, 0.0, 2023-06-26 13:39:58.491
193.0, 52003.881574139785, 50486.80162272473, 21672.67610701038, -25025.884810195545, -3723.1524256649527, -12436.421207955029, 23525.546315377513, 7135.302678978763, 0.124, 0.9440000000000001, 0.28400000000000003, 192.0, 0.0, 0.0, 0.0, 0.0, 0.0, 0.0, 0.0, 0.0, 0.0, 1.6878047984948883E9, 0.0, 2023-06-26 13:39:58.494
194.0, 51971.69506212414, 50455.41977350948, 21653.341848056538, -24994.815885402666, -3809.94424938491, -12408.034492496789, 23546.109920276394, 7180.788478945313, 0.124, 0.9440000000000001, 0.28400000000000003, 192.0, 0.0, 0.0, 0.0, 0.0, 0.0, 0.0, 0.0, 0.0, 0.0, 1.6878047984989235E9, 0.0, 2023-06-26 13:39:58.498
195.0, 51885.663197715665, 50392.99135124581, 21668.518682541693, -24935.919038762935, -3810.525394740748, -12309.239782004332, 23599.95527266923, 7251.978785035466, 0.12, 0.9400000000000001, 0.278, 192.0, 3.0, 192.0, 29.0, 96.0, 8.0, 176.0, 0.0, 0.0, 0.0, 1.6878047985029252E9, 0.0, 2023-06-26 13:39:58.502
196.0, 51913.424064329156, 50423.94851731641, 21701.509857357723, -24954.0910070051, -3710.054303414143, -12305.685854635938, 23618.19429614476, 7228.889433013133, 0.12, 0.9400000000000001, 0.278, 192.0, 0.0, 0.0, 0.0, 0.0, 0.0, 0.0, 0.0, 0.0, 0.0, 1.6878047985079677E9, 0.0, 2023-06-26 13:39:58.507
197.0, 52001.40053050525, 50488.18743088096, 21688.031755451175, -25016.206504846396, -3701.8065097101344, -12414.427091411006, 23554.22360351367, 7150.993603586388, 0.12, 0.9400000000000001, 0.278, 192.0, 0.0, 0.0, 0.0, 0.0, 0.0, 0.0, 0.0, 0.0, 0.0, 1.6878047985109656E9, 0.0, 2023-06-26 13:39:58.510
198.0, 52001.04290259396, 50483.158288378516, 21669.25629010872, -24992.29013827922, -3788.3077607521727, -12411.633123354093, 23545.886402831842, 7182.822487690746, 0.12, 0.9400000000000001, 0.278, 192.0, 0.0, 0.0, 0.0, 0.0, 0.0, 0.0, 0.0, 0.0, 0.0, 1.6878047985139835E9, 0.0, 2023-06-26 13:39:58.513
199.0, 51910.04895091641, 50414.89606081201, 21675.894758211944, -24927.60418982556, -3811.1959470744073, -12302.646017390016, 23604.8726564494, 7260.740668861947, 0.12, 0.9400000000000001, 0.278, 192.0, 0.0, 0.0, 0.0, 0.0, 0.0, 0.0, 0.0, 0.0, 0.0, 1.687804798520018E9, 0.0, 2023-06-26 13:39:58.520
200.0, 51903.65635200219, 50416.795959090705, 21698.917055000908, -24937.863640530544, -3719.9561262078437, -12282.305929935686, 23625.39155785937, 7244.3791919206615, 0.12, 0.9400000000000001, 0.278, 192.0, 0.0, 0.0, 0.0, 0.0, 0.0, 0.0, 0.0, 0.0, 0.0, 1.6878047985230389E9, 0.0, 2023-06-26 13:39:58.523
201.0, 51994.382082746284, 50484.90172444603, 21691.965662475308, -25005.43296401894, -3687.948428147844, -12401.083099971189, 23553.307181991004, 7150.054830319265, 0.12, 0.9400000000000001, 0.278, 192.0, 0.0, 0.0, 0.0, 0.0, 0.0, 0.0, 0.0, 0.0, 0.0, 1.6878047985271077E9, 0.0, 2023-06-26 13:39:58.527
202.0, 52001.19936480515, 50477.74916622033, 21654.548842257125, -25015.178324601453, -3777.5342199247148, -12436.041228299287, 23510.436536125726, 7143.572824427227, 0.12, 0.9400000000000001, 0.278, 192.0, 0.0, 0.0, 0.0, 0.0, 0.0, 0.0, 0.0, 0.0, 0.0, 1.687804798531119E9, 0.0, 2023-06-26 13:39:58.531
203.0, 51910.98772418353, 50408.838738064616, 21657.253403336217, -24948.70423659137, -3825.2551943367953, -12336.486558495351, 23587.99708938564, 7241.272299441373, 0.12, 0.9400000000000001, 0.278, 192.0, 0.0, 0.0, 0.0, 0.0, 0.0, 0.0, 0.0, 0.0, 0.0, 1.6878047985351152E9, 0.0, 2023-06-26 13:39:58.535
204.0, 51892.68164547464, 50406.98354327483, 21698.715889300813, -24922.530343834205, -3735.982326982299, -12285.122249737055, 23641.753034800655, 7259.399564194628, 0.12, 0.9400000000000001, 0.278, 192.0, 0.0, 0.0, 0.0, 0.0, 0.0, 0.0, 0.0, 0.0, 0.0, 1.6878047985391264E9, 0.0, 2023-06-26 13:39:58.539
205.0, 51986.17899253118, 50481.88423894456, 21710.025871995196, -24985.09287656461, -3669.8658668835005, -12367.264910610309, 23589.76287719761, 7177.4580690214725, 0.12, 0.9400000000000001, 0.278, 192.0, 0.0, 0.0, 0.0, 0.0, 0.0, 0.0, 0.0, 0.0, 0.0, 1.6878047985421326E9, 0.0, 2023-06-26 13:39:58.542
206.0, 52018.432559780194, 50497.59751529664, 21677.749953001734, -25006.885827408532, -3752.343803923584, -12419.992675780377, 23538.130347505852, 7158.012051345355, 0.124, 0.9420000000000001, 0.28, 192.0, 3.0, 224.0, 29.0, 112.0, 8.0, 192.0, 0.0, 0.0, 0.0, 1.6878047985481603E9, 0.0, 2023-06-26 13:39:58.548
207.0, 51933.1606546832, 50429.15647377449, 21666.75289472972, -24947.296076690684, -3826.752761215301, -12341.135721342054, 23579.414019514803, 7241.160540719097, 0.124, 0.9420000000000001, 0.28, 192.0, 0.0, 0.0, 0.0, 0.0, 0.0, 0.0, 0.0, 0.0, 0.0, 1.6878047985521748E9, 0.0, 2023-06-26 13:39:58.552
208.0, 51883.22685757004, 50397.34994141459, 21689.19404616285, -24921.882143245002, -3764.9725395408323, -12282.440040402418, 23631.985322473683, 7265.032203797366, 0.124, 0.9420000000000001, 0.28, 192.0, 0.0, 0.0, 0.0, 0.0, 0.0, 0.0, 0.0, 0.0, 0.0, 1.6878047985562024E9, 0.0, 2023-06-26 13:39:58.556
209.0, 51957.47935265057, 50458.526665988764, 21698.984110234276, -24981.315431751664, -3689.557753748626, -12355.373782560086, 23603.57625527099, 7185.772917958846, 0.124, 0.9420000000000001, 0.28, 192.0, 0.0, 0.0, 0.0, 0.0, 0.0, 0.0, 0.0, 0.0, 0.0, 1.687804798559225E9, 0.0, 2023-06-26 13:39:58.559
210.0, 52013.13519634429, 50493.59655303914, 21671.267947109696, -25020.453336292903, -3750.5556643671594, -12438.343457978184, 23527.37915842285, 7140.041248803288, 0.124, 0.9420000000000001, 0.28, 192.0, 0.0, 0.0, 0.0, 0.0, 0.0, 0.0, 0.0, 0.0, 0.0, 1.6878047985652273E9, 0.0, 2023-06-26 13:39:58.565
211.0, 51950.52796012497, 50443.79686639272, 21659.823853948576, -24966.049190288686, -3825.8586914370885, -12369.20951237792, 23558.649248915823, 7212.483252582938, 0.124, 0.9420000000000001, 0.28, 192.0, 0.0, 0.0, 0.0, 0.0, 0.0, 0.0, 0.0, 0.0, 0.0, 1.6878047985682406E9, 0.0, 2023-06-26 13:39:58.568
212.0, 51890.6476367292, 50404.81542406266, 21687.96470021781, -24915.333082119596, -3773.197981500385, -12276.785049055225, 23638.73554929919, 7270.4413259555495, 0.124, 0.9420000000000001, 0.28, 192.0, 0.0, 0.0, 0.0, 0.0, 0.0, 0.0, 0.0, 0.0, 0.0, 1.6878047985722709E9, 0.0, 2023-06-26 13:39:58.572
213.0, 51948.49395137953, 50453.76574441978, 21703.946197503352, -24959.835405330112, -3692.0387973831653, -12328.082302580155, 23614.819182732008, 7209.5104705703825, 0.124, 0.9420000000000001, 0.28, 192.0, 0.0, 0.0, 0.0, 0.0, 0.0, 0.0, 0.0, 0.0, 0.0, 1.687804798575279E9, 0.0, 2023-06-26 13:39:58.575
214.0, 52020.10894061434, 50503.67718978849, 21682.287357126163, -25012.652577478002, -3728.852120501056, -12422.205498481453, 23548.926240077762, 7151.306528008763, 0.124, 0.9420000000000001, 0.28, 192.0, 0.0, 0.0, 0.0, 0.0, 0.0, 0.0, 0.0, 0.0, 0.0, 1.68780479857931E9, 0.0, 2023-06-26 13:39:58.579
215.0, 51976.50068718204, 50465.90274165902, 21665.680010995868, -24970.497187435292, -3816.3592000435833, -12379.044279938254, 23561.934955350753, 7210.80687174879, 0.124, 0.9420000000000001, 0.28, 192.0, 0.0, 0.0, 0.0, 0.0, 0.0, 0.0, 0.0, 0.0, 0.0, 1.687804798584325E9, 0.0, 2023-06-26 13:39:58.584
216.0, 51894.02275014195, 50406.42474966345, 21682.846150737543, -24914.483715830294, -3792.018150331754, -12286.217485215366, 23628.900781738852, 7277.638587670159, 0.12, 0.9460000000000001, 0.274, 192.0, 3.0, 192.0, 29.0, 144.0, 8.0, 144.0, 0.0, 0.0, 0.0, 1.6878047985873537E9, 0.0, 2023-06-26 13:39:58.587
217.0, 51928.42208485867, 50442.388706492035, 21706.62840683799, -24946.580820868116, -3691.1894310938637, -12316.0570640632, 23624.81041250353, 7227.078941712254, 0.12, 0.9460000000000001, 0.274, 192.0, 0.0, 0.0, 0.0, 0.0, 0.0, 0.0, 0.0, 0.0, 0.0, 1.6878047985913596E9, 0.0, 2023-06-26 13:39:58.591
218.0, 52007.70372244164, 50498.35747460812, 21686.06480193911, -25014.150144356507, -3712.7812162376904, -12419.277419957807, 23545.61818189838, 7146.612661673148, 0.12, 0.9460000000000001, 0.274, 192.0, 0.0, 0.0, 0.0, 0.0, 0.0, 0.0, 0.0, 0.0, 0.0, 1.687804798594371E9, 0.0, 2023-06-26 13:39:58.594
219.0, 51980.27813199498, 50468.07086087118, 21659.421522548382, -24990.077315578143, -3810.1454150850077, -12404.905248273046, 23548.166280766283, 7189.058624393777, 0.12, 0.9460000000000001, 0.274, 192.0, 0.0, 0.0, 0.0, 0.0, 0.0, 0.0, 0.0, 0.0, 0.0, 1.687804798598392E9, 0.0, 2023-06-26 13:39:58.598
220.0, 51890.22295358455, 50403.76489207326, 21670.8656157095, -24924.117317690532, -3820.740141956823, -12307.585752914638, 23620.563581057024, 7268.921407332588, 0.12, 0.9460000000000001, 0.274, 192.0, 0.0, 0.0, 0.0, 0.0, 0.0, 0.0, 0.0, 0.0, 0.0, 1.6878047986024292E9, 0.0, 2023-06-26 13:39:58.602
221.0, 51916.19568064162, 50434.8561686106, 21703.655624825435, -24933.54975385067, -3713.3176581046177, -12304.14358426852, 23638.444976621267, 7240.378229663162, 0.12, 0.9460000000000001, 0.274, 192.0, 0.0, 0.0, 0.0, 0.0, 0.0, 0.0, 0.0, 0.0, 0.0, 1.6878047986064324E9, 0.0, 2023-06-26 13:39:58.606
222.0, 52007.793129419464, 50504.32539037769, 21693.574988076092, -25000.694394194412, -3695.3245038180953, -12405.374634906608, 23571.657964188813, 7165.745754926891, 0.12, 0.9460000000000001, 0.274, 192.0, 0.0, 0.0, 0.0, 0.0, 0.0, 0.0, 0.0, 0.0, 0.0, 1.6878047986124876E9, 0.0, 2023-06-26 13:39:58.612
223.0, 51995.7231874136, 50486.42164306899, 21661.38847606045, -24995.37467901405, -3795.817946889156, -12411.230791953898, 23536.43161492725, 7183.537743513316, 0.12, 0.9460000000000001, 0.274, 192.0, 0.0, 0.0, 0.0, 0.0, 0.0, 0.0, 0.0, 0.0, 0.0, 1.687804798616501E9, 0.0, 2023-06-26 13:39:58.616
224.0, 51903.65635200219, 50416.25951722378, 21668.362220330506, -24929.951122993367, -3827.7809414602452, -12318.448700719919, 23599.374127313393, 7262.8640845852005, 0.12, 0.9460000000000001, 0.274, 192.0, 0.0, 0.0, 0.0, 0.0, 0.0, 0.0, 0.0, 0.0, 0.0, 1.6878047986195078E9, 0.0, 2023-06-26 13:39:58.619
225.0, 51896.32497982085, 50421.46747368187, 21694.62552006549, -24928.833535770602, -3736.8093415271455, -12295.96284579788, 23631.895915495865, 7250.414162923595, 0.12, 0.9460000000000001, 0.274, 192.0, 0.0, 0.0, 0.0, 0.0, 0.0, 0.0, 0.0, 0.0, 0.0, 1.6878047986235273E9, 0.0, 2023-06-26 13:39:58.623
226.0, 51991.69987341164, 50495.96583795141, 21699.7217178013, -24989.78674290022, -3695.369207307006, -12391.40479462204, 23569.266327532092, 7168.383260772617, 0.12, 0.9440000000000001, 0.272, 192.0, 3.0, 192.0, 29.0, 128.0, 8.0, 128.0, 0.0, 0.0, 0.0, 1.6878047986265392E9, 0.0, 2023-06-26 13:39:58.626
227.0, 52003.41218750623, 50494.691788517455, 21669.23393836426, -25001.7002226949, -3780.037615303709, -12434.521309676327, 23530.977789280154, 7156.313318766752, 0.12, 0.9440000000000001, 0.272, 192.0, 0.0, 0.0, 0.0, 0.0, 0.0, 0.0, 0.0, 0.0, 0.0, 1.6878047986315491E9, 0.0, 2023-06-26 13:39:58.631
228.0, 51917.08975041983, 50426.56367141768, 21665.90352844042, -24938.310675419652, -3833.659450251991, -12349.808198190714, 23577.38001076937, 7231.661049325592, 0.12, 0.9440000000000001, 0.272, 192.0, 0.0, 0.0, 0.0, 0.0, 0.0, 0.0, 0.0, 0.0, 0.0, 1.687804798636592E9, 0.0, 2023-06-26 13:39:58.636
229.0, 51889.865325673265, 50414.717246856366, 21696.681880555378, -24921.54686707817, -3744.185417197397, -12296.186363242432, 23631.91826724032, 7244.334488431751, 0.12, 0.9440000000000001, 0.272, 192.0, 0.0, 0.0, 0.0, 0.0, 0.0, 0.0, 0.0, 0.0, 0.0, 1.6878047986396182E9, 0.0, 2023-06-26 13:39:58.639
230.0, 51982.066271551404, 50487.02514016928, 21706.06961322661, -24978.499111950292, -3675.878486141978, -12374.618634536104, 23590.388726042358, 7174.105307353176, 0.12, 0.9440000000000001, 0.272, 192.0, 0.0, 0.0, 0.0, 0.0, 0.0, 0.0, 0.0, 0.0, 0.0, 1.687804798643669E9, 0.0, 2023-06-26 13:39:58.643
231.0, 52022.45587378215, 50509.10866369113, 21678.979298946775, -25008.316339053672, -3750.309795178151, -12432.375542208618, 23528.764966579078, 7146.903234351067, 0.12, 0.9440000000000001, 0.272, 192.0, 0.0, 0.0, 0.0, 0.0, 0.0, 0.0, 0.0, 0.0, 0.0, 1.6878047986476383E9, 0.0, 2023-06-26 13:39:58.647
232.0, 51937.94392799663, 50439.57238669066, 21658.929784170366, -24954.582745383115, -3837.079267153653, -12372.048183923744, 23554.402417469315, 7207.275296124852, 0.12, 0.9440000000000001, 0.272, 192.0, 0.0, 0.0, 0.0, 0.0, 0.0, 0.0, 0.0, 0.0, 0.0, 1.6878047986526625E9, 0.0, 2023-06-26 13:39:58.652
233.0, 51885.50673550448, 50405.84360430761, 21681.48269432577, -24921.569218822628, -3770.98515879931, -12304.501212179806, 23614.416851331815, 7245.00504076541, 0.12, 0.9440000000000001, 0.272, 192.0, 0.0, 0.0, 0.0, 0.0, 0.0, 0.0, 0.0, 0.0, 0.0, 1.6878047986566763E9, 0.0, 2023-06-26 13:39:58.656
234.0, 51968.789335344954, 50474.977549907875, 21708.23773243877, -24964.50691992127, -3670.9387506173553, -12354.680878481971, 23609.678281507287, 7194.825374463246, 0.12, 0.9440000000000001, 0.272, 192.0, 0.0, 0.0, 0.0, 0.0, 0.0, 0.0, 0.0, 0.0, 0.0, 1.6878047986596863E9, 0.0, 2023-06-26 13:39:58.659
235.0, 52027.39560930677, 50511.29913464775, 21680.230996636274, -25011.37852804405, -3736.0270304712094, -12439.148120778576, 23545.193498753728, 7146.277385506319, 0.12, 0.9440000000000001, 0.272, 192.0, 0.0, 0.0, 0.0, 0.0, 0.0, 0.0, 0.0, 0.0, 0.0, 1.6878047986627035E9, 0.0, 2023-06-26 13:39:58.662
236.0, 51949.45507639111, 50445.383840249044, 21653.922993412376, -24970.13955952401, -3827.8703484380662, -12377.300843870742, 23564.863033874397, 7202.112043155676, 0.11800000000000001, 0.9460000000000001, 0.278, 192.0, 3.0, 176.0, 29.0, 144.0, 8.0, 176.0, 0.0, 0.0, 0.0, 1.68780479866674E9, 0.0, 2023-06-26 13:39:58.666
237.0, 51874.21910455455, 50393.70660706838, 21668.652793008423, -24924.45259385736, -3789.402996230483, -12290.866648062069, 23620.29536012356, 7248.67072685608, 0.11800000000000001, 0.9460000000000001, 0.278, 192.0, 0.0, 0.0, 0.0, 0.0, 0.0, 0.0, 0.0, 0.0, 0.0, 1.6878047986727836E9, 0.0, 2023-06-26 13:39:58.672
238.0, 51936.915747751686, 50446.859055383095, 21694.379650876483, -24967.926736822934, -3692.2623148277185, -12339.057009107712, 23606.7725547281, 7192.813717462268, 0.11800000000000001, 0.9460000000000001, 0.278, 192.0, 0.0, 0.0, 0.0, 0.0, 0.0, 0.0, 0.0, 0.0, 0.0, 1.6878047986757667E9, 0.0, 2023-06-26 13:39:58.675
239.0, 52014.00691437804, 50500.056207186724, 21672.38553433246, -25023.53787702774, -3728.0921611895756, -12435.996524810378, 23542.019551041074, 7134.520367922827, 0.11800000000000001, 0.9460000000000001, 0.278, 192.0, 0.0, 0.0, 0.0, 0.0, 0.0, 0.0, 0.0, 0.0, 0.0, 1.6878047986787894E9, 0.0, 2023-06-26 13:39:58.678
240.0, 51967.00119578853, 50460.31480554519, 21651.799577689122, -24990.05496383369, -3824.584642003136, -12392.410623122529, 23545.305257476004, 7182.464859779461, 0.11800000000000001, 0.9460000000000001, 0.278, 192.0, 0.0, 0.0, 0.0, 0.0, 0.0, 0.0, 0.0, 0.0, 0.0, 1.6878047986837978E9, 0.0, 2023-06-26 13:39:58.683
241.0, 51884.52325874845, 50401.32855192763, 21668.67514475288, -24936.96957075233, -3813.6769907089465, -12296.38752894253, 23613.075746664497, 7249.520093145382, 0.11800000000000001, 0.9460000000000001, 0.278, 192.0, 0.0, 0.0, 0.0, 0.0, 0.0, 0.0, 0.0, 0.0, 0.0, 1.6878047986868021E9, 0.0, 2023-06-26 13:39:58.686
242.0, 51926.90216623571, 50443.39453499253, 21702.001595735743, -24957.421416928937, -3705.11456788952, -12310.312665738185, 23631.895915495865, 7224.687305055536, 0.11800000000000001, 0.9460000000000001, 0.278, 192.0, 0.0, 0.0, 0.0, 0.0, 0.0, 0.0, 0.0, 0.0, 0.0, 1.6878047986908565E9, 0.0, 2023-06-26 13:39:58.690
243.0, 52017.58319349089, 50509.086311946674, 21694.312595643118, -25016.005339146297, -3699.8172044536122, -12395.673977813003, 23573.356696767416, 7165.5445892267935, 0.11800000000000001, 0.9460000000000001, 0.278, 192.0, 0.0, 0.0, 0.0, 0.0, 0.0, 0.0, 0.0, 0.0, 0.0, 1.6878047986948783E9, 0.0, 2023-06-26 13:39:58.694
244.0, 51984.033225063475, 50473.83761094065, 21659.95796441531, -25001.56611222817, -3799.9977231022986, -12391.762422533326, 23551.78726336804, 7189.796231960801, 0.11800000000000001, 0.9460000000000001, 0.278, 192.0, 0.0, 0.0, 0.0, 0.0, 0.0, 0.0, 0.0, 0.0, 0.0, 1.6878047987039027E9, 0.0, 2023-06-26 13:39:58.703
245.0, 51895.83324144283, 50409.12931074254, 21673.19019713285, -24935.874335274024, -3803.194022559407, -12289.033805016734, 23623.6257700474, 7268.429668954572, 0.11800000000000001, 0.9460000000000001, 0.278, 192.0, 0.0, 0.0, 0.0, 0.0, 0.0, 0.0, 0.0, 0.0, 0.0, 1.687804798706936E9, 0.0, 2023-06-26 13:39:58.706
246.0, 51909.445453816115, 50422.36154346008, 21700.30286315714, -24953.867489560544, -3706.813300468123, -12284.42934565894, 23633.25937190764, 7244.62506110967, 0.11800000000000001, 0.9460000000000001, 0.278, 192.0, 0.0, 0.0, 0.0, 0.0, 0.0, 0.0, 0.0, 0.0, 0.0, 1.6878047987099624E9, 0.0, 2023-06-26 13:39:58.709
247.0, 52010.90002189875, 50495.719968762394, 21709.53413361718, -25013.09961236711, -3675.207933808319, -12375.579759547683, 23574.116656078895, 7179.268560322352, 0.122, 0.9400000000000001, 0.276, 192.0, 3.0, 208.0, 29.0, 96.0, 8.0, 160.0, 0.0, 0.0, 0.0, 1.6878047987129495E9, 0.0, 2023-06-26 13:39:58.712
248.0, 51991.14107980026, 50469.97075914988, 21660.80733070461, -25032.970313187878, -3778.8753245920334, -12406.335759918185, 23528.6532078568, 7166.393955516095, 0.122, 0.9400000000000001, 0.276, 192.0, 0.0, 0.0, 0.0, 0.0, 0.0, 0.0, 0.0, 0.0, 0.0, 1.6878047987169886E9, 0.0, 2023-06-26 13:39:58.716
249.0, 51904.70688399159, 50405.553031629686, 21665.590604018045, -24959.23190822982, -3819.175519844952, -12297.661578376483, 23583.05735386102, 7250.838846068245, 0.122, 0.9400000000000001, 0.276, 192.0, 0.0, 0.0, 0.0, 0.0, 0.0, 0.0, 0.0, 0.0, 0.0, 1.6878047987199829E9, 0.0, 2023-06-26 13:39:58.719
250.0, 51904.90804969169, 50413.934935800426, 21707.656587082933, -24950.022989514233, -3711.730684248291, -12264.782162282725, 23648.01152324814, 7259.4666194279935, 0.122, 0.9400000000000001, 0.276, 192.0, 0.0, 0.0, 0.0, 0.0, 0.0, 0.0, 0.0, 0.0, 0.0, 1.6878047987230153E9, 0.0, 2023-06-26 13:39:58.723
251.0, 51991.00696933353, 50477.12331737558, 21701.509857357723, -25028.388205574538, -3676.213762308808, -12363.934500686468, 23582.744429438644, 7167.980929372422, 0.122, 0.9400000000000001, 0.276, 192.0, 0.0, 0.0, 0.0, 0.0, 0.0, 0.0, 0.0, 0.0, 0.0, 1.6878047987270129E9, 0.0, 2023-06-26 13:39:58.727
252.0, 51994.158565301725, 50468.674357971475, 21650.927859655367, -25064.285107169762, -3770.4487169323825, -12411.74488207637, 23514.817478038967, 7134.565071411738, 0.122, 0.9400000000000001, 0.276, 192.0, 0.0, 0.0, 0.0, 0.0, 0.0, 0.0, 0.0, 0.0, 0.0, 1.6878047987300303E9, 0.0, 2023-06-26 13:39:58.730
253.0, 51910.22776487205, 50405.3965694185, 21647.99978113172, -24994.65942319148, -3828.227976349351, -12318.605162931104, 23563.09724606243, 7216.797139262812, 0.122, 0.9400000000000001, 0.276, 192.0, 0.0, 0.0, 0.0, 0.0, 0.0, 0.0, 0.0, 0.0, 0.0, 1.687804798734116E9, 0.0, 2023-06-26 13:39:58.734
254.0, 51889.12771810624, 50400.70270308289, 21689.842246752054, -24963.165815253953, -3738.083390961098, -12248.085409174611, 23622.642293291367, 7248.760133833902, 0.122, 0.9400000000000001, 0.276, 192.0, 0.0, 0.0, 0.0, 0.0, 0.0, 0.0, 0.0, 0.0, 0.0, 1.6878047987411485E9, 0.0, 2023-06-26 13:39:58.741
