%OpenBCI Raw EEG Data
%Number of channels = 8
%Sample Rate = 250 Hz
%Board = OpenBCI_GUI$BoardCytonSerial
Sample Index, EXG Channel 0, EXG Channel 1, EXG Channel 2, EXG Channel 3, EXG Channel 4, EXG Channel 5, EXG Channel 6, EXG Channel 7, Accel Channel 0, Accel Channel 1, Accel Channel 2, Other, Other, Other, Other, Other, Other, Other, Analog Channel 0, Analog Channel 1, Analog Channel 2, Timestamp, Other, Timestamp (Formatted)
30.0, 47352.90823613504, 50046.69577439973, 58457.0984193204, -2929.8666632016498, -6184.951208228017, -9074.405917454473, 20334.23129728214, 13634.69822820404, 0.0, 0.0, 0.0, 192.0, 0.0, 0.0, 0.0, 0.0, 0.0, 0.0, 0.0, 0.0, 0.0, 1.687802931654004E9, 0.0, 2023-06-26 13:08:51.654
31.0, 47325.88497708857, 50022.1088554989, 59721.64836187939, -2953.313643135267, -6219.238784222458, -9094.120156064053, 20309.331453958923, 13615.252210527922, 0.0, 0.0, 0.0, 192.0, 0.0, 0.0, 0.0, 0.0, 0.0, 0.0, 0.0, 0.0, 0.0, 1.6878029316540372E9, 0.0, 2023-06-26 13:08:51.654
32.0, 47389.47569006392, 50067.72876593218, 58060.04203081632, -2871.573313662209, -6180.190286659037, -9017.520727815716, 20338.299314773, 13670.729240265995, 0.0, 0.0, 0.0, 192.0, 0.0, 0.0, 0.0, 0.0, 0.0, 0.0, 0.0, 0.0, 0.0, 1.6878029316540544E9, 0.0, 2023-06-26 13:08:51.654
0.0, 0.0, 0.0, 0.0, 0.0, 0.0, 0.0, 0.0, 0.0, 0.002, 0.992, 0.03, 192.0, 0.0, 16.0, 31.0, 0.0, 0.0, 240.0, 0.0, 0.0, 0.0, 1.6878029317579882E9, 0.0, 2023-06-26 13:08:51.757
1.0, 47735.54774946544, 50647.95770024749, 55704.43638616042, -2255.2686637960273, -5799.540078585158, -8789.55528611604, 19652.59249837309, 13570.191093706024, 0.002, 0.992, 0.03, 192.0, 0.0, 0.0, 0.0, 0.0, 0.0, 0.0, 0.0, 0.0, 0.0, 1.687802931767058E9, 0.0, 2023-06-26 13:08:51.767
2.0, 47803.16177644274, 50702.85358462973, 53917.235603002984, -2163.023014428975, -5751.975566384264, -8699.164831538777, 19688.645862179503, 13630.27258280189, 0.002, 0.992, 0.03, 192.0, 0.0, 0.0, 0.0, 0.0, 0.0, 0.0, 0.0, 0.0, 0.0, 1.6878029317811127E9, 0.0, 2023-06-26 13:08:51.781
3.0, 47820.6855440957, 50733.073143133304, 52986.50896388399, -2133.1163803477743, -5693.436347655815, -8656.271833929042, 19752.303630388218, 13692.052804476358, 0.002, 0.992, 0.03, 192.0, 0.0, 0.0, 0.0, 0.0, 0.0, 0.0, 0.0, 0.0, 0.0, 1.6878029317851543E9, 0.0, 2023-06-26 13:08:51.785
4.0, 47765.09675563536, 50677.75257560642, 54055.90582560371, -2227.3289832268933, -5751.036793117141, -8759.067506678999, 19698.011243106277, 13601.97527432147, 0.002, 0.992, 0.03, 192.0, 0.0, 0.0, 0.0, 0.0, 0.0, 0.0, 0.0, 0.0, 0.0, 1.6878029317882197E9, 0.0, 2023-06-26 13:08:51.788
5.0, 47720.14739753573, 50634.94898497451, 55693.573438355146, -2272.7477279600776, -5795.360302372015, -8800.351178687952, 19656.839329819602, 13560.378677890145, 0.002, 0.992, 0.03, 192.0, 0.0, 0.0, 0.0, 0.0, 0.0, 0.0, 0.0, 0.0, 0.0, 1.6878029317912135E9, 0.0, 2023-06-26 13:08:51.791
6.0, 47788.16375591323, 50691.45419495752, 54509.445072346345, -2207.7712068285, -5769.991072415241, -8734.25707033361, 19673.75960037227, 13599.047195797826, 0.002, 0.992, 0.03, 192.0, 0.0, 0.0, 0.0, 0.0, 0.0, 0.0, 0.0, 0.0, 0.0, 1.687802931794214E9, 0.0, 2023-06-26 13:08:51.794
7.0, 47827.12284649883, 50742.90791069364, 52916.25743106096, -2143.6887554751343, -5699.068987258553, -8658.551711863483, 19747.56506056369, 13687.761269540939, 0.002, 0.992, 0.03, 192.0, 0.0, 0.0, 0.0, 0.0, 0.0, 0.0, 0.0, 0.0, 0.0, 1.6878029317982132E9, 0.0, 2023-06-26 13:08:51.798
8.0, 47774.46213656213, 50697.39975898263, 53916.16271926913, -2220.1093697678293, -5751.573234984068, -8744.15889312731, 19704.47089725386, 13611.184193037057, -0.014, 0.984, 0.01, 192.0, 255.0, 144.0, 30.0, 192.0, 0.0, 80.0, 0.0, 0.0, 0.0, 1.6878029318012297E9, 0.0, 2023-06-26 13:08:51.801
9.0, 47723.120179548285, 50644.984918234935, 55573.388108418956, -2274.8711436833314, -5787.850116235032, -8796.55138213055, 19664.99771654579, 13561.786837790829, -0.014, 0.984, 0.01, 192.0, 0.0, 0.0, 0.0, 0.0, 0.0, 0.0, 0.0, 0.0, 0.0, 1.6878029318042312E9, 0.0, 2023-06-26 13:08:51.804
10.0, 47763.532133523484, 50669.951816791516, 55100.46989923357, -2236.0238118200077, -5786.1290319119735, -8756.1170764109, 19663.50014966728, 13581.232855466946, -0.014, 0.984, 0.01, 192.0, 0.0, 0.0, 0.0, 0.0, 0.0, 0.0, 0.0, 0.0, 0.0, 1.6878029318072467E9, 0.0, 2023-06-26 13:08:51.807
11.0, 47819.56795687294, 50731.50852102143, 52974.506077111495, -2141.1630083516848, -5706.55682165108, -8660.675127586737, 19746.559232063202, 13681.435725860087, -0.014, 0.984, 0.01, 192.0, 0.0, 0.0, 0.0, 0.0, 0.0, 0.0, 0.0, 0.0, 0.0, 1.6878029318112612E9, 0.0, 2023-06-26 13:08:51.811
12.0, 47782.70993026614, 50698.87497411668, 53712.44892030346, -2201.8703462922986, -5740.2856040341385, -8719.01318061509, 19724.833336452644, 13626.472786244487, -0.014, 0.984, 0.01, 192.0, 0.0, 0.0, 0.0, 0.0, 0.0, 0.0, 0.0, 0.0, 0.0, 1.6878029318142593E9, 0.0, 2023-06-26 13:08:51.814
13.0, 47732.59731919734, 50649.85759852619, 55270.85724721638, -2266.2210185791278, -5766.23597934675, -8787.16364945932, 19678.207597518875, 13569.20761694999, -0.014, 0.984, 0.01, 192.0, 0.0, 0.0, 0.0, 0.0, 0.0, 0.0, 0.0, 0.0, 0.0, 1.6878029318172922E9, 0.0, 2023-06-26 13:08:51.817
14.0, 47746.88008390428, 50656.384307907145, 55513.70895072329, -2242.7516869010556, -5789.481793580269, -8771.584483573972, 19651.832539061612, 13562.457390124488, -0.014, 0.984, 0.01, 192.0, 0.0, 0.0, 0.0, 0.0, 0.0, 0.0, 0.0, 0.0, 0.0, 1.6878029318202927E9, 0.0, 2023-06-26 13:08:51.820
15.0, 47821.11022724035, 50730.16741635411, 53088.321159877916, -2138.771371694967, -5708.2332024852285, -8672.745069592604, 19733.885792957044, 13668.516417564919, -0.014, 0.984, 0.01, 192.0, 0.0, 0.0, 0.0, 0.0, 0.0, 0.0, 0.0, 0.0, 0.0, 1.687802931824304E9, 0.0, 2023-06-26 13:08:51.824
16.0, 47782.30759886594, 50705.49109047546, 53475.00633895473, -2191.610895587313, -5727.053371316597, -8708.396101998818, 19728.499022543314, 13645.449417287044, -0.014, 0.984, 0.01, 192.0, 0.0, 0.0, 0.0, 0.0, 0.0, 0.0, 0.0, 0.0, 0.0, 1.6878029318273304E9, 0.0, 2023-06-26 13:08:51.827
17.0, 47736.79944715494, 50662.93336903255, 54991.12516535821, -2248.0490503369633, -5766.99593865823, -8772.232684163177, 19686.70126041189, 13585.166762491079, -0.014, 0.984, 0.01, 192.0, 0.0, 0.0, 0.0, 0.0, 0.0, 0.0, 0.0, 0.0, 0.0, 1.6878029318313472E9, 0.0, 2023-06-26 13:08:51.831
18.0, 47720.59443242484, 50644.73904904593, 55833.316544689726, -2257.4591347526475, -5812.861718280521, -8789.823507049503, 19646.60223085907, 13561.473913368454, -0.02, 0.988, 0.008, 192.0, 255.0, 96.0, 30.0, 224.0, 0.0, 64.0, 0.0, 0.0, 0.0, 1.6878029318353589E9, 0.0, 2023-06-26 13:08:51.835
19.0, 47799.205517674156, 50715.07998884678, 53385.018215777665, -2150.3719270672714, -5738.5198162221695, -8685.284398232032, 19711.466993268372, 13651.238519100967, -0.02, 0.988, 0.008, 192.0, 0.0, 0.0, 0.0, 0.0, 0.0, 0.0, 0.0, 0.0, 0.0, 1.6878029318403788E9, 0.0, 2023-06-26 13:08:51.840
20.0, 47801.68656130869, 50726.38997154117, 53220.41996960878, -2152.741211979534, -5710.378969952938, -8685.798488354503, 19744.122891917574, 13670.639833288174, -0.02, 0.988, 0.008, 192.0, 0.0, 0.0, 0.0, 0.0, 0.0, 0.0, 0.0, 0.0, 0.0, 1.6878029318454175E9, 0.0, 2023-06-26 13:08:51.845
21.0, 47746.63421471527, 50674.33275870475, 54606.56340200465, -2240.762381644533, -5764.313729323594, -8779.005262733133, 19690.05402208019, 13592.74400386143, -0.02, 0.988, 0.008, 192.0, 0.0, 0.0, 0.0, 0.0, 0.0, 0.0, 0.0, 0.0, 0.0, 1.6878029318494456E9, 0.0, 2023-06-26 13:08:51.849
22.0, 47712.234879998556, 50642.03448796684, 55960.25210145141, -2262.912960399742, -5829.312602199627, -8805.156803745844, 19642.847137790577, 13558.165855189069, -0.02, 0.988, 0.008, 192.0, 0.0, 0.0, 0.0, 0.0, 0.0, 0.0, 0.0, 0.0, 0.0, 1.6878029318544672E9, 0.0, 2023-06-26 13:08:51.854
23.0, 47795.65159030576, 50714.23062255748, 53756.59361560269, -2155.1775521251625, -5751.774400684167, -8706.809128142491, 19688.489399968315, 13635.748760193439, -0.02, 0.988, 0.008, 192.0, 0.0, 0.0, 0.0, 0.0, 0.0, 0.0, 0.0, 0.0, 0.0, 1.6878029318574843E9, 0.0, 2023-06-26 13:08:51.857
24.0, 47800.30075315246, 50731.44146578806, 52980.56339985888, -2140.447752529115, -5702.689969860312, -8680.948159807702, 19739.920763959977, 13684.140286939179, -0.02, 0.988, 0.008, 192.0, 0.0, 0.0, 0.0, 0.0, 0.0, 0.0, 0.0, 0.0, 0.0, 1.687802931860482E9, 0.0, 2023-06-26 13:08:51.860
25.0, 47759.73233696608, 50694.40462522562, 54226.986077664624, -2218.1424162557623, -5742.252557546206, -8753.457218820718, 19704.023862364753, 13612.860573871205, -0.02, 0.988, 0.008, 192.0, 0.0, 0.0, 0.0, 0.0, 0.0, 0.0, 0.0, 0.0, 0.0, 1.6878029318634808E9, 0.0, 2023-06-26 13:08:51.863
26.0, 47717.53224343446, 50656.674880585066, 55841.65374537155, -2265.5951697343794, -5802.579915831079, -8797.512507142128, 19650.9384692834, 13562.233872679935, -0.02, 0.988, 0.008, 192.0, 0.0, 0.0, 0.0, 0.0, 0.0, 0.0, 0.0, 0.0, 0.0, 1.6878029318665016E9, 0.0, 2023-06-26 13:08:51.866
27.0, 47789.41545360273, 50713.11303533471, 54148.5314546265, -2180.770299526489, -5759.932787410354, -8723.997619628622, 19684.197865032897, 13615.699245417029, -0.02, 0.988, 0.008, 192.0, 0.0, 0.0, 0.0, 0.0, 0.0, 0.0, 0.0, 0.0, 0.0, 1.6878029318705373E9, 0.0, 2023-06-26 13:08:51.870
28.0, 47810.06846547943, 50743.846683960764, 52788.02547312087, -2130.27770880195, -5705.863917572966, -8660.295147930998, 19745.419293095983, 13687.627159074207, -0.024, 0.99, 0.012, 192.0, 255.0, 64.0, 30.0, 240.0, 0.0, 96.0, 0.0, 0.0, 0.0, 1.6878029318755603E9, 0.0, 2023-06-26 13:08:51.875
29.0, 47768.94125568167, 50708.955610866025, 53922.95764958354, -2211.2580789635276, -5743.437200002337, -8739.129750624867, 19702.079260597144, 13616.101576817224, -0.024, 0.99, 0.012, 192.0, 0.0, 0.0, 0.0, 0.0, 0.0, 0.0, 0.0, 0.0, 0.0, 1.6878029318795767E9, 0.0, 2023-06-26 13:08:51.879
30.0, 47720.16974928019, 50663.60392136621, 55692.366444154555, -2263.3376435443934, -5793.818032004599, -8791.432832650284, 19663.231928733818, 13574.594387363719, -0.024, 0.99, 0.012, 192.0, 0.0, 0.0, 0.0, 0.0, 0.0, 0.0, 0.0, 0.0, 0.0, 1.6878029318846068E9, 0.0, 2023-06-26 13:08:51.884
31.0, 47754.949063652646, 50685.70979663251, 54676.97139703887, -2223.0374482914744, -5799.987113474263, -8758.35225085643, 19657.353419942072, 13587.3572334477, -0.024, 0.99, 0.012, 192.0, 0.0, 0.0, 0.0, 0.0, 0.0, 0.0, 0.0, 0.0, 0.0, 1.6878029318876283E9, 0.0, 2023-06-26 13:08:51.887
32.0, 47818.27155569453, 50757.883579478694, 52774.145039814124, -2133.630470470246, -5694.710397089768, -8658.507008374574, 19752.90712748851, 13695.673787078118, -0.024, 0.99, 0.012, 192.0, 0.0, 0.0, 0.0, 0.0, 0.0, 0.0, 0.0, 0.0, 0.0, 1.6878029318916404E9, 0.0, 2023-06-26 13:08:51.891
33.0, 47766.03552890248, 50711.86133764522, 53654.69201263094, -2209.760512085022, -5742.3419645240265, -8726.702180707714, 19715.155031103495, 13630.451396757531, -0.024, 0.99, 0.012, 192.0, 0.0, 0.0, 0.0, 0.0, 0.0, 0.0, 0.0, 0.0, 0.0, 1.6878029318956573E9, 0.0, 2023-06-26 13:08:51.895
34.0, 47701.48369091555, 50649.23174968144, 55399.91621970132, -2286.337588588904, -5802.892840253454, -8802.876925811403, 19658.80628333167, 13563.552625602797, -0.024, 0.99, 0.012, 192.0, 0.0, 0.0, 0.0, 0.0, 0.0, 0.0, 0.0, 0.0, 0.0, 1.6878029319006846E9, 0.0, 2023-06-26 13:08:51.900
35.0, 47737.35824076632, 50671.762308092395, 55121.704056466115, -2248.987823604086, -5813.264049680716, -8765.951843971234, 19651.899594294977, 13573.633262352141, -0.024, 0.99, 0.012, 192.0, 0.0, 0.0, 0.0, 0.0, 0.0, 0.0, 0.0, 0.0, 0.0, 1.687802931903697E9, 0.0, 2023-06-26 13:08:51.903
36.0, 47796.61271531734, 50732.49199777746, 52847.972851750004, -2163.537104551447, -5725.332286993538, -8670.398136424797, 19732.589391778638, 13672.852655989249, -0.024, 0.99, 0.012, 192.0, 0.0, 0.0, 0.0, 0.0, 0.0, 0.0, 0.0, 0.0, 0.0, 1.687802931910738E9, 0.0, 2023-06-26 13:08:51.910
37.0, 47758.078307876385, 50704.194689297045, 53423.530271474156, -2222.2998407244495, -5743.146627324418, -8731.038419132045, 19715.646769481515, 13631.680742702574, -0.024, 0.99, 0.012, 192.0, 0.0, 0.0, 0.0, 0.0, 0.0, 0.0, 0.0, 0.0, 0.0, 1.6878029319137397E9, 0.0, 2023-06-26 13:08:51.913
38.0, 47705.082321772854, 50647.5553688473, 55087.170611282665, -2291.791414235999, -5787.313674368104, -8799.233591465187, 19674.251338750284, 13568.648823338608, -0.024, 0.99, 0.012, 192.0, 0.0, 0.0, 0.0, 0.0, 0.0, 0.0, 0.0, 0.0, 0.0, 1.6878029319167714E9, 0.0, 2023-06-26 13:08:51.916
39.0, 47711.877252087266, 50649.812895037285, 55504.92471515235, -2275.944027417186, -5826.742151587267, -8800.865268810425, 19642.51186162375, 13554.790741776318, -0.03, 0.992, 0.012, 192.0, 255.0, 16.0, 31.0, 0.0, 0.0, 96.0, 0.0, 0.0, 0.0, 1.6878029319218094E9, 0.0, 2023-06-26 13:08:51.921
40.0, 47793.684636793696, 50731.73203846598, 53046.523397746496, -2150.6624997451904, -5730.272022518161, -8672.342738192408, 19730.600086522114, 13669.18696989858, -0.03, 0.992, 0.012, 192.0, 0.0, 0.0, 0.0, 0.0, 0.0, 0.0, 0.0, 0.0, 0.0, 1.6878029319248035E9, 0.0, 2023-06-26 13:08:51.924
41.0, 47774.998578429055, 50722.83604417277, 53182.980797646145, -2184.503040850525, -5707.585001896025, -8703.612828685384, 19742.602973294615, 13650.433856300577, -0.03, 0.992, 0.012, 192.0, 0.0, 0.0, 0.0, 0.0, 0.0, 0.0, 0.0, 0.0, 0.0, 1.6878029319278262E9, 0.0, 2023-06-26 13:08:51.927
42.0, 47716.34760097833, 50664.565046377786, 54697.19972577092, -2267.025681379519, -5779.1999911308285, -8796.774899575103, 19678.386411474516, 13566.011317492881, -0.03, 0.992, 0.012, 192.0, 0.0, 0.0, 0.0, 0.0, 0.0, 0.0, 0.0, 0.0, 0.0, 1.6878029319338372E9, 0.0, 2023-06-26 13:08:51.933
43.0, 47706.132853762254, 50647.60007233621, 55717.86978457806, -2277.374539062326, -5822.249450951749, -8803.83805082298, 19634.912268508946, 13558.702297055996, -0.03, 0.992, 0.012, 192.0, 0.0, 0.0, 0.0, 0.0, 0.0, 0.0, 0.0, 0.0, 0.0, 1.6878029319368727E9, 0.0, 2023-06-26 13:08:51.936
44.0, 47780.89943896526, 50713.850642901736, 53386.538134400624, -2167.6498255312235, -5749.628633216457, -8697.421395471263, 19719.088938127632, 13645.851748687239, -0.03, 0.992, 0.012, 192.0, 0.0, 0.0, 0.0, 0.0, 0.0, 0.0, 0.0, 0.0, 0.0, 1.6878029319408877E9, 0.0, 2023-06-26 13:08:51.940
45.0, 47774.26097086203, 50718.14217783716, 53030.7654179055, -2172.2319331445615, -5720.70547589129, -8698.226058271654, 19757.377476379574, 13661.006231427937, -0.03, 0.992, 0.012, 192.0, 0.0, 0.0, 0.0, 0.0, 0.0, 0.0, 0.0, 0.0, 0.0, 1.6878029319438992E9, 0.0, 2023-06-26 13:08:51.943
46.0, 47723.63426967076, 50669.57183713577, 54435.10317028799, -2265.7069284566555, -5780.7646132427, -8793.600951862449, 19700.69345244091, 13578.21536996548, -0.03, 0.992, 0.012, 192.0, 0.0, 0.0, 0.0, 0.0, 0.0, 0.0, 0.0, 0.0, 0.0, 1.687802931946925E9, 0.0, 2023-06-26 13:08:51.946
47.0, 47694.465243156585, 50638.81583676527, 55851.46616118743, -2297.0664259274517, -5834.811131335632, -8835.331658760508, 19649.999696016275, 13543.503110826387, -0.03, 0.992, 0.012, 192.0, 0.0, 0.0, 0.0, 0.0, 0.0, 0.0, 0.0, 0.0, 0.0, 1.6878029319508972E9, 0.0, 2023-06-26 13:08:51.950
48.0, 47777.390215085776, 50710.74375042245, 53853.37666909417, -2172.5672093113913, -5750.477999505759, -8709.066654332479, 19728.588429521136, 13631.725446191484, -0.03, 0.992, 0.012, 192.0, 0.0, 0.0, 0.0, 0.0, 0.0, 0.0, 0.0, 0.0, 0.0, 1.687802931954952E9, 0.0, 2023-06-26 13:08:51.954
49.0, 47791.1812414147, 50734.74952396745, 52946.611100031274, -2157.077450403863, -5709.373141452449, -8681.596360396905, 19778.946909778944, 13680.586359570785, -0.032, 0.994, 0.024, 192.0, 255.0, 0.0, 31.0, 16.0, 0.0, 192.0, 0.0, 0.0, 0.0, 1.687802931959985E9, 0.0, 2023-06-26 13:08:51.959
50.0, 47753.0715171184, 50694.5163839479, 54155.95223378566, -2224.445608192159, -5741.716115679278, -8758.911044467814, 19734.37753133506, 13611.877097115172, -0.032, 0.994, 0.024, 192.0, 0.0, 0.0, 0.0, 0.0, 0.0, 0.0, 0.0, 0.0, 0.0, 1.6878029319640012E9, 0.0, 2023-06-26 13:08:51.964
51.0, 47695.13579549024, 50640.46986585497, 55808.5731635777, -2279.408547807759, -5811.185337446373, -8808.017827036123, 19674.832484106122, 13557.182378433035, -0.032, 0.994, 0.024, 192.0, 0.0, 0.0, 0.0, 0.0, 0.0, 0.0, 0.0, 0.0, 0.0, 1.6878029319680223E9, 0.0, 2023-06-26 13:08:51.968
52.0, 47764.96264516862, 50700.52900320638, 54361.14124788538, -2187.8558025188213, -5763.442011289837, -8727.77506444157, 19708.874190911556, 13609.731329647462, -0.032, 0.994, 0.024, 192.0, 0.0, 0.0, 0.0, 0.0, 0.0, 0.0, 0.0, 0.0, 0.0, 1.6878029319710364E9, 0.0, 2023-06-26 13:08:51.971
53.0, 47793.528174582505, 50738.50461703594, 52900.29828551988, -2146.3933165542267, -5705.640400128413, -8674.734374849126, 19773.87306378759, 13675.892493235171, -0.032, 0.994, 0.024, 192.0, 0.0, 0.0, 0.0, 0.0, 0.0, 0.0, 0.0, 0.0, 0.0, 1.6878029319760592E9, 0.0, 2023-06-26 13:08:51.976
54.0, 47756.24546483105, 50708.195651554546, 53944.12475158271, -2227.5972041603573, -5747.952252382309, -8755.088896165955, 19732.94701968992, 13602.623474910675, -0.032, 0.994, 0.024, 192.0, 0.0, 0.0, 0.0, 0.0, 0.0, 0.0, 0.0, 0.0, 0.0, 1.6878029319800825E9, 0.0, 2023-06-26 13:08:51.980
55.0, 47708.032752040956, 50661.2569881984, 55675.78144976872, -2273.1277076158176, -5806.513822855213, -8806.833184579991, 19681.56035918717, 13554.097837698202, -0.032, 0.994, 0.024, 192.0, 0.0, 0.0, 0.0, 0.0, 0.0, 0.0, 0.0, 0.0, 0.0, 1.6878029319830604E9, 0.0, 2023-06-26 13:08:51.983
56.0, 47759.151191610246, 50700.81957588429, 54865.1507336081, -2222.8809860802876, -5789.057110435619, -8770.846876006946, 19685.6954319114, 13577.768335076373, -0.032, 0.994, 0.024, 192.0, 0.0, 0.0, 0.0, 0.0, 0.0, 0.0, 0.0, 0.0, 0.0, 1.6878029319871268E9, 0.0, 2023-06-26 13:08:51.987
57.0, 47803.89938400977, 50751.602739286755, 52943.414800574166, -2150.215464856084, -5713.239993243217, -8681.126973763345, 19761.311383403707, 13667.309423364333, -0.032, 0.994, 0.024, 192.0, 0.0, 0.0, 0.0, 0.0, 0.0, 0.0, 0.0, 0.0, 0.0, 1.6878029319931347E9, 0.0, 2023-06-26 13:08:51.993
58.0, 47757.4748107761, 50709.64851494414, 53758.26999643684, -2213.6497156202454, -5739.883272633943, -8734.815863944992, 19734.466938312882, 13618.202640796024, -0.032, 0.994, 0.024, 192.0, 0.0, 0.0, 0.0, 0.0, 0.0, 0.0, 0.0, 0.0, 0.0, 1.6878029319972184E9, 0.0, 2023-06-26 13:08:51.997
59.0, 47698.600315880816, 50651.24340668242, 55406.59939129346, -2277.508649529058, -5797.595476817546, -8805.849707823958, 19682.342670243106, 13557.405895877588, -0.036000000000000004, 0.99, 0.024, 192.0, 254.0, 224.0, 30.0, 240.0, 0.0, 192.0, 0.0, 0.0, 0.0, 1.6878029320022225E9, 0.0, 2023-06-26 13:08:52.002
60.0, 47719.92388009118, 50661.68167134305, 55317.61709661688, -2247.892588125776, -5804.5021658542355, -8784.92847501379, 19670.675059637437, 13560.915119757072, -0.036000000000000004, 0.99, 0.024, 192.0, 0.0, 0.0, 0.0, 0.0, 0.0, 0.0, 0.0, 0.0, 0.0, 1.6878029320062127E9, 0.0, 2023-06-26 13:08:52.006
61.0, 47793.528174582505, 50740.78449497039, 53063.66718574372, -2136.9161769051766, -5707.540298407113, -8669.034680013023, 19761.28903165925, 13673.970243212014, -0.036000000000000004, 0.99, 0.024, 192.0, 0.0, 0.0, 0.0, 0.0, 0.0, 0.0, 0.0, 0.0, 0.0, 1.6878029320092232E9, 0.0, 2023-06-26 13:08:52.009
62.0, 47763.73329922358, 50720.66792496061, 53597.4491950809, -2186.1570699402178, -5727.299240505605, -8716.77800616956, 19747.498005330326, 13640.12970210668, -0.036000000000000004, 0.99, 0.024, 192.0, 0.0, 0.0, 0.0, 0.0, 0.0, 0.0, 0.0, 0.0, 0.0, 1.687802932013237E9, 0.0, 2023-06-26 13:08:52.013
63.0, 47712.61485965429, 50668.54365689083, 55135.85271070632, -2260.409565020748, -5771.913322438398, -8789.197658204754, 19698.61474020657, 13575.577864119752, -0.036000000000000004, 0.99, 0.024, 192.0, 0.0, 0.0, 0.0, 0.0, 0.0, 0.0, 0.0, 0.0, 0.0, 1.6878029320162535E9, 0.0, 2023-06-26 13:08:52.016
64.0, 47714.00066781052, 50666.241427211935, 55686.10795570707, -2258.442611508681, -5800.5682588301015, -8786.35898665893, 19669.065734036652, 13563.239701180424, -0.036000000000000004, 0.99, 0.024, 192.0, 0.0, 0.0, 0.0, 0.0, 0.0, 0.0, 0.0, 0.0, 0.0, 1.6878029320192564E9, 0.0, 2023-06-26 13:08:52.019
65.0, 47787.49320357957, 50735.28596583438, 53354.4410293628, -2148.919063677676, -5729.735580651233, -8681.126973763345, 19738.28908661474, 13655.977088925492, -0.036000000000000004, 0.99, 0.024, 192.0, 0.0, 0.0, 0.0, 0.0, 0.0, 0.0, 0.0, 0.0, 0.0, 1.6878029320232646E9, 0.0, 2023-06-26 13:08:52.023
66.0, 47771.422299316204, 50730.79326519886, 53461.774106237186, -2179.9879884705533, -5725.935784093832, -8706.607962442395, 19750.42608385397, 13650.679725489585, -0.036000000000000004, 0.99, 0.024, 192.0, 0.0, 0.0, 0.0, 0.0, 0.0, 0.0, 0.0, 0.0, 0.0, 1.687802932026297E9, 0.0, 2023-06-26 13:08:52.026
67.0, 47725.35535399382, 50688.63787515615, 54857.90876840458, -2237.051992064952, -5765.85599969101, -8772.813829519013, 19704.783821676236, 13586.910198558593, -0.036000000000000004, 0.99, 0.024, 192.0, 0.0, 0.0, 0.0, 0.0, 0.0, 0.0, 0.0, 0.0, 0.0, 1.6878029320303133E9, 0.0, 2023-06-26 13:08:52.030
68.0, 47695.806347823906, 50653.32211891677, 55907.68079849253, -2262.0412423659855, -5816.750921815744, -8795.0761669965, 19660.505015910272, 13557.137674944124, -0.036000000000000004, 0.99, 0.024, 192.0, 0.0, 0.0, 0.0, 0.0, 0.0, 0.0, 0.0, 0.0, 0.0, 1.6878029320343332E9, 0.0, 2023-06-26 13:08:52.034
69.0, 47775.19974412915, 50725.16062559612, 53715.622868016115, -2158.6867760046457, -5742.923109879865, -8690.33589247893, 19725.23566785284, 13645.695286476051, -0.032, 0.984, 0.034, 192.0, 255.0, 0.0, 30.0, 192.0, 1.0, 16.0, 0.0, 0.0, 0.0, 1.6878029320383425E9, 0.0, 2023-06-26 13:08:52.038
70.0, 47768.20364811464, 50733.05079138885, 53375.94340752881, -2167.605122042313, -5717.732693878734, -8684.52443892055, 19762.25015667083, 13671.176275155101, -0.032, 0.984, 0.034, 192.0, 0.0, 0.0, 0.0, 0.0, 0.0, 0.0, 0.0, 0.0, 0.0, 1.687802932043367E9, 0.0, 2023-06-26 13:08:52.043
71.0, 47715.364124222295, 50677.35024420622, 54632.893756973004, -2250.4183352492255, -5778.99882543073, -8782.939169757268, 19702.7498129308, 13585.904370058104, -0.032, 0.984, 0.034, 192.0, 0.0, 0.0, 0.0, 0.0, 0.0, 0.0, 0.0, 0.0, 0.0, 1.687802932047374E9, 0.0, 2023-06-26 13:08:52.047
72.0, 47682.440004639626, 50640.42516236605, 55983.1626395181, -2293.6913125147003, -5810.872413023998, -8832.448283725773, 19665.444751434894, 13551.102703941191, -0.032, 0.984, 0.034, 192.0, 0.0, 0.0, 0.0, 0.0, 0.0, 0.0, 0.0, 0.0, 0.0, 1.687802932051388E9, 0.0, 2023-06-26 13:08:52.051
73.0, 47760.58170325538, 50706.5192707204, 54137.10971320984, -2194.114290966307, -5751.372069283971, -8719.884898648847, 19712.09284211312, 13619.901373374627, -0.032, 0.984, 0.034, 192.0, 0.0, 0.0, 0.0, 0.0, 0.0, 0.0, 0.0, 0.0, 0.0, 1.687802932055437E9, 0.0, 2023-06-26 13:08:52.055
74.0, 47770.774098727, 50725.69706746305, 53251.53359789057, -2158.66442426019, -5721.957173580787, -8676.589569638916, 19754.561156578202, 13665.36482159672, -0.032, 0.984, 0.034, 192.0, 0.0, 0.0, 0.0, 0.0, 0.0, 0.0, 0.0, 0.0, 0.0, 1.6878029320594325E9, 0.0, 2023-06-26 13:08:52.059
75.0, 47734.40781049822, 50687.52028793339, 54403.5425071171, -2244.7409921575777, -5759.32929031006, -8766.711803282715, 19713.99274039182, 13594.219218995479, -0.032, 0.984, 0.034, 192.0, 0.0, 0.0, 0.0, 0.0, 0.0, 0.0, 0.0, 0.0, 0.0, 1.6878029320644605E9, 0.0, 2023-06-26 13:08:52.064
76.0, 47693.74998733401, 50650.25992992639, 55885.753737181876, -2288.0586729119627, -5801.596439075046, -8810.36476020393, 19680.219254519852, 13561.58567209073, -0.032, 0.984, 0.034, 192.0, 0.0, 0.0, 0.0, 0.0, 0.0, 0.0, 0.0, 0.0, 0.0, 1.6878029320684724E9, 0.0, 2023-06-26 13:08:52.068
77.0, 47745.96366238161, 50693.287038002854, 54571.35940448754, -2206.541860883458, -5775.377842828971, -8735.553471512017, 19699.352347773594, 13602.422309210577, -0.032, 0.984, 0.034, 192.0, 0.0, 0.0, 0.0, 0.0, 0.0, 0.0, 0.0, 0.0, 0.0, 1.6878029320714934E9, 0.0, 2023-06-26 13:08:52.071
78.0, 47796.322142639416, 50754.128486410205, 53164.40649800379, -2129.5848047238355, -5680.606446338469, -8647.465246613652, 19788.379345939084, 13701.373481914221, -0.032, 0.984, 0.034, 192.0, 0.0, 0.0, 0.0, 0.0, 0.0, 0.0, 0.0, 0.0, 0.0, 1.6878029320755155E9, 0.0, 2023-06-26 13:08:52.075
79.0, 47733.40198199773, 50695.47750895948, 54217.75480720458, -2234.839169363877, -5745.113580836485, -8748.808055974014, 19728.8566504546, 13615.922762861583, -0.032, 0.984, 0.034, 192.0, 0.0, 0.0, 0.0, 0.0, 0.0, 0.0, 0.0, 0.0, 0.0, 1.6878029320805516E9, 0.0, 2023-06-26 13:08:52.080
80.0, 47684.49636512952, 50642.92855774505, 55695.808612800676, -2300.1509666622837, -5801.596439075046, -8811.147071259866, 19672.08321953812, 13557.227081921947, -0.032, 0.982, 0.034, 192.0, 255.0, 0.0, 30.0, 176.0, 1.0, 16.0, 0.0, 0.0, 0.0, 1.6878029320845811E9, 0.0, 2023-06-26 13:08:52.084
81.0, 47717.9122230902, 50667.783697579354, 55014.77331099192, -2254.151076573262, -5807.7878722891655, -8776.434812120773, 19670.60800440407, 13571.219273950968, -0.032, 0.982, 0.034, 192.0, 0.0, 0.0, 0.0, 0.0, 0.0, 0.0, 0.0, 0.0, 0.0, 1.6878029320875895E9, 0.0, 2023-06-26 13:08:52.087
82.0, 47782.46406107713, 50740.85155020375, 53158.19271304521, -2156.742174237034, -5704.858089072477, -8683.608017397883, 19762.607784582113, 13677.568874069319, -0.032, 0.982, 0.034, 192.0, 0.0, 0.0, 0.0, 0.0, 0.0, 0.0, 0.0, 0.0, 0.0, 1.687802932090603E9, 0.0, 2023-06-26 13:08:52.090
83.0, 47754.591435741364, 50717.58338422578, 54049.222654011566, -2215.8178348324104, -5731.791941141122, -8747.042268162044, 19737.417368580984, 13626.338675777755, -0.032, 0.982, 0.034, 192.0, 0.0, 0.0, 0.0, 0.0, 0.0, 0.0, 0.0, 0.0, 0.0, 1.6878029320986483E9, 0.0, 2023-06-26 13:08:52.098
84.0, 47716.34760097833, 50681.060633785804, 55484.78579339812, -2256.050974851963, -5776.473078307281, -8807.302571213553, 19681.023917320243, 13574.3038146858, -0.032, 0.982, 0.034, 192.0, 0.0, 0.0, 0.0, 0.0, 0.0, 0.0, 0.0, 0.0, 0.0, 1.687802932102674E9, 0.0, 2023-06-26 13:08:52.102
85.0, 47714.98414456656, 50668.92363654657, 55429.04054272659, -2254.955739373653, -5807.00556123323, -8772.277387652086, 19660.728533354824, 13568.648823338608, -0.032, 0.982, 0.034, 192.0, 0.0, 0.0, 0.0, 0.0, 0.0, 0.0, 0.0, 0.0, 0.0, 1.6878029321056595E9, 0.0, 2023-06-26 13:08:52.105
86.0, 47796.545660083975, 50747.35590784025, 53242.70465883073, -2145.5886537538354, -5713.754083365689, -8673.415621926264, 19766.564043350703, 13676.764211268928, -0.032, 0.982, 0.034, 192.0, 0.0, 0.0, 0.0, 0.0, 0.0, 0.0, 0.0, 0.0, 0.0, 1.6878029321087065E9, 0.0, 2023-06-26 13:08:52.108
87.0, 47737.469999488596, 50698.204421783026, 53887.91011427762, -2231.1958350176615, -5732.976583597253, -8740.91789018129, 19738.91493545949, 13626.65160020013, -0.032, 0.982, 0.034, 192.0, 0.0, 0.0, 0.0, 0.0, 0.0, 0.0, 0.0, 0.0, 0.0, 1.6878029321127126E9, 0.0, 2023-06-26 13:08:52.112
88.0, 47702.19894673812, 50661.480505642954, 55231.60758395286, -2278.2239053516278, -5782.463345821303, -8803.033388022588, 19693.540894215213, 13564.804323292296, -0.032, 0.982, 0.034, 192.0, 0.0, 0.0, 0.0, 0.0, 0.0, 0.0, 0.0, 0.0, 0.0, 1.6878029321157155E9, 0.0, 2023-06-26 13:08:52.115
89.0, 47712.10076953182, 50669.19185748004, 55723.12244452506, -2267.3609575463483, -5809.330142656582, -8800.194716476764, 19667.478760180325, 13558.232910422435, -0.032, 0.982, 0.034, 192.0, 0.0, 0.0, 0.0, 0.0, 0.0, 0.0, 0.0, 0.0, 0.0, 1.6878029321187468E9, 0.0, 2023-06-26 13:08:52.118
90.0, 47792.410587359744, 50745.97009968402, 53437.85773967001, -2163.7159185070896, -5732.529548708147, -8688.324235477952, 19729.72836848836, 13650.947946423048, -0.038, 0.98, 0.038, 192.0, 254.0, 208.0, 30.0, 160.0, 1.0, 48.0, 0.0, 0.0, 0.0, 1.6878029321227643E9, 0.0, 2023-06-26 13:08:52.122
91.0, 47770.84115396037, 50732.00025939945, 53687.45967000243, -2207.123006239296, -5730.897871362909, -8718.119110836877, 19737.551479047714, 13641.873138174195, -0.038, 0.98, 0.038, 192.0, 0.0, 0.0, 0.0, 0.0, 0.0, 0.0, 0.0, 0.0, 0.0, 1.6878029321267917E9, 0.0, 2023-06-26 13:08:52.126
92.0, 47727.65758367271, 50690.023683312385, 54961.71026965503, -2271.5407337594906, -5777.255389363217, -8793.757414073636, 19705.007339120788, 13571.599253606708, -0.038, 0.98, 0.038, 192.0, 0.0, 0.0, 0.0, 0.0, 0.0, 0.0, 0.0, 0.0, 0.0, 1.6878029321478848E9, 0.0, 2023-06-26 13:08:52.147
93.0, 47690.91131578819, 50652.27158692737, 55853.38841121059, -2298.2287166391275, -5830.027858022197, -8818.970181819222, 19665.13182701252, 13542.541985814809, -0.038, 0.98, 0.038, 192.0, 0.0, 0.0, 0.0, 0.0, 0.0, 0.0, 0.0, 0.0, 0.0, 1.6878029321519022E9, 0.0, 2023-06-26 13:08:52.151
94.0, 47774.104508650846, 50727.30639306383, 53694.09813810565, -2181.5526105824247, -5757.965833898286, -8719.035532359545, 19717.725481715857, 13624.684646688063, -0.038, 0.98, 0.038, 192.0, 0.0, 0.0, 0.0, 0.0, 0.0, 0.0, 0.0, 0.0, 0.0, 1.6878029321549065E9, 0.0, 2023-06-26 13:08:52.154
95.0, 47763.398023056754, 50727.52991050839, 53526.080075035105, -2201.691532336656, -5729.84733937351, -8708.194936298722, 19743.00530469481, 13645.717638220507, -0.038, 0.98, 0.038, 192.0, 0.0, 0.0, 0.0, 0.0, 0.0, 0.0, 0.0, 0.0, 0.0, 1.6878029321589324E9, 0.0, 2023-06-26 13:08:52.158
96.0, 47719.76741787999, 50682.401738453125, 54854.8465794142, -2271.317216314938, -5780.652854520423, -8792.818640806514, 19705.27556005425, 13573.476800140954, -0.038, 0.98, 0.038, 192.0, 0.0, 0.0, 0.0, 0.0, 0.0, 0.0, 0.0, 0.0, 0.0, 1.6878029321619349E9, 0.0, 2023-06-26 13:08:52.161
97.0, 47703.18242349415, 50669.63889236914, 55941.946022742515, -2267.6515302242674, -5805.507994354724, -8793.422137906808, 19685.047231322198, 13567.911215771583, -0.038, 0.98, 0.038, 192.0, 0.0, 0.0, 0.0, 0.0, 0.0, 0.0, 0.0, 0.0, 0.0, 1.6878029321649673E9, 0.0, 2023-06-26 13:08:52.164
98.0, 47773.03162491699, 50724.333611051276, 54078.05640435892, -2190.3368461533605, -5766.101868880019, -8715.77217766907, 19711.936379901934, 13619.83431814126, -0.038, 0.98, 0.038, 192.0, 0.0, 0.0, 0.0, 0.0, 0.0, 0.0, 0.0, 0.0, 0.0, 1.687802932169088E9, 0.0, 2023-06-26 13:08:52.169
99.0, 47778.35134009735, 50742.99731767146, 53315.951325410766, -2162.3748138397714, -5728.685048661834, -8688.279531989043, 19753.868252500088, 13666.3259466083, -0.038, 0.98, 0.038, 192.0, 0.0, 0.0, 0.0, 0.0, 0.0, 0.0, 0.0, 0.0, 0.0, 1.6878029321720104E9, 0.0, 2023-06-26 13:08:52.172
100.0, 47738.989918111554, 50706.47456723149, 54646.885949002026, -2235.9344048421867, -5775.869581206987, -8773.752602786137, 19703.8003449202, 13588.11719275918, -0.022, 0.984, 0.038, 192.0, 255.0, 80.0, 30.0, 192.0, 1.0, 48.0, 0.0, 0.0, 0.0, 1.6878029321750283E9, 0.0, 2023-06-26 13:08:52.175
101.0, 47703.11536826079, 50669.79535458033, 55888.614760472155, -2270.6243122368232, -5810.4253781348925, -8804.150975245355, 19665.55651015717, 13554.723686542951, -0.022, 0.984, 0.038, 192.0, 0.0, 0.0, 0.0, 0.0, 0.0, 0.0, 0.0, 0.0, 0.0, 1.6878029321790478E9, 0.0, 2023-06-26 13:08:52.179
102.0, 47758.81591544341, 50714.63295395768, 54577.21556153483, -2199.5010613800364, -5794.95797097182, -8736.961631412702, 19680.822751620144, 13596.610855652198, -0.022, 0.984, 0.038, 192.0, 0.0, 0.0, 0.0, 0.0, 0.0, 0.0, 0.0, 0.0, 0.0, 1.6878029321820583E9, 0.0, 2023-06-26 13:08:52.182
103.0, 47802.468872364625, 50773.01571047494, 53180.99149238962, -2131.931737891643, -5717.956211323287, -8665.167828222255, 19754.941136233945, 13683.492086349976, -0.022, 0.984, 0.038, 192.0, 0.0, 0.0, 0.0, 0.0, 0.0, 0.0, 0.0, 0.0, 0.0, 1.6878029321850505E9, 0.0, 2023-06-26 13:08:52.185
104.0, 47740.398078012244, 50713.649477201645, 54436.243109255214, -2232.693401896167, -5773.723813739278, -8770.578655073483, 19695.507847727284, 13598.108422530702, -0.022, 0.984, 0.038, 192.0, 0.0, 0.0, 0.0, 0.0, 0.0, 0.0, 0.0, 0.0, 0.0, 1.6878029321890764E9, 0.0, 2023-06-26 13:08:52.189
105.0, 47699.650847870216, 50673.21517148199, 55754.50429374031, -2270.6243122368232, -5815.7227415708, -8814.164556761332, 19654.60415537407, 13554.410762120577, -0.022, 0.984, 0.038, 192.0, 0.0, 0.0, 0.0, 0.0, 0.0, 0.0, 0.0, 0.0, 0.0, 1.687802932192094E9, 0.0, 2023-06-26 13:08:52.192
106.0, 47744.667261203205, 50709.20148005504, 55077.42525070015, -2216.1531109992397, -5806.469119366303, -8766.421230604796, 19674.676021894935, 13581.612835122685, -0.022, 0.984, 0.038, 192.0, 0.0, 0.0, 0.0, 0.0, 0.0, 0.0, 0.0, 0.0, 0.0, 1.68780293219611E9, 0.0, 2023-06-26 13:08:52.196
107.0, 47793.55052632696, 50758.867056234725, 53178.44339352172, -2121.314659275372, -5732.328383008049, -8653.94725250569, 19742.133586661053, 13684.94494973957, -0.022, 0.984, 0.038, 192.0, 0.0, 0.0, 0.0, 0.0, 0.0, 0.0, 0.0, 0.0, 0.0, 1.6878029321992047E9, 0.0, 2023-06-26 13:08:52.199
108.0, 47747.93061589368, 50717.42692201459, 54202.77913841953, -2206.6536196057345, -5770.1028311375185, -8738.526253524573, 19704.98498737633, 13619.78961465235, -0.022, 0.984, 0.038, 192.0, 0.0, 0.0, 0.0, 0.0, 0.0, 0.0, 0.0, 0.0, 0.0, 1.6878029322022092E9, 0.0, 2023-06-26 13:08:52.202
109.0, 47708.792711352435, 50671.87406681467, 55532.08208466555, -2263.9411406446866, -5806.692636810856, -8798.428928664796, 19684.71195515537, 13571.174570462057, -0.022, 0.984, 0.038, 192.0, 0.0, 0.0, 0.0, 0.0, 0.0, 0.0, 0.0, 0.0, 0.0, 1.6878029322052112E9, 0.0, 2023-06-26 13:08:52.205
110.0, 47717.30872598991, 50679.33954946275, 55495.20170631429, -2253.3017102839603, -5828.239718465772, -8798.495983898161, 19664.282460723218, 13567.397125649111, -0.012, 0.992, 0.044, 192.0, 255.0, 160.0, 31.0, 0.0, 1.0, 96.0, 0.0, 0.0, 0.0, 1.6878029322112114E9, 0.0, 2023-06-26 13:08:52.211
111.0, 47781.90526746574, 50747.51237005143, 53228.93598424626, -2157.345671337327, -5749.695688449823, -8673.661491115272, 19734.154013890507, 13673.299690878355, -0.012, 0.992, 0.044, 192.0, 0.0, 0.0, 0.0, 0.0, 0.0, 0.0, 0.0, 0.0, 0.0, 1.6878029322141995E9, 0.0, 2023-06-26 13:08:52.214
112.0, 47756.11135436432, 50730.837968687774, 53919.33666698178, -2219.639983134268, -5757.384688542448, -8725.137558595843, 19726.062682397685, 13633.871213659193, -0.012, 0.992, 0.044, 192.0, 0.0, 0.0, 0.0, 0.0, 0.0, 0.0, 0.0, 0.0, 0.0, 1.6878029322182312E9, 0.0, 2023-06-26 13:08:52.218
113.0, 47717.331077734365, 50689.57664842327, 55265.649290758294, -2258.1743905752173, -5800.612962319013, -8807.168460746821, 19687.640033679014, 13561.026878479348, -0.012, 0.992, 0.044, 192.0, 0.0, 0.0, 0.0, 0.0, 0.0, 0.0, 0.0, 0.0, 0.0, 1.6878029322212374E9, 0.0, 2023-06-26 13:08:52.221
114.0, 47708.25626948551, 50673.55044764882, 55794.513916315314, -2246.953814858653, -5814.605154348034, -8785.666082580816, 19662.673135122437, 13572.78389606284, -0.012, 0.992, 0.044, 192.0, 0.0, 0.0, 0.0, 0.0, 0.0, 0.0, 0.0, 0.0, 0.0, 1.687802932224247E9, 0.0, 2023-06-26 13:08:52.224
115.0, 47786.9791134571, 50753.413230587634, 53447.7148589748, -2148.6508427442127, -5750.701516950312, -8679.67411037375, 19719.111289872086, 13656.2229581145, -0.012, 0.992, 0.044, 192.0, 0.0, 0.0, 0.0, 0.0, 0.0, 0.0, 0.0, 0.0, 0.0, 1.6878029322282803E9, 0.0, 2023-06-26 13:08:52.228
116.0, 47766.84019170287, 50746.81946597332, 53642.53266364726, -2184.927723995176, -5734.362391753482, -8711.01125610009, 19732.209412122895, 13648.84688244425, -0.012, 0.992, 0.044, 192.0, 0.0, 0.0, 0.0, 0.0, 0.0, 0.0, 0.0, 0.0, 0.0, 1.6878029322312896E9, 0.0, 2023-06-26 13:08:52.231
117.0, 47712.234879998556, 50683.02758729787, 54993.51680201493, -2292.21609738065, -5806.692636810856, -8808.26369622513, 19654.626507118526, 13558.970517989459, -0.012, 0.992, 0.044, 192.0, 0.0, 0.0, 0.0, 0.0, 0.0, 0.0, 0.0, 0.0, 0.0, 1.6878029322343142E9, 0.0, 2023-06-26 13:08:52.234
118.0, 47692.67710360016, 50662.039299254335, 55943.04125822083, -2285.1976496216835, -5837.470988925814, -8805.112100256933, 19631.22423067382, 13552.10853244168, -0.012, 0.992, 0.044, 192.0, 0.0, 0.0, 0.0, 0.0, 0.0, 0.0, 0.0, 0.0, 0.0, 1.6878029322383337E9, 0.0, 2023-06-26 13:08:52.238
119.0, 47776.36203484083, 50743.55611128284, 53820.22903206695, -2178.7586425255113, -5766.61595900249, -8699.209535027687, 19700.8499146521, 13635.301725304333, -0.012, 0.992, 0.044, 192.0, 0.0, 0.0, 0.0, 0.0, 0.0, 0.0, 0.0, 0.0, 0.0, 1.6878029322413495E9, 0.0, 2023-06-26 13:08:52.241
120.0, 47767.935427181175, 50746.95357644005, 53419.842233639036, -2189.353369397327, -5743.191330813329, -8702.137613551333, 19734.84691796862, 13668.628176287197, -0.012, 0.992, 0.044, 192.0, 0.0, 0.0, 0.0, 0.0, 0.0, 0.0, 0.0, 0.0, 0.0, 1.6878029322443593E9, 0.0, 2023-06-26 13:08:52.244
121.0, 47716.72758063407, 50693.33174149177, 54767.25009289385, -2269.7749459475217, -5795.203840160828, -8794.092690240466, 19695.530199471737, 13580.539951388831, -0.006, 0.986, 0.052000000000000005, 192.0, 255.0, 208.0, 30.0, 208.0, 1.0, 160.0, 0.0, 0.0, 0.0, 1.68780293224837E9, 0.0, 2023-06-26 13:08:52.248
122.0, 47692.38653092224, 50672.49991565942, 55976.09948827023, -2287.0751961559295, -5824.059942252629, -8795.45614665224, 19671.12209452654, 13574.348518174711, -0.006, 0.986, 0.052000000000000005, 192.0, 0.0, 0.0, 0.0, 0.0, 0.0, 0.0, 0.0, 0.0, 0.0, 1.6878029322513912E9, 0.0, 2023-06-26 13:08:52.251
123.0, 47763.50978177903, 50727.7757796974, 54273.634168342855, -2206.474805650092, -5772.405060816415, -8717.090930591934, 19708.69537695591, 13638.386266039166, -0.006, 0.986, 0.052000000000000005, 192.0, 0.0, 0.0, 0.0, 0.0, 0.0, 0.0, 0.0, 0.0, 0.0, 1.6878029322554193E9, 0.0, 2023-06-26 13:08:52.255
124.0, 47781.34647385436, 50757.883579478694, 53255.24398747015, -2170.8461249883326, -5726.449874216303, -8670.219322469155, 19757.958621735408, 13697.685444079096, -0.006, 0.986, 0.052000000000000005, 192.0, 0.0, 0.0, 0.0, 0.0, 0.0, 0.0, 0.0, 0.0, 0.0, 1.6878029322584157E9, 0.0, 2023-06-26 13:08:52.258
125.0, 47733.11140931981, 50713.09068359026, 54553.25449147874, -2250.6418526937787, -5776.920113196387, -8771.740945785159, 19701.676929196947, 13610.737158147951, -0.006, 0.986, 0.052000000000000005, 192.0, 0.0, 0.0, 0.0, 0.0, 0.0, 0.0, 0.0, 0.0, 0.0, 1.6878029322624319E9, 0.0, 2023-06-26 13:08:52.262
126.0, 47701.08135951535, 50679.808936096306, 55903.858650190676, -2300.2627253845603, -5810.537136857169, -8801.69228335527, 19666.36117295756, 13575.533160630843, -0.006, 0.986, 0.052000000000000005, 192.0, 0.0, 0.0, 0.0, 0.0, 0.0, 0.0, 0.0, 0.0, 0.0, 1.6878029322664824E9, 0.0, 2023-06-26 13:08:52.266
127.0, 47750.99280488406, 50720.04207611586, 54775.60964532014, -2229.1618262722286, -5791.538154070157, -8732.40187554382, 19679.213426019363, 13607.83143136876, -0.006, 0.986, 0.052000000000000005, 192.0, 0.0, 0.0, 0.0, 0.0, 0.0, 0.0, 0.0, 0.0, 0.0, 1.687802932270491E9, 0.0, 2023-06-26 13:08:52.270
128.0, 47780.76532849853, 50760.09640217977, 53189.21693434918, -2161.301930105916, -5736.105827820997, -8663.290281688009, 19742.267697127783, 13681.301615393355, -0.006, 0.986, 0.052000000000000005, 192.0, 0.0, 0.0, 0.0, 0.0, 0.0, 0.0, 0.0, 0.0, 0.0, 1.6878029322745132E9, 0.0, 2023-06-26 13:08:52.274
129.0, 47747.77415368249, 50730.94972741005, 54382.30834988456, -2249.6807276822005, -5771.801563716122, -8742.527215782073, 19708.583618233635, 13615.520431461387, -0.006, 0.986, 0.052000000000000005, 192.0, 0.0, 0.0, 0.0, 0.0, 0.0, 0.0, 0.0, 0.0, 0.0, 1.6878029322785268E9, 0.0, 2023-06-26 13:08:52.278
130.0, 47707.473958429575, 50689.93427633456, 55738.88042436605, -2303.6154870528567, -5805.664456565912, -8805.112100256933, 19669.71393462586, 13564.223177936457, -0.006, 0.986, 0.052000000000000005, 192.0, 0.0, 0.0, 0.0, 0.0, 0.0, 0.0, 0.0, 0.0, 0.0, 1.6878029322835584E9, 0.0, 2023-06-26 13:08:52.283
131.0, 47726.18236853866, 50696.63979967115, 55281.67549153275, -2270.6243122368232, -5817.19795670485, -8773.327919641486, 19655.408818174463, 13567.151256460102, -0.018000000000000002, 0.982, 0.056, 192.0, 255.0, 112.0, 30.0, 176.0, 1.0, 192.0, 0.0, 0.0, 0.0, 1.687802932287573E9, 0.0, 2023-06-26 13:08:52.287
132.0, 47782.17348839921, 50760.36462311323, 53227.75134179012, -2186.447642618137, -5732.1272173079515, -8665.1454764778, 19742.021827938777, 13665.70009776355, -0.018000000000000002, 0.982, 0.056, 192.0, 0.0, 0.0, 0.0, 0.0, 0.0, 0.0, 0.0, 0.0, 0.0, 1.687802932291587E9, 0.0, 2023-06-26 13:08:52.291
133.0, 47745.65073795924, 50733.2743088334, 54203.516745986555, -2257.6155969638344, -5762.480886278258, -8735.955802912213, 19720.318284072673, 13613.88875411615, -0.018000000000000002, 0.982, 0.056, 192.0, 0.0, 0.0, 0.0, 0.0, 0.0, 0.0, 0.0, 0.0, 0.0, 1.6878029322956336E9, 0.0, 2023-06-26 13:08:52.295
134.0, 47711.56432766489, 50692.594133924744, 55515.11711062397, -2309.091664444407, -5796.030854705675, -8797.914838542323, 19683.683774910423, 13562.3009279133, -0.018000000000000002, 0.982, 0.056, 192.0, 0.0, 0.0, 0.0, 0.0, 0.0, 0.0, 0.0, 0.0, 0.0, 1.6878029322986407E9, 0.0, 2023-06-26 13:08:52.298
135.0, 47728.28343251746, 50704.4182067416, 55634.38601903749, -2292.439614825203, -5810.939468257364, -8791.477536139195, 19671.9938125603, 13563.507922113888, -0.018000000000000002, 0.982, 0.056, 192.0, 0.0, 0.0, 0.0, 0.0, 0.0, 0.0, 0.0, 0.0, 0.0, 1.6878029323046677E9, 0.0, 2023-06-26 13:08:52.304
136.0, 47790.17541291421, 50766.24313190498, 53355.53626484112, -2185.799442028933, -5735.256461531694, -8677.148363250299, 19744.547575062224, 13658.458132560032, -0.018000000000000002, 0.982, 0.056, 192.0, 0.0, 0.0, 0.0, 0.0, 0.0, 0.0, 0.0, 0.0, 0.0, 1.687802932308686E9, 0.0, 2023-06-26 13:08:52.308
137.0, 47751.6186537288, 50737.968175169015, 53987.77770850393, -2244.5621782019352, -5749.695688449823, -8726.121035351878, 19737.171499391974, 13631.45722525802, -0.018000000000000002, 0.982, 0.056, 192.0, 0.0, 0.0, 0.0, 0.0, 0.0, 0.0, 0.0, 0.0, 0.0, 1.687802932311736E9, 0.0, 2023-06-26 13:08:52.311
138.0, 47714.82768235537, 50697.44446247155, 55273.45004957319, -2309.5163475890577, -5788.140688912951, -8797.467803653217, 19687.975309845842, 13563.619680836164, -0.018000000000000002, 0.982, 0.056, 192.0, 0.0, 0.0, 0.0, 0.0, 0.0, 0.0, 0.0, 0.0, 0.0, 1.6878029323147159E9, 0.0, 2023-06-26 13:08:52.314
139.0, 47703.78592059445, 50679.13838376265, 55913.17932762854, -2315.3948563808035, -5825.244584708761, -8803.167498489322, 19658.538062398206, 13545.805340505283, -0.018000000000000002, 0.982, 0.056, 192.0, 0.0, 0.0, 0.0, 0.0, 0.0, 0.0, 0.0, 0.0, 0.0, 1.6878029323177347E9, 0.0, 2023-06-26 13:08:52.317
140.0, 47785.12391866731, 50756.65423353365, 53601.60661954959, -2206.8771370502877, -5740.509121478692, -8701.936447851234, 19735.740987746834, 13635.949925893538, -0.018000000000000002, 0.982, 0.056, 192.0, 0.0, 0.0, 0.0, 0.0, 0.0, 0.0, 0.0, 0.0, 0.0, 1.6878029323227715E9, 0.0, 2023-06-26 13:08:52.322
141.0, 47773.813935972925, 50758.107096923246, 53701.988303898375, -2222.702172124645, -5722.18069102534, -8710.117186321877, 19767.86044452911, 13656.960565681526, -0.032, 0.982, 0.058, 192.0, 255.0, 0.0, 30.0, 176.0, 1.0, 208.0, 0.0, 0.0, 0.0, 1.6878029323267822E9, 0.0, 2023-06-26 13:08:52.326
142.0, 47728.998688340034, 50710.90021263364, 54976.1271448287, -2289.578591534924, -5771.7121567383, -8772.769126030104, 19712.070490368664, 13575.823733308762, -0.032, 0.982, 0.058, 192.0, 0.0, 0.0, 0.0, 0.0, 0.0, 0.0, 0.0, 0.0, 0.0, 1.6878029323307805E9, 0.0, 2023-06-26 13:08:52.330
143.0, 47700.746083348524, 50677.95374130652, 55985.017834307895, -2314.4560831136805, -5814.448692136847, -8791.41048090583, 19667.925795069434, 13548.174625417547, -0.032, 0.982, 0.058, 192.0, 0.0, 0.0, 0.0, 0.0, 0.0, 0.0, 0.0, 0.0, 0.0, 1.6878029323348029E9, 0.0, 2023-06-26 13:08:52.334
144.0, 47769.477697548595, 50738.526968780396, 53951.16555108614, -2216.1978144881505, -5760.469229277281, -8701.690578662226, 19717.725481715857, 13628.216222312001, -0.032, 0.982, 0.058, 192.0, 0.0, 0.0, 0.0, 0.0, 0.0, 0.0, 0.0, 0.0, 0.0, 1.687802932341849E9, 0.0, 2023-06-26 13:08:52.341
145.0, 47782.352302354855, 50764.90202723766, 53457.57197827959, -2193.443738632648, -5705.953324550787, -8674.399098682297, 19767.212243939906, 13680.18402817059, -0.032, 0.982, 0.058, 192.0, 0.0, 0.0, 0.0, 0.0, 0.0, 0.0, 0.0, 0.0, 0.0, 1.6878029323448772E9, 0.0, 2023-06-26 13:08:52.344
146.0, 47736.911205877215, 50720.422055771596, 54729.94503139795, -2288.1927833786945, -5765.051336890619, -8770.623358562394, 19694.881998882534, 13589.100669515214, -0.032, 0.982, 0.058, 192.0, 0.0, 0.0, 0.0, 0.0, 0.0, 0.0, 0.0, 0.0, 0.0, 1.6878029323488815E9, 0.0, 2023-06-26 13:08:52.348
147.0, 47695.73929259054, 50675.51740116089, 55897.756623954374, -2313.2043854241833, -5799.808299518621, -8802.40753917784, 19679.347536486093, 13563.597329091708, -0.032, 0.982, 0.058, 192.0, 0.0, 0.0, 0.0, 0.0, 0.0, 0.0, 0.0, 0.0, 0.0, 1.6878029323519013E9, 0.0, 2023-06-26 13:08:52.351
148.0, 47753.473848518595, 50717.85160515924, 54348.579567501496, -2236.113218797829, -5761.340947311038, -8744.53887278305, 19727.29202834273, 13607.138527290646, -0.032, 0.982, 0.058, 192.0, 0.0, 0.0, 0.0, 0.0, 0.0, 0.0, 0.0, 0.0, 0.0, 1.6878029323548987E9, 0.0, 2023-06-26 13:08:52.354
149.0, 47790.84596524787, 50771.27227440742, 53261.50247591764, -2177.484593091559, -5696.163260479362, -8669.213493968666, 19783.864293559112, 13683.022699716414, -0.032, 0.982, 0.058, 192.0, 0.0, 0.0, 0.0, 0.0, 0.0, 0.0, 0.0, 0.0, 0.0, 1.6878029323589368E9, 0.0, 2023-06-26 13:08:52.358
150.0, 47753.45149677414, 50733.922509422606, 54483.82997320056, -2241.9023206117536, -5745.51591223668, -8750.909119952812, 19728.879002199057, 13606.870306357183, -0.032, 0.982, 0.058, 192.0, 0.0, 0.0, 0.0, 0.0, 0.0, 0.0, 0.0, 0.0, 0.0, 1.6878029323649907E9, 0.0, 2023-06-26 13:08:52.364
151.0, 47725.4671127161, 50701.91481136261, 55676.720223035845, -2276.882800684309, -5772.315653838594, -8782.916818012813, 19697.206580305887, 13580.227026966457, -0.026000000000000002, 0.978, 0.062, 192.0, 255.0, 48.0, 30.0, 144.0, 1.0, 240.0, 0.0, 0.0, 0.0, 1.6878029323679852E9, 0.0, 2023-06-26 13:08:52.367
152.0, 47761.02873814449, 50726.1217506077, 54710.87899337757, -2232.246367007061, -5768.582912514557, -8735.48641627865, 19691.529237214236, 13602.846992355227, -0.026000000000000002, 0.978, 0.062, 192.0, 0.0, 0.0, 0.0, 0.0, 0.0, 0.0, 0.0, 0.0, 0.0, 1.687802932387086E9, 0.0, 2023-06-26 13:08:52.387
153.0, 47807.94504975618, 50782.55990535735, 53061.45436304264, -2155.356366080805, -5694.553934878581, -8659.75870606407, 19763.8147787827, 13692.365728898732, -0.026000000000000002, 0.978, 0.062, 192.0, 0.0, 0.0, 0.0, 0.0, 0.0, 0.0, 0.0, 0.0, 0.0, 1.687802932392096E9, 0.0, 2023-06-26 13:08:52.392
154.0, 47767.868371947814, 50744.85251246125, 54220.03468513903, -2225.9208233262093, -5735.837606887532, -8742.482512293162, 19722.46405154038, 13625.913992633104, -0.026000000000000002, 0.978, 0.062, 192.0, 0.0, 0.0, 0.0, 0.0, 0.0, 0.0, 0.0, 0.0, 0.0, 1.6878029323951097E9, 0.0, 2023-06-26 13:08:52.395
155.0, 47723.67897315967, 50695.45515721502, 55424.45843511325, -2270.959588403653, -5775.131973639962, -8778.960559244224, 19684.734306899823, 13582.171628734068, -0.026000000000000002, 0.978, 0.062, 192.0, 0.0, 0.0, 0.0, 0.0, 0.0, 0.0, 0.0, 0.0, 0.0, 1.687802932398114E9, 0.0, 2023-06-26 13:08:52.398
156.0, 47758.7712119545, 50724.4230180291, 55091.59625668482, -2225.339677970371, -5770.683976493357, -8745.924680939279, 19688.8470278796, 13606.26680925689, -0.026000000000000002, 0.978, 0.062, 192.0, 0.0, 0.0, 0.0, 0.0, 0.0, 0.0, 0.0, 0.0, 0.0, 1.6878029324022043E9, 0.0, 2023-06-26 13:08:52.402
157.0, 47811.65543933576, 50782.87282977973, 53026.5632899479, -2136.6479559717127, -5695.872687801443, -8652.986127494112, 19760.462017114405, 13700.077080735813, -0.026000000000000002, 0.978, 0.062, 192.0, 0.0, 0.0, 0.0, 0.0, 0.0, 0.0, 0.0, 0.0, 0.0, 1.6878029324052055E9, 0.0, 2023-06-26 13:08:52.405
158.0, 47772.78575572798, 50749.367564841225, 54001.72519704404, -2207.570041128402, -5723.857071859488, -8715.973343369167, 19739.160804648498, 13653.741914479962, -0.026000000000000002, 0.978, 0.062, 192.0, 0.0, 0.0, 0.0, 0.0, 0.0, 0.0, 0.0, 0.0, 0.0, 1.6878029324081984E9, 0.0, 2023-06-26 13:08:52.408
159.0, 47736.57592971038, 50708.262706787915, 55191.68736835568, -2260.6777859542117, -5760.893912421931, -8781.978044745689, 19698.48062973984, 13593.459259684, -0.026000000000000002, 0.978, 0.062, 192.0, 0.0, 0.0, 0.0, 0.0, 0.0, 0.0, 0.0, 0.0, 0.0, 1.687802932411203E9, 0.0, 2023-06-26 13:08:52.411
160.0, 47743.30380479143, 50708.64268644365, 55420.92685948931, -2239.8459601218656, -5786.732529012266, -8771.02568996259, 19675.815960862157, 13590.709995115996, -0.026000000000000002, 0.978, 0.062, 192.0, 0.0, 0.0, 0.0, 0.0, 0.0, 0.0, 0.0, 0.0, 0.0, 1.6878029324151952E9, 0.0, 2023-06-26 13:08:52.415
161.0, 47819.523253384024, 50784.07982398031, 53133.11405576635, -2125.9414703776206, -5702.913487304865, -8656.04831648449, 19757.332772890662, 13694.71266206654, -0.026000000000000002, 0.978, 0.062, 192.0, 0.0, 0.0, 0.0, 0.0, 0.0, 0.0, 0.0, 0.0, 0.0, 1.6878029324182003E9, 0.0, 2023-06-26 13:08:52.418
162.0, 47779.24540987556, 50755.96132945554, 53751.56447310025, -2189.7109973086117, -5721.174862524851, -8703.255200774098, 19749.509662331304, 13668.047030931359, -0.028, 0.996, 0.064, 192.0, 255.0, 32.0, 31.0, 32.0, 2.0, 0.0, 0.0, 0.0, 0.0, 1.687802932421246E9, 0.0, 2023-06-26 13:08:52.421
163.0, 47738.54288322245, 50709.447349244045, 54933.34590594124, -2250.150114315762, -5769.52168578168, -8784.235570935676, 19698.212408806376, 13593.772184106372, -0.028, 0.996, 0.064, 192.0, 0.0, 0.0, 0.0, 0.0, 0.0, 0.0, 0.0, 0.0, 0.0, 1.687802932425242E9, 0.0, 2023-06-26 13:08:52.425
164.0, 47731.47973197457, 50701.15485205113, 55614.78353915019, -2250.9100736272426, -5793.818032004599, -8783.319149413008, 19680.08514405312, 13584.585617135243, -0.028, 0.996, 0.064, 192.0, 0.0, 0.0, 0.0, 0.0, 0.0, 0.0, 0.0, 0.0, 0.0, 1.6878029324282513E9, 0.0, 2023-06-26 13:08:52.428
165.0, 47809.30850616795, 50771.942826741084, 53388.84036407952, -2147.242682843528, -5721.376028224949, -8682.803354597492, 19743.631153539558, 13666.661222775128, -0.028, 0.996, 0.064, 192.0, 0.0, 0.0, 0.0, 0.0, 0.0, 0.0, 0.0, 0.0, 0.0, 1.687802932431276E9, 0.0, 2023-06-26 13:08:52.431
166.0, 47785.88387797879, 50763.203294659055, 53451.60406251002, -2170.28733137695, -5710.803653097589, -8689.553581422995, 19760.797293281234, 13677.010080457936, -0.028, 0.996, 0.064, 192.0, 0.0, 0.0, 0.0, 0.0, 0.0, 0.0, 0.0, 0.0, 0.0, 1.6878029324343004E9, 0.0, 2023-06-26 13:08:52.434
167.0, 47744.108467591825, 50715.05763710233, 54662.44276314292, -2236.0014600755526, -5756.401211786415, -8767.717631783204, 19713.255132824797, 13603.808117366805, -0.028, 0.996, 0.064, 192.0, 0.0, 0.0, 0.0, 0.0, 0.0, 0.0, 0.0, 0.0, 0.0, 1.6878029324383173E9, 0.0, 2023-06-26 13:08:52.438
168.0, 47716.81698761189, 50687.766157122394, 55660.17993213892, -2259.604902220357, -5790.644084291946, -8783.944998257757, 19688.891731368512, 13584.429154924055, -0.028, 0.996, 0.064, 192.0, 0.0, 0.0, 0.0, 0.0, 0.0, 0.0, 0.0, 0.0, 0.0, 1.6878029324413247E9, 0.0, 2023-06-26 13:08:52.441
169.0, 47785.772119256515, 50745.79128572837, 53768.37298493063, -2174.8470872458324, -5741.917281379376, -8703.188145540733, 19728.0072841653, 13646.79052195436, -0.028, 0.996, 0.064, 192.0, 0.0, 0.0, 0.0, 0.0, 0.0, 0.0, 0.0, 0.0, 0.0, 1.687802932444328E9, 0.0, 2023-06-26 13:08:52.444
170.0, 47786.822651245915, 50764.70086153756, 53204.10319615641, -2161.637206272746, -5705.014551283664, -8675.471982416151, 19774.789485310255, 13691.359900398244, -0.028, 0.996, 0.064, 192.0, 0.0, 0.0, 0.0, 0.0, 0.0, 0.0, 0.0, 0.0, 0.0, 1.6878029324483705E9, 0.0, 2023-06-26 13:08:52.448
171.0, 47750.188142083665, 50727.75342795294, 54454.415077497375, -2232.2016635181503, -5750.433296016848, -8753.792494987547, 19730.398920822015, 13616.97329485098, -0.028, 0.996, 0.064, 192.0, 0.0, 0.0, 0.0, 0.0, 0.0, 0.0, 0.0, 0.0, 0.0, 1.6878029324514003E9, 0.0, 2023-06-26 13:08:52.451
172.0, 47719.32038299089, 50695.34339849275, 55617.30928627364, -2260.92365514322, -5785.033796433663, -8784.101460468944, 19697.43009775044, 13587.40193693661, -0.028, 1.002, 0.074, 192.0, 255.0, 32.0, 31.0, 80.0, 2.0, 80.0, 0.0, 0.0, 0.0, 1.6878029324543917E9, 0.0, 2023-06-26 13:08:52.454
173.0, 47777.41256683023, 50743.89138744967, 54234.31744984597, -2189.599238586335, -5754.61307222999, -8713.313485778986, 19721.368816062073, 13631.41252176911, -0.028, 1.002, 0.074, 192.0, 0.0, 0.0, 0.0, 0.0, 0.0, 0.0, 0.0, 0.0, 0.0, 1.687802932457408E9, 0.0, 2023-06-26 13:08:52.457
174.0, 47801.19482293067, 50780.01180648945, 53012.749911874525, -2140.9171391626764, -5694.688045345312, -8650.639194326306, 19784.82541857069, 13706.559086627853, -0.028, 1.002, 0.074, 192.0, 0.0, 0.0, 0.0, 0.0, 0.0, 0.0, 0.0, 0.0, 0.0, 1.6878029324614236E9, 0.0, 2023-06-26 13:08:52.461
175.0, 47758.65945323223, 50739.21987285851, 54254.322261133464, -2229.184178016684, -5740.509121478692, -8744.82944546097, 19735.271601113272, 13626.092806588747, -0.028, 1.002, 0.074, 192.0, 0.0, 0.0, 0.0, 0.0, 0.0, 0.0, 0.0, 0.0, 0.0, 1.687802932464448E9, 0.0, 2023-06-26 13:08:52.464
176.0, 47722.18140628117, 50702.98769509646, 55466.34560422249, -2267.45036452417, -5771.9803776717645, -8776.59127433196, 19716.80906019319, 13590.240608482434, -0.028, 1.002, 0.074, 192.0, 0.0, 0.0, 0.0, 0.0, 0.0, 0.0, 0.0, 0.0, 0.0, 1.6878029324674776E9, 0.0, 2023-06-26 13:08:52.467
177.0, 47762.50395327854, 50733.497826277955, 54705.15694679701, -2216.890718566265, -5766.861828191499, -8727.216270830188, 19722.352292818105, 13612.50294595992, -0.028, 1.002, 0.074, 192.0, 0.0, 0.0, 0.0, 0.0, 0.0, 0.0, 0.0, 0.0, 0.0, 1.6878029324724975E9, 0.0, 2023-06-26 13:08:52.472
178.0, 47800.56897408593, 50779.45301287807, 52914.13401533771, -2146.7956479544223, -5698.823118069544, -8647.644060569293, 19785.115991248607, 13697.95366501256, -0.028, 1.002, 0.074, 192.0, 0.0, 0.0, 0.0, 0.0, 0.0, 0.0, 0.0, 0.0, 0.0, 1.6878029324765303E9, 0.0, 2023-06-26 13:08:52.476
179.0, 47754.792601441455, 50738.3258030803, 54052.307194746405, -2233.699230396656, -5738.855092388999, -8729.786721442548, 19753.600031566624, 13632.284239802866, -0.028, 1.002, 0.074, 192.0, 0.0, 0.0, 0.0, 0.0, 0.0, 0.0, 0.0, 0.0, 0.0, 1.6878029324795263E9, 0.0, 2023-06-26 13:08:52.479
180.0, 47713.35246722132, 50691.32008449079, 55313.683189592746, -2293.6689607702447, -5776.003691673719, -8785.576675602993, 19717.658426482492, 13576.606044364697, -0.028, 1.002, 0.074, 192.0, 0.0, 0.0, 0.0, 0.0, 0.0, 0.0, 0.0, 0.0, 0.0, 1.687802932484544E9, 0.0, 2023-06-26 13:08:52.484
181.0, 47736.97826111058, 50706.80984339832, 55190.994464277566, -2259.1131638423403, -5785.90551446742, -8760.073335179488, 19706.214333321375, 13578.617701365674, -0.028, 1.002, 0.074, 192.0, 0.0, 0.0, 0.0, 0.0, 0.0, 0.0, 0.0, 0.0, 0.0, 1.6878029324885643E9, 0.0, 2023-06-26 13:08:52.488
182.0, 47808.79441604548, 50780.39178614519, 53024.909260858214, -2161.0113574279976, -5700.2536297146835, -8658.551711863483, 19780.10920049062, 13676.361879868733, -0.036000000000000004, 0.99, 0.074, 192.0, 254.0, 224.0, 30.0, 240.0, 2.0, 80.0, 0.0, 0.0, 0.0, 1.6878029324915855E9, 0.0, 2023-06-26 13:08:52.491
183.0, 47771.22113361611, 50753.94967245456, 53870.22988441347, -2224.3562012143375, -5729.176787039851, -8713.514651479085, 19751.09663618763, 13636.4193125271, -0.036000000000000004, 0.99, 0.074, 192.0, 0.0, 0.0, 0.0, 0.0, 0.0, 0.0, 0.0, 0.0, 0.0, 1.6878029324945903E9, 0.0, 2023-06-26 13:08:52.494
184.0, 47729.93746160716, 50708.75444516593, 55115.1102918518, -2291.7467107470884, -5771.488639293747, -8776.904198754335, 19718.66425498298, 13574.817904808273, -0.036000000000000004, 0.99, 0.074, 192.0, 0.0, 0.0, 0.0, 0.0, 0.0, 0.0, 0.0, 0.0, 0.0, 1.687802932498625E9, 0.0, 2023-06-26 13:08:52.498
185.0, 47730.42919998517, 50706.5192707204, 55564.80503854812, -2284.9741321771303, -5792.096947681541, -8777.910027254824, 19704.359138531585, 13565.050192481303, -0.036000000000000004, 0.99, 0.074, 192.0, 0.0, 0.0, 0.0, 0.0, 0.0, 0.0, 0.0, 0.0, 0.0, 1.6878029325027423E9, 0.0, 2023-06-26 13:08:52.502
186.0, 47819.99264001759, 50792.46172815105, 53264.87758933039, -2164.230008629562, -5703.762853594167, -8660.295147930998, 19782.7690580808, 13671.288033877378, -0.036000000000000004, 0.99, 0.074, 192.0, 0.0, 0.0, 0.0, 0.0, 0.0, 0.0, 0.0, 0.0, 0.0, 1.6878029325066495E9, 0.0, 2023-06-26 13:08:52.506
187.0, 47795.94216298368, 50783.43162339111, 53675.05445182973, -2206.184232972173, -5705.975676295242, -8676.991901039113, 19785.607729626623, 13665.834208230282, -0.036000000000000004, 0.99, 0.074, 192.0, 0.0, 0.0, 0.0, 0.0, 0.0, 0.0, 0.0, 0.0, 0.0, 1.68780293250965E9, 0.0, 2023-06-26 13:08:52.509
188.0, 47742.49914199104, 50725.00416338494, 54927.02036226039, -2286.270533355538, -5764.201970601317, -8767.82939050548, 19718.7536619608, 13577.678928098552, -0.036000000000000004, 0.99, 0.074, 192.0, 0.0, 0.0, 0.0, 0.0, 0.0, 0.0, 0.0, 0.0, 0.0, 1.6878029325136912E9, 0.0, 2023-06-26 13:08:52.513
189.0, 47717.57694692337, 50699.858450872714, 55771.60337824862, -2300.352132362382, -5798.377787873482, -8782.827411034992, 19687.841199379112, 13557.003564477393, -0.036000000000000004, 0.99, 0.074, 192.0, 0.0, 0.0, 0.0, 0.0, 0.0, 0.0, 0.0, 0.0, 0.0, 1.6878029325186913E9, 0.0, 2023-06-26 13:08:52.518
190.0, 47801.30658165295, 50774.28975990889, 53610.3014481427, -2188.951037997131, -5723.410036970382, -8678.087136517423, 19753.421217610983, 13643.527167263886, -0.036000000000000004, 0.99, 0.074, 192.0, 0.0, 0.0, 0.0, 0.0, 0.0, 0.0, 0.0, 0.0, 0.0, 1.6878029325227292E9, 0.0, 2023-06-26 13:08:52.522
191.0, 47788.2308111466, 50777.0837279658, 53474.224027898796, -2210.2298987185836, -5701.684141359823, -8678.131840006334, 19780.176255723985, 13666.3259466083, -0.036000000000000004, 0.99, 0.074, 192.0, 0.0, 0.0, 0.0, 0.0, 0.0, 0.0, 0.0, 0.0, 0.0, 1.6878029325267344E9, 0.0, 2023-06-26 13:08:52.526
192.0, 47746.83538041537, 50729.94389890956, 54739.377467558086, -2274.1558878607616, -5746.789961670633, -8762.30850962502, 19729.10251964361, 13587.312529958788, -0.05, 0.986, 0.078, 192.0, 254.0, 112.0, 30.0, 208.0, 2.0, 112.0, 0.0, 0.0, 0.0, 1.6878029325307617E9, 0.0, 2023-06-26 13:08:52.530
193.0, 47725.40005748273, 50708.821500399295, 55835.5293673908, -2287.633989767312, -5774.170848628384, -8779.921684255802, 19704.157972831486, 13569.83346579474, -0.05, 0.986, 0.078, 192.0, 0.0, 0.0, 0.0, 0.0, 0.0, 0.0, 0.0, 0.0, 0.0, 1.6878029325338976E9, 0.0, 2023-06-26 13:08:52.533
194.0, 47804.8828607658, 50779.72123381153, 54056.55402619291, -2191.7226543095894, -5722.314801492072, -8689.486526189628, 19745.620458796082, 13638.430969528077, -0.05, 0.986, 0.078, 192.0, 0.0, 0.0, 0.0, 0.0, 0.0, 0.0, 0.0, 0.0, 0.0, 1.6878029325377893E9, 0.0, 2023-06-26 13:08:52.537
195.0, 47804.18995668769, 50788.796042060385, 53291.051482087554, -2175.607046557313, -5679.60061783798, -8653.053182727479, 19793.050860530242, 13689.728223053005, -0.05, 0.986, 0.078, 192.0, 0.0, 0.0, 0.0, 0.0, 0.0, 0.0, 0.0, 0.0, 0.0, 1.6878029325418057E9, 0.0, 2023-06-26 13:08:52.541
196.0, 47746.477752504084, 50730.54739600985, 54580.14364005848, -2273.2618180825493, -5738.430409244348, -8756.564111300006, 19728.074339398663, 13594.64390214013, -0.05, 0.986, 0.078, 192.0, 0.0, 0.0, 0.0, 0.0, 0.0, 0.0, 0.0, 0.0, 0.0, 1.6878029325458195E9, 0.0, 2023-06-26 13:08:52.545
197.0, 47721.82377836988, 50704.57466895279, 55774.4644015389, -2290.919696202242, -5768.247636347728, -8781.93334125678, 19696.60308320559, 13568.984099505436, -0.05, 0.986, 0.078, 192.0, 0.0, 0.0, 0.0, 0.0, 0.0, 0.0, 0.0, 0.0, 0.0, 1.6878029325518599E9, 0.0, 2023-06-26 13:08:52.551
198.0, 47781.368825598816, 50754.57552129931, 54537.31769768211, -2215.7731313434997, -5735.032944087141, -8718.767311426082, 19720.47474628386, 13613.419367482587, -0.05, 0.986, 0.078, 192.0, 0.0, 0.0, 0.0, 0.0, 0.0, 0.0, 0.0, 0.0, 0.0, 1.687802932555893E9, 0.0, 2023-06-26 13:08:52.555
199.0, 47804.21230843214, 50791.925286284124, 53158.34917525639, -2161.3913370837377, -5670.235236911206, -8649.119275703344, 19786.278281960283, 13691.695176565074, -0.05, 0.986, 0.078, 192.0, 0.0, 0.0, 0.0, 0.0, 0.0, 0.0, 0.0, 0.0, 0.0, 1.687802932559904E9, 0.0, 2023-06-26 13:08:52.559
200.0, 47767.48839229207, 50755.91662596662, 54396.99344599169, -2236.7167158981224, -5713.5752694100465, -8726.031628374056, 19744.324057617672, 13622.672989687086, -0.05, 0.986, 0.078, 192.0, 0.0, 0.0, 0.0, 0.0, 0.0, 0.0, 0.0, 0.0, 0.0, 1.687802932563985E9, 0.0, 2023-06-26 13:08:52.563
201.0, 47718.00163006802, 50705.17816605308, 55603.76412913372, -2294.6300857818233, -5768.024118903175, -8787.945960515257, 19694.099687826598, 13567.821808793762, -0.05, 0.986, 0.078, 192.0, 0.0, 0.0, 0.0, 0.0, 0.0, 0.0, 0.0, 0.0, 0.0, 1.6878029325669403E9, 0.0, 2023-06-26 13:08:52.566
202.0, 47758.68180497668, 50736.67177399061, 55011.46525281254, -2241.5670444449242, -5751.2603105616945, -8745.947032683735, 19700.13465882953, 13594.129812017658, -0.058, 0.978, 0.076, 192.0, 254.0, 48.0, 30.0, 144.0, 2.0, 96.0, 0.0, 0.0, 0.0, 1.6878029325699856E9, 0.0, 2023-06-26 13:08:52.569
203.0, 47807.922698011724, 50793.691074096096, 53154.07999206543, -2158.7761829824667, -5667.418917109838, -8657.434124640718, 19777.516398133805, 13690.063499219836, -0.058, 0.978, 0.076, 192.0, 0.0, 0.0, 0.0, 0.0, 0.0, 0.0, 0.0, 0.0, 0.0, 1.6878029325739803E9, 0.0, 2023-06-26 13:08:52.573
204.0, 47765.856714946836, 50758.26355913444, 54253.808171011, -2237.431971720692, -5704.768682094656, -8732.759503455103, 19743.944077961933, 13631.837204913762, -0.058, 0.978, 0.076, 192.0, 0.0, 0.0, 0.0, 0.0, 0.0, 0.0, 0.0, 0.0, 0.0, 1.687802932577994E9, 0.0, 2023-06-26 13:08:52.577
205.0, 47733.334926764364, 50723.88657616217, 55388.606237006934, -2275.608751250357, -5735.211758042784, -8775.496038853651, 19707.26486531077, 13589.279483470857, -0.058, 0.978, 0.076, 192.0, 0.0, 0.0, 0.0, 0.0, 0.0, 0.0, 0.0, 0.0, 0.0, 1.6878029325830295E9, 0.0, 2023-06-26 13:08:52.583
206.0, 47744.35433678083, 50730.01095414293, 55396.69756849975, -2251.3124050274378, -5750.098019850018, -8758.866340978902, 19688.08706856812, 13591.291140471834, -0.058, 0.978, 0.076, 192.0, 0.0, 0.0, 0.0, 0.0, 0.0, 0.0, 0.0, 0.0, 0.0, 1.6878029325870428E9, 0.0, 2023-06-26 13:08:52.587
207.0, 47805.776930544016, 50792.19350721759, 53223.10217894342, -2156.2057323701065, -5673.587998579503, -8660.116333975355, 19756.773979279278, 13683.425031116609, -0.058, 0.978, 0.076, 192.0, 0.0, 0.0, 0.0, 0.0, 0.0, 0.0, 0.0, 0.0, 0.0, 1.6878029325910673E9, 0.0, 2023-06-26 13:08:52.591
208.0, 47765.96847366911, 50763.51621908143, 54066.72406992008, -2216.644849377257, -5695.157431978873, -8717.806186414504, 19744.033484939755, 13652.221995857, -0.058, 0.978, 0.076, 192.0, 0.0, 0.0, 0.0, 0.0, 0.0, 0.0, 0.0, 0.0, 0.0, 1.6878029325940692E9, 0.0, 2023-06-26 13:08:52.594
209.0, 47729.132798806764, 50719.41622727111, 55189.42984216569, -2281.6437222532895, -5730.2496707737055, -8786.895428525857, 19700.447583251906, 13587.78191659235, -0.058, 0.978, 0.076, 192.0, 0.0, 0.0, 0.0, 0.0, 0.0, 0.0, 0.0, 0.0, 0.0, 1.687802932598091E9, 0.0, 2023-06-26 13:08:52.598
210.0, 47728.663412173206, 50716.08581734727, 55672.026356700226, -2267.3162540574376, -5748.779266927156, -8778.044137721556, 19683.08027781013, 13585.010300279893, -0.058, 0.978, 0.076, 192.0, 0.0, 0.0, 0.0, 0.0, 0.0, 0.0, 0.0, 0.0, 0.0, 1.6878029326021245E9, 0.0, 2023-06-26 13:08:52.602
211.0, 47810.89548002428, 50793.2887426959, 53422.03270459565, -2153.2776538464614, -5666.569550820536, -8658.976395008134, 19757.802159524224, 13683.156810183145, -0.058, 0.978, 0.076, 192.0, 0.0, 0.0, 0.0, 0.0, 0.0, 0.0, 0.0, 0.0, 0.0, 1.6878029326061985E9, 0.0, 2023-06-26 13:08:52.606
212.0, 47780.63121803179, 50777.53076285491, 53833.57302350677, -2189.934514753165, -5659.148771661374, -8684.412680198275, 19770.162674208008, 13679.3793653702, -0.058, 0.978, 0.076, 192.0, 0.0, 0.0, 0.0, 0.0, 0.0, 0.0, 0.0, 0.0, 0.0, 1.6878029326122024E9, 0.0, 2023-06-26 13:08:52.612
213.0, 47733.9160721202, 50728.49103551997, 54956.81523761931, -2268.8138209359436, -5715.765740366667, -8774.0208237196, 19706.08022285464, 13592.095803272225, -0.07200000000000001, 0.984, 0.066, 192.0, 253.0, 192.0, 30.0, 192.0, 2.0, 16.0, 0.0, 0.0, 0.0, 1.6878029326162105E9, 0.0, 2023-06-26 13:08:52.616
214.0, 47712.704266632114, 50709.60381145523, 55781.95223593143, -2280.2579140970606, -5746.119409336974, -8782.335672656975, 19682.163856287465, 13580.338785688733, -0.07200000000000001, 0.984, 0.066, 192.0, 0.0, 0.0, 0.0, 0.0, 0.0, 0.0, 0.0, 0.0, 0.0, 1.6878029326192088E9, 0.0, 2023-06-26 13:08:52.619
215.0, 47787.89553497977, 50777.64252157719, 53728.54217631128, -2180.6808925486675, -5678.572437593036, -8685.91024707678, 19736.05391216921, 13657.295841848356, -0.07200000000000001, 0.984, 0.066, 192.0, 0.0, 0.0, 0.0, 0.0, 0.0, 0.0, 0.0, 0.0, 0.0, 1.687802932623218E9, 0.0, 2023-06-26 13:08:52.623
216.0, 47777.90430520825, 50782.917533268635, 53593.068253167665, -2186.8723257627876, -5652.532655302603, -8676.522514405551, 19763.233633426862, 13684.922597995115, -0.07200000000000001, 0.984, 0.066, 192.0, 0.0, 0.0, 0.0, 0.0, 0.0, 0.0, 0.0, 0.0, 0.0, 1.687802932627241E9, 0.0, 2023-06-26 13:08:52.627
217.0, 47731.47973197457, 50731.821445443806, 54795.592104863186, -2273.574742504924, -5707.719112362756, -8771.718594040703, 19698.100650084096, 13594.465088184488, -0.07200000000000001, 0.984, 0.066, 192.0, 0.0, 0.0, 0.0, 0.0, 0.0, 0.0, 0.0, 0.0, 0.0, 1.687802932631258E9, 0.0, 2023-06-26 13:08:52.631
218.0, 47697.77330133597, 50695.58926768175, 55788.03191042327, -2296.9099637162644, -5740.129141822951, -8794.092690240466, 19671.65853639347, 13570.25814893939, -0.07200000000000001, 0.984, 0.066, 192.0, 0.0, 0.0, 0.0, 0.0, 0.0, 0.0, 0.0, 0.0, 0.0, 1.687802932637287E9, 0.0, 2023-06-26 13:08:52.637
219.0, 47767.533095780986, 50757.86122773424, 54152.04067850598, -2208.0617795064186, -5697.280847702128, -8711.01125610009, 19706.61666472157, 13626.74100717795, -0.07200000000000001, 0.984, 0.066, 192.0, 0.0, 0.0, 0.0, 0.0, 0.0, 0.0, 0.0, 0.0, 0.0, 1.6878029326402998E9, 0.0, 2023-06-26 13:08:52.640
220.0, 47782.95579945514, 50786.35970191476, 53357.50321835318, -2172.254284889017, -5644.173102876318, -8667.112429989867, 19762.317211904196, 13689.527057352909, -0.07200000000000001, 0.984, 0.066, 192.0, 0.0, 0.0, 0.0, 0.0, 0.0, 0.0, 0.0, 0.0, 0.0, 1.6878029326443365E9, 0.0, 2023-06-26 13:08:52.644
221.0, 47733.15611280872, 50733.45312278904, 54627.46228307037, -2265.371652289826, -5701.125347748441, -8761.481495080174, 19707.622493222058, 13606.378567979165, -0.07200000000000001, 0.984, 0.066, 192.0, 0.0, 0.0, 0.0, 0.0, 0.0, 0.0, 0.0, 0.0, 0.0, 1.687802932647364E9, 0.0, 2023-06-26 13:08:52.647
222.0, 47713.53128117696, 50712.4201312566, 55664.65028102998, -2287.991617678597, -5721.532490436136, -8785.107288969433, 19685.807190633677, 13585.502038657909, -0.07200000000000001, 0.984, 0.066, 192.0, 0.0, 0.0, 0.0, 0.0, 0.0, 0.0, 0.0, 0.0, 0.0, 1.687802932652358E9, 0.0, 2023-06-26 13:08:52.652
223.0, 47768.918903937214, 50760.6328440467, 54572.499343454765, -2219.505872667536, -5699.627780869935, -8732.290116821541, 19698.83825765112, 13617.353274506722, -0.08600000000000001, 0.976, 0.054, 192.0, 253.0, 80.0, 30.0, 128.0, 1.0, 176.0, 0.0, 0.0, 0.0, 1.687802932657385E9, 0.0, 2023-06-26 13:08:52.657
224.0, 47798.69142755168, 50799.569582887845, 53149.65434666328, -2158.060927159897, -5634.807721949544, -8655.511874617563, 19769.179197451973, 13697.171353956623, -0.08600000000000001, 0.976, 0.054, 192.0, 0.0, 0.0, 0.0, 0.0, 0.0, 0.0, 0.0, 0.0, 0.0, 1.687802932660436E9, 0.0, 2023-06-26 13:08:52.660
225.0, 47753.22797932959, 50755.49194282197, 54427.90590857338, -2253.212303306139, -5686.216734196751, -8743.10836113791, 19718.261923582784, 13616.16863205059, -0.08600000000000001, 0.976, 0.054, 192.0, 0.0, 0.0, 0.0, 0.0, 0.0, 0.0, 0.0, 0.0, 0.0, 1.6878029326634405E9, 0.0, 2023-06-26 13:08:52.663
226.0, 47719.990935324546, 50718.36569528171, 55469.63131065742, -2281.3307978309153, -5713.530565921136, -8785.107288969433, 19687.148295300998, 13578.662404854585, -0.08600000000000001, 0.976, 0.054, 192.0, 0.0, 0.0, 0.0, 0.0, 0.0, 0.0, 0.0, 0.0, 0.0, 1.687802932669453E9, 0.0, 2023-06-26 13:08:52.669
227.0, 47742.78971466896, 50735.66594549012, 55014.48273831401, -2250.3512800158596, -5717.553879923092, -8754.619509532395, 19688.08706856812, 13592.229913738956, -0.08600000000000001, 0.976, 0.054, 192.0, 0.0, 0.0, 0.0, 0.0, 0.0, 0.0, 0.0, 0.0, 0.0, 1.687802932672522E9, 0.0, 2023-06-26 13:08:52.672
228.0, 47796.27743915051, 50795.210992719054, 53109.84588978838, -2165.3922993412375, -5638.2051871067515, -8664.072592743945, 19763.971240993887, 13683.872066005715, -0.08600000000000001, 0.976, 0.054, 192.0, 0.0, 0.0, 0.0, 0.0, 0.0, 0.0, 0.0, 0.0, 0.0, 1.687802932676483E9, 0.0, 2023-06-26 13:08:52.676
229.0, 47746.18717982616, 50747.71353575153, 54258.83731351344, -2247.154980558751, -5686.864934785955, -8744.15889312731, 19724.98979866383, 13619.923725119083, -0.08600000000000001, 0.976, 0.054, 192.0, 0.0, 0.0, 0.0, 0.0, 0.0, 0.0, 0.0, 0.0, 0.0, 1.6878029326795008E9, 0.0, 2023-06-26 13:08:52.679
230.0, 47717.42048471219, 50710.564936466806, 55275.03702342952, -2292.7078357586665, -5721.979525325242, -8797.065472253022, 19685.360155744573, 13568.760582060884, -0.08600000000000001, 0.976, 0.054, 192.0, 0.0, 0.0, 0.0, 0.0, 0.0, 0.0, 0.0, 0.0, 0.0, 1.687802932682506E9, 0.0, 2023-06-26 13:08:52.682
231.0, 47726.80821738341, 50714.23062255748, 55378.72676595769, -2273.30652157146, -5738.430409244348, -8780.413422633817, 19674.02782130573, 13570.705183828495, -0.08600000000000001, 0.976, 0.054, 192.0, 0.0, 0.0, 0.0, 0.0, 0.0, 0.0, 0.0, 0.0, 0.0, 1.6878029326865335E9, 0.0, 2023-06-26 13:08:52.686
232.0, 47797.372674628816, 50786.985550759506, 53200.97395193267, -2169.147392409729, -5656.935948960298, -8675.203761482688, 19751.72248503238, 13667.152961153146, -0.08600000000000001, 0.976, 0.054, 192.0, 0.0, 0.0, 0.0, 0.0, 0.0, 0.0, 0.0, 0.0, 0.0, 1.6878029326915498E9, 0.0, 2023-06-26 13:08:52.691
233.0, 47761.05108988895, 50761.2810446359, 54037.71150561709, -2224.400904703248, -5678.706548059768, -8719.77313992657, 19738.870231970577, 13639.749722450939, -0.084, 0.97, 0.04, 192.0, 253.0, 96.0, 30.0, 80.0, 1.0, 64.0, 0.0, 0.0, 0.0, 1.6878029326955793E9, 0.0, 2023-06-26 13:08:52.695
234.0, 47728.864577873304, 50721.2714220609, 55069.400974440694, -2280.861411197354, -5716.033961300131, -8787.722443070703, 19699.28529254023, 13578.193018221024, -0.084, 0.97, 0.04, 192.0, 0.0, 0.0, 0.0, 0.0, 0.0, 0.0, 0.0, 0.0, 0.0, 1.687802932698589E9, 0.0, 2023-06-26 13:08:52.698
235.0, 47722.9637173371, 50711.07902658928, 55605.03817856767, -2278.0227396515297, -5742.4537232463035, -8785.889600025368, 19682.879112110033, 13569.274672183356, -0.084, 0.97, 0.04, 192.0, 0.0, 0.0, 0.0, 0.0, 0.0, 0.0, 0.0, 0.0, 0.0, 1.687802932702612E9, 0.0, 2023-06-26 13:08:52.702
236.0, 47798.60202057386, 50781.50937336795, 53401.55850667459, -2174.154183167718, -5671.531638089614, -8691.744052379616, 19741.463034327393, 13651.84201620126, -0.084, 0.97, 0.04, 192.0, 0.0, 0.0, 0.0, 0.0, 0.0, 0.0, 0.0, 0.0, 0.0, 1.687802932707648E9, 0.0, 2023-06-26 13:08:52.707
237.0, 47771.39994757175, 50768.81358251734, 53762.47212439444, -2199.5681166134023, -5669.229408410717, -8699.790680383525, 19758.807988024713, 13660.84976921675, -0.084, 0.97, 0.04, 192.0, 0.0, 0.0, 0.0, 0.0, 0.0, 0.0, 0.0, 0.0, 0.0, 1.687802932710655E9, 0.0, 2023-06-26 13:08:52.710
238.0, 47734.49721747604, 50725.808826185326, 54869.822248199256, -2268.0091581355523, -5720.303144491094, -8777.39593713235, 19706.46020251038, 13583.73625084594, -0.084, 0.97, 0.04, 192.0, 0.0, 0.0, 0.0, 0.0, 0.0, 0.0, 0.0, 0.0, 0.0, 1.6878029327156827E9, 0.0, 2023-06-26 13:08:52.715
239.0, 47713.46422594359, 50703.97117185249, 55698.043787246206, -2275.7875652059993, -5744.2195110582725, -8785.73313781418, 19694.211446548874, 13570.436962895032, -0.084, 0.97, 0.04, 192.0, 0.0, 0.0, 0.0, 0.0, 0.0, 0.0, 0.0, 0.0, 0.0, 1.6878029327186968E9, 0.0, 2023-06-26 13:08:52.718
240.0, 47786.889706479276, 50768.83593426179, 53742.7355340404, -2175.987026213053, -5688.921295275843, -8694.359206480885, 19740.09957791562, 13640.59908874024, -0.084, 0.97, 0.04, 192.0, 0.0, 0.0, 0.0, 0.0, 0.0, 0.0, 0.0, 0.0, 0.0, 1.6878029327237177E9, 0.0, 2023-06-26 13:08:52.723
242.0, 47729.19985404013, 50728.15575935313, 54722.658362705515, -2253.9052073842536, -5725.287583504628, -8774.937245242269, 19708.985949633832, 13589.726518359963, -0.084, 0.97, 0.04, 192.0, 0.0, 0.0, 0.0, 0.0, 0.0, 0.0, 0.0, 0.0, 0.0, 1.6878029327297497E9, 0.0, 2023-06-26 13:08:52.729
243.0, 47704.67999037266, 50702.02657008488, 55678.82128701464, -2272.568914004435, -5758.055240876108, -8784.816716291514, 19679.906330097478, 13569.766410561373, -0.068, 0.992, 0.036000000000000004, 192.0, 253.0, 224.0, 31.0, 0.0, 1.0, 32.0, 0.0, 0.0, 0.0, 1.6878029327337952E9, 0.0, 2023-06-26 13:08:52.733
244.0, 47773.76923248402, 50759.31409112384, 54175.17473401722, -2189.1298519527736, -5721.644249158412, -8714.185203812744, 19720.452394539403, 13625.466957743998, -0.068, 0.992, 0.036000000000000004, 192.0, 0.0, 0.0, 0.0, 0.0, 0.0, 0.0, 0.0, 0.0, 0.0, 1.6878029327377884E9, 0.0, 2023-06-26 13:08:52.737
245.0, 47787.33674136839, 50791.05356825037, 53266.665728886815, -2146.4603717875925, -5676.024338725131, -8667.447706156696, 19772.084924231163, 13686.889551507182, -0.068, 0.992, 0.036000000000000004, 192.0, 0.0, 0.0, 0.0, 0.0, 0.0, 0.0, 0.0, 0.0, 0.0, 1.6878029327448254E9, 0.0, 2023-06-26 13:08:52.744
246.0, 47740.06280184541, 50741.320936837314, 54577.57318944612, -2235.867349608821, -5739.793865656122, -8760.25214913513, 19716.831411937645, 13601.59529466573, -0.068, 0.992, 0.036000000000000004, 192.0, 0.0, 0.0, 0.0, 0.0, 0.0, 0.0, 0.0, 0.0, 0.0, 1.6878029327488587E9, 0.0, 2023-06-26 13:08:52.748
247.0, 47717.755760879016, 50716.46579700301, 55555.216140176795, -2251.602977705357, -5757.116467608985, -8789.756451816136, 19695.686661682925, 13573.700317585508, -0.068, 0.992, 0.036000000000000004, 192.0, 0.0, 0.0, 0.0, 0.0, 0.0, 0.0, 0.0, 0.0, 0.0, 1.687802932753873E9, 0.0, 2023-06-26 13:08:52.753
248.0, 47772.18225862769, 50759.76112601294, 54605.15524210397, -2186.1570699402178, -5736.999897599208, -8724.690523706737, 19714.395071792016, 13613.50877446041, -0.068, 0.992, 0.036000000000000004, 192.0, 0.0, 0.0, 0.0, 0.0, 0.0, 0.0, 0.0, 0.0, 0.0, 1.6878029327568808E9, 0.0, 2023-06-26 13:08:52.756
249.0, 47809.464968379136, 50806.58803064681, 53074.59718878236, -2119.481816230037, -5672.872742756933, -8649.365144892352, 19782.254967958328, 13702.245199947978, -0.068, 0.992, 0.036000000000000004, 192.0, 0.0, 0.0, 0.0, 0.0, 0.0, 0.0, 0.0, 0.0, 0.0, 1.6878029327598987E9, 0.0, 2023-06-26 13:08:52.759
250.0, 47758.05595613193, 50760.677547535604, 54367.578550288505, -2208.598221373346, -5732.507196963692, -8742.795436715536, 19731.851784211613, 13622.628286198174, -0.068, 0.992, 0.036000000000000004, 192.0, 0.0, 0.0, 0.0, 0.0, 0.0, 0.0, 0.0, 0.0, 0.0, 1.6878029327639527E9, 0.0, 2023-06-26 13:08:52.763
251.0, 47721.33203999187, 50719.595041226756, 55346.85317836442, -2246.506779969547, -5770.505162537714, -8783.833239535481, 19696.290158783217, 13582.171628734068, -0.068, 0.992, 0.036000000000000004, 192.0, 0.0, 0.0, 0.0, 0.0, 0.0, 0.0, 0.0, 0.0, 0.0, 1.687802932766934E9, 0.0, 2023-06-26 13:08:52.766
252.0, 47745.40486877023, 50735.42007630111, 55047.76448580796, -2215.281392965483, -5780.250523120228, -8758.39695434534, 19689.741097657814, 13591.179381749556, -0.068, 0.992, 0.036000000000000004, 192.0, 0.0, 0.0, 0.0, 0.0, 0.0, 0.0, 0.0, 0.0, 0.0, 1.6878029327699423E9, 0.0, 2023-06-26 13:08:52.769
253.0, 47799.183165929695, 50794.026350262924, 53053.78771469447, -2126.2320430555396, -5699.001932025187, -8664.47492414414, 19766.09465671714, 13682.41920261612, -0.068, 0.992, 0.036000000000000004, 192.0, 0.0, 0.0, 0.0, 0.0, 0.0, 0.0, 0.0, 0.0, 0.0, 1.6878029327739491E9, 0.0, 2023-06-26 13:08:52.773
254.0, 47743.72848793608, 50744.249015360954, 54184.45070796618, -2212.2639074640165, -5744.733601180745, -8743.510692538106, 19729.14722313252, 13622.270658286889, -0.038, 0.998, 0.04, 192.0, 254.0, 208.0, 31.0, 48.0, 1.0, 64.0, 0.0, 0.0, 0.0, 1.6878029327799792E9, 0.0, 2023-06-26 13:08:52.779
255.0, 47708.099807274324, 50701.400721240134, 55209.50170868656, -2269.350262802871, -5788.900648224431, -8807.637847380382, 19679.660460908468, 13559.931643001039, -0.038, 0.998, 0.04, 192.0, 0.0, 0.0, 0.0, 0.0, 0.0, 0.0, 0.0, 0.0, 0.0, 1.6878029327830143E9, 0.0, 2023-06-26 13:08:52.783
0.0, 47720.057990557914, 50710.94491612255, 55441.535167877104, -2248.227864292606, -5803.451633864836, -8788.705919826736, 19663.388390945005, 13561.988003490926, -0.038, 0.998, 0.04, 192.0, 0.0, 0.0, 0.0, 0.0, 0.0, 0.0, 0.0, 0.0, 0.0, 1.6878029327870352E9, 0.0, 2023-06-26 13:08:52.787
1.0, 47804.90521251025, 50796.52974564192, 53171.62611146285, -2133.18343558114, -5715.676333388846, -8672.230979470132, 19744.078188428663, 13662.280280861889, -0.038, 0.998, 0.04, 192.0, 0.0, 0.0, 0.0, 0.0, 0.0, 0.0, 0.0, 0.0, 0.0, 1.687802932791033E9, 0.0, 2023-06-26 13:08:52.791
2.0, 47768.89655219276, 50774.64738782017, 53899.197745227546, -2182.156107682718, -5727.768627139167, -8716.48743349164, 19763.63596482706, 13642.163710852112, -0.038, 0.998, 0.04, 192.0, 0.0, 0.0, 0.0, 0.0, 0.0, 0.0, 0.0, 0.0, 0.0, 1.687802932795066E9, 0.0, 2023-06-26 13:08:52.795
3.0, 47727.52347320598, 50724.065390117816, 54986.31954030032, -2250.2842247824938, -5776.316616096094, -8786.850725036946, 19719.133641616543, 13575.086125741736, -0.038, 0.998, 0.04, 192.0, 0.0, 0.0, 0.0, 0.0, 0.0, 0.0, 0.0, 0.0, 0.0, 1.6878029328010857E9, 0.0, 2023-06-26 13:08:52.801
4.0, 47712.16782476519, 50708.262706787915, 55643.32671681961, -2259.6496057092677, -5808.81605253411, -8781.978044745689, 19688.310586012674, 13572.090991984725, -0.038, 0.998, 0.04, 192.0, 0.0, 0.0, 0.0, 0.0, 0.0, 0.0, 0.0, 0.0, 0.0, 1.6878029328041184E9, 0.0, 2023-06-26 13:08:52.804
5.0, 47795.204555416654, 50786.02442574793, 53446.57492000758, -2148.159104366196, -5735.099999320508, -8673.90736030428, 19757.109255446107, 13658.994574426959, -0.038, 0.998, 0.04, 192.0, 0.0, 0.0, 0.0, 0.0, 0.0, 0.0, 0.0, 0.0, 0.0, 1.6878029328082192E9, 0.0, 2023-06-26 13:08:52.808
6.0, 47774.68565400668, 50782.58225710181, 53611.240221409826, -2166.465183075092, -5723.544147437114, -8679.450592929195, 19777.985784767367, 13674.506685078943, -0.038, 0.998, 0.04, 192.0, 0.0, 0.0, 0.0, 0.0, 0.0, 0.0, 0.0, 0.0, 0.0, 1.6878029328112109E9, 0.0, 2023-06-26 13:08:52.811
7.0, 47727.54582495044, 50730.1227128652, 54811.21597423744, -2252.6758614392115, -5784.81027898911, -8777.328881898986, 19702.883923397534, 13579.3553089327, -0.038, 0.998, 0.04, 192.0, 0.0, 0.0, 0.0, 0.0, 0.0, 0.0, 0.0, 0.0, 0.0, 1.6878029328152177E9, 0.0, 2023-06-26 13:08:52.815
8.0, 47701.50604266, 50704.686427675064, 55712.77358684225, -2267.49506801308, -5812.347628158049, -8786.247227936654, 19686.9471296009, 13562.882073269138, -0.028, 0.994, 0.036000000000000004, 192.0, 255.0, 32.0, 31.0, 16.0, 1.0, 32.0, 0.0, 0.0, 0.0, 1.6878029328182125E9, 0.0, 2023-06-26 13:08:52.818
9.0, 47782.21819188812, 50774.736794797995, 53839.65269799861, -2167.672177275679, -5751.103848350507, -8686.111412776878, 19745.463996584895, 13635.994629382449, -0.028, 0.994, 0.036000000000000004, 192.0, 0.0, 0.0, 0.0, 0.0, 0.0, 0.0, 0.0, 0.0, 0.0, 1.68780293282221E9, 0.0, 2023-06-26 13:08:52.822
10.0, 47783.84986923336, 50790.83005080582, 53312.84443293148, -2154.4622963025927, -5706.869746073455, -8663.804371810482, 19797.051822787744, 13683.268568905421, -0.028, 0.994, 0.036000000000000004, 192.0, 0.0, 0.0, 0.0, 0.0, 0.0, 0.0, 0.0, 0.0, 0.0, 1.6878029328262253E9, 0.0, 2023-06-26 13:08:52.826
11.0, 47735.25717678752, 50737.76700946892, 54591.364215775044, -2245.4338962356924, -5768.761726470199, -8758.665175278804, 19738.780824992755, 13594.286274228845, -0.028, 0.994, 0.036000000000000004, 192.0, 0.0, 0.0, 0.0, 0.0, 0.0, 0.0, 0.0, 0.0, 0.0, 1.6878029328302455E9, 0.0, 2023-06-26 13:08:52.830
12.0, 47702.3107054604, 50703.83706138576, 55637.04587662767, -2277.9333326737087, -5803.00459897573, -8786.671911081305, 19707.26486531077, 13564.804323292296, -0.028, 0.994, 0.036000000000000004, 192.0, 0.0, 0.0, 0.0, 0.0, 0.0, 0.0, 0.0, 0.0, 0.0, 1.6878029328352833E9, 0.0, 2023-06-26 13:08:52.835
13.0, 47762.66041548973, 50752.40740208714, 54280.67496784627, -2201.736235825567, -5772.941502683342, -8716.710950936193, 19734.71280750189, 13609.105480802713, -0.028, 0.994, 0.036000000000000004, 192.0, 0.0, 0.0, 0.0, 0.0, 0.0, 0.0, 0.0, 0.0, 0.0, 1.6878029328382888E9, 0.0, 2023-06-26 13:08:52.838
14.0, 47781.79350874347, 50785.644446092185, 53087.69531103317, -2156.8539329593104, -5718.805577612588, -8662.95500552118, 19788.69227036146, 13678.015908958425, -0.028, 0.994, 0.036000000000000004, 192.0, 0.0, 0.0, 0.0, 0.0, 0.0, 0.0, 0.0, 0.0, 0.0, 1.6878029328413045E9, 0.0, 2023-06-26 13:08:52.841
15.0, 47727.65758367271, 50729.787436698374, 54411.45502465428, -2253.3240620284155, -5783.558581299613, -8761.861474735913, 19731.740025489336, 13592.587541650242, -0.028, 0.994, 0.036000000000000004, 192.0, 0.0, 0.0, 0.0, 0.0, 0.0, 0.0, 0.0, 0.0, 0.0, 1.687802932845327E9, 0.0, 2023-06-26 13:08:52.845
16.0, 47695.62753386826, 50692.728244391474, 55526.31533459608, -2285.957608933164, -5809.1960321898505, -8788.683568082282, 19703.532123986737, 13562.390334891123, -0.028, 0.994, 0.036000000000000004, 192.0, 0.0, 0.0, 0.0, 0.0, 0.0, 0.0, 0.0, 0.0, 0.0, 1.687802932850354E9, 0.0, 2023-06-26 13:08:52.850
17.0, 47754.41262178572, 50745.52306479491, 54771.116944684625, -2220.9363843126757, -5792.208706403817, -8735.44171278974, 19720.318284072673, 13596.253227740912, -0.028, 0.994, 0.036000000000000004, 192.0, 0.0, 0.0, 0.0, 0.0, 0.0, 0.0, 0.0, 0.0, 0.0, 1.6878029328543594E9, 0.0, 2023-06-26 13:08:52.854
18.0, 47807.31920091143, 50807.77267310294, 52972.96380674408, -2133.585766981336, -5703.584039638525, -8648.381668136319, 19801.81274435672, 13688.677691063607, -0.022, 0.992, 0.044, 192.0, 255.0, 80.0, 31.0, 0.0, 1.0, 96.0, 0.0, 0.0, 0.0, 1.6878029328583777E9, 0.0, 2023-06-26 13:08:52.858
19.0, 47759.95585441063, 50765.12554468221, 54160.82491407692, -2217.337753455371, -5742.56548196858, -8725.606945229405, 19756.90808974601, 13621.465995486498, -0.022, 0.992, 0.044, 192.0, 0.0, 0.0, 0.0, 0.0, 0.0, 0.0, 0.0, 0.0, 0.0, 1.6878029328624127E9, 0.0, 2023-06-26 13:08:52.862
20.0, 47719.834473113355, 50721.00320112744, 55293.61132307188, -2266.6904052126893, -5781.748089998733, -8777.865323765913, 19714.640940981026, 13571.532198373343, -0.022, 0.992, 0.044, 192.0, 0.0, 0.0, 0.0, 0.0, 0.0, 0.0, 0.0, 0.0, 0.0, 1.687802932866428E9, 0.0, 2023-06-26 13:08:52.866
21.0, 47737.045316343945, 50729.94389890956, 55192.35792068934, -2243.5339979569912, -5797.349607628537, -8755.580634543972, 19708.69537695591, 13579.288253699335, -0.022, 0.992, 0.044, 192.0, 0.0, 0.0, 0.0, 0.0, 0.0, 0.0, 0.0, 0.0, 0.0, 1.6878029328714557E9, 0.0, 2023-06-26 13:08:52.871
22.0, 47797.66324730674, 50793.04287350689, 53006.044388537935, -2148.8073049553996, -5717.442121200815, -8660.161037464266, 19782.9702237809, 13674.909016479138, -0.022, 0.992, 0.044, 192.0, 0.0, 0.0, 0.0, 0.0, 0.0, 0.0, 0.0, 0.0, 0.0, 1.6878029328756974E9, 0.0, 2023-06-26 13:08:52.875
23.0, 47757.228941587084, 50764.231474904, 53935.85460613425, -2212.062741763919, -5742.23020580175, -8710.877145633358, 19764.641793327548, 13639.950888151037, -0.022, 0.992, 0.044, 192.0, 0.0, 0.0, 0.0, 0.0, 0.0, 0.0, 0.0, 0.0, 0.0, 1.6878029328784797E9, 0.0, 2023-06-26 13:08:52.878
24.0, 47719.432141713165, 50722.23254707248, 55085.15895428169, -2263.2929400554826, -5783.826802233077, -8776.658329565327, 19716.540839259727, 13579.44471591052, -0.022, 0.992, 0.044, 192.0, 0.0, 0.0, 0.0, 0.0, 0.0, 0.0, 0.0, 0.0, 0.0, 1.6878029328825002E9, 0.0, 2023-06-26 13:08:52.882
25.0, 47716.19113876714, 50713.98475336847, 55517.77696821415, -2253.9275591287087, -5801.931715241875, -8767.82939050548, 19702.347481530607, 13574.057945496792, -0.022, 0.992, 0.044, 192.0, 0.0, 0.0, 0.0, 0.0, 0.0, 0.0, 0.0, 0.0, 0.0, 1.6878029328875284E9, 0.0, 2023-06-26 13:08:52.887
26.0, 47790.75655827005, 50788.59487636029, 53209.57937354796, -2146.9744619100647, -5721.867766602965, -8661.345679920398, 19775.86236904411, 13668.337603609278, -0.022, 0.992, 0.044, 192.0, 0.0, 0.0, 0.0, 0.0, 0.0, 0.0, 0.0, 0.0, 0.0, 1.6878029328935568E9, 0.0, 2023-06-26 13:08:52.893
27.0, 47759.79939219945, 50773.52980059741, 53657.038945798755, -2189.8227560308883, -5727.902737605898, -8690.134726778833, 19779.349241179138, 13659.151036638146, -0.022, 0.992, 0.044, 192.0, 0.0, 0.0, 0.0, 0.0, 0.0, 0.0, 0.0, 0.0, 0.0, 1.6878029328965633E9, 0.0, 2023-06-26 13:08:52.896
28.0, 47728.43989472865, 50734.45895128953, 54856.50060850389, -2252.184123061195, -5772.941502683342, -8759.760410757115, 19731.203583622406, 13590.933512560548, -0.018000000000000002, 0.994, 0.048, 192.0, 255.0, 112.0, 31.0, 16.0, 1.0, 128.0, 0.0, 0.0, 0.0, 1.68780293290058E9, 0.0, 2023-06-26 13:08:52.900
29.0, 47713.79950211042, 50713.493014990454, 55683.24693241679, -2264.1646580892393, -5807.00556123323, -8770.958634729222, 19698.592388462115, 13574.057945496792, -0.018000000000000002, 0.994, 0.048, 192.0, 0.0, 0.0, 0.0, 0.0, 0.0, 0.0, 0.0, 0.0, 0.0, 1.6878029329036064E9, 0.0, 2023-06-26 13:08:52.903
30.0, 47794.019912960524, 50785.152707714165, 53527.37647621352, -2158.2620928599945, -5730.0708568180635, -8672.298034703497, 19767.39105789555, 13657.854635459738, -0.018000000000000002, 0.994, 0.048, 192.0, 0.0, 0.0, 0.0, 0.0, 0.0, 0.0, 0.0, 0.0, 0.0, 1.6878029329065983E9, 0.0, 2023-06-26 13:08:52.906
31.0, 47776.58555228538, 50786.404405403664, 53388.46038442378, -2166.442831330637, -5709.261382730172, -8671.515723647562, 19794.88370357558, 13676.875969991204, -0.018000000000000002, 0.994, 0.048, 192.0, 0.0, 0.0, 0.0, 0.0, 0.0, 0.0, 0.0, 0.0, 0.0, 1.6878029329106295E9, 0.0, 2023-06-26 13:08:52.910
32.0, 47728.998688340034, 50732.76021871093, 54661.61574859807, -2260.1413440872843, -5766.794772958133, -8770.086916695467, 19728.208449865397, 13588.385413692644, -0.018000000000000002, 0.994, 0.048, 192.0, 0.0, 0.0, 0.0, 0.0, 0.0, 0.0, 0.0, 0.0, 0.0, 1.6878029329146535E9, 0.0, 2023-06-26 13:08:52.914
33.0, 47695.71694084608, 50698.807918883314, 55721.71428462437, -2282.0684053979403, -5803.33987514256, -8786.26957968111, 19707.37662403305, 13568.022974493859, -0.018000000000000002, 0.994, 0.048, 192.0, 0.0, 0.0, 0.0, 0.0, 0.0, 0.0, 0.0, 0.0, 0.0, 1.6878029329176507E9, 0.0, 2023-06-26 13:08:52.917
34.0, 47768.27070334801, 50761.34809986927, 53978.904065955176, -2192.572020598891, -5749.136894838441, -8699.72362515016, 19753.10829318861, 13632.194832825046, -0.018000000000000002, 0.994, 0.048, 192.0, 0.0, 0.0, 0.0, 0.0, 0.0, 0.0, 0.0, 0.0, 0.0, 1.6878029329216878E9, 0.0, 2023-06-26 13:08:52.921
35.0, 47773.90334295075, 50783.00694024646, 53157.34334675591, -2169.728537765567, -5703.561687894069, -8663.558502621472, 19799.510514677826, 13683.84971426126, -0.018000000000000002, 0.994, 0.048, 192.0, 0.0, 0.0, 0.0, 0.0, 0.0, 0.0, 0.0, 0.0, 0.0, 1.687802932925699E9, 0.0, 2023-06-26 13:08:52.925
36.0, 47732.55261570843, 50738.21404435802, 54475.313958563085, -2252.988785861586, -5754.322499552071, -8749.500960052128, 19743.25117388382, 13599.538934175842, -0.018000000000000002, 0.994, 0.048, 192.0, 0.0, 0.0, 0.0, 0.0, 0.0, 0.0, 0.0, 0.0, 0.0, 1.6878029329297225E9, 0.0, 2023-06-26 13:08:52.929
37.0, 47696.72276934657, 50700.73016890648, 55653.00502216876, -2284.951780432675, -5787.559543557113, -8779.273483666597, 19711.958731646388, 13574.460276896987, -0.018000000000000002, 0.994, 0.048, 192.0, 0.0, 0.0, 0.0, 0.0, 0.0, 0.0, 0.0, 0.0, 0.0, 1.687802932933756E9, 0.0, 2023-06-26 13:08:52.933
38.0, 47751.95392989564, 50744.271367105415, 54485.819278457086, -2218.5000441670472, -5758.122296109474, -8717.58266896995, 19732.656447012003, 13613.128794804668, -0.018000000000000002, 0.994, 0.048, 192.0, 0.0, 0.0, 0.0, 0.0, 0.0, 0.0, 0.0, 0.0, 0.0, 1.687802932939795E9, 0.0, 2023-06-26 13:08:52.939
39.0, 47782.17348839921, 50788.08078623781, 53007.60901064981, -2158.8208864713774, -5689.770661565145, -8648.024040225035, 19796.001290798344, 13690.063499219836, -0.038, 0.992, 0.058, 192.0, 254.0, 208.0, 31.0, 0.0, 1.0, 208.0, 0.0, 0.0, 0.0, 1.6878029329427857E9, 0.0, 2023-06-26 13:08:52.942
40.0, 47736.39711575474, 50746.41713457312, 54276.94222652224, -2243.310480512438, -5729.959098095786, -8735.978154656668, 19758.33860139115, 13617.93441986256, -0.038, 0.992, 0.058, 192.0, 0.0, 0.0, 0.0, 0.0, 0.0, 0.0, 0.0, 0.0, 0.0, 1.687802932946804E9, 0.0, 2023-06-26 13:08:52.946
41.0, 47688.810251809395, 50696.4162822266, 55508.83627043203, -2297.5134608165577, -5778.7306044972665, -8794.495021640661, 19707.04134786622, 13566.056020981792, -0.038, 0.992, 0.058, 192.0, 0.0, 0.0, 0.0, 0.0, 0.0, 0.0, 0.0, 0.0, 0.0, 1.68780293294982E9, 0.0, 2023-06-26 13:08:52.949
42.0, 47723.92484234868, 50723.12661685069, 54984.21847632152, -2258.1967423196725, -5771.622749760479, -8754.977137443679, 19707.980121133343, 13591.537009660842, -0.038, 0.992, 0.058, 192.0, 0.0, 0.0, 0.0, 0.0, 0.0, 0.0, 0.0, 0.0, 0.0, 1.6878029329538496E9, 0.0, 2023-06-26 13:08:52.953
43.0, 47795.65159030576, 50805.26927772394, 52970.39335613172, -2154.082316646852, -5660.35576586196, -8642.391400622297, 19804.33849148017, 13705.083871493802, -0.038, 0.992, 0.058, 192.0, 0.0, 0.0, 0.0, 0.0, 0.0, 0.0, 0.0, 0.0, 0.0, 1.687802932960889E9, 0.0, 2023-06-26 13:08:52.960
44.0, 47748.95879613862, 50768.97004472853, 54041.466598685576, -2217.1142360108183, -5698.241972713706, -8713.805224157004, 19770.699116074935, 13648.623364999696, -0.038, 0.992, 0.058, 192.0, 0.0, 0.0, 0.0, 0.0, 0.0, 0.0, 0.0, 0.0, 0.0, 1.6878029329639032E9, 0.0, 2023-06-26 13:08:52.963
45.0, 47703.92003106118, 50717.65043945914, 55276.8475147304, -2282.7166059871442, -5746.789961670633, -8781.463954623217, 19716.652597982003, 13586.150239247114, -0.038, 0.992, 0.058, 192.0, 0.0, 0.0, 0.0, 0.0, 0.0, 0.0, 0.0, 0.0, 0.0, 1.6878029329669073E9, 0.0, 2023-06-26 13:08:52.966
46.0, 47714.40299921072, 50718.41039877062, 55368.80259141953, -2269.1714488472285, -5763.777287456666, -8763.694317781248, 19701.833391408134, 13582.663367112085, -0.038, 0.992, 0.058, 192.0, 0.0, 0.0, 0.0, 0.0, 0.0, 0.0, 0.0, 0.0, 0.0, 1.6878029329709377E9, 0.0, 2023-06-26 13:08:52.970
47.0, 47783.40283434425, 50785.33152166981, 53090.31046513444, -2161.7936684839333, -5677.9465887482875, -8657.098848473888, 19777.20347371143, 13677.792391513873, -0.038, 0.992, 0.058, 192.0, 0.0, 0.0, 0.0, 0.0, 0.0, 0.0, 0.0, 0.0, 0.0, 1.6878029329739509E9, 0.0, 2023-06-26 13:08:52.973
48.0, 47750.679880461685, 50763.91855048163, 53774.16208674456, -2216.4213319327037, -5690.530620876625, -8700.572991439461, 19769.78269455227, 13648.55630976633, -0.038, 0.992, 0.058, 192.0, 0.0, 0.0, 0.0, 0.0, 0.0, 0.0, 0.0, 0.0, 0.0, 1.687802932976971E9, 0.0, 2023-06-26 13:08:52.976
49.0, 47712.27958348746, 50720.31029704932, 55046.0434014849, -2281.017873408541, -5737.223415043762, -8775.898370253846, 19714.395071792016, 13585.345576446722, -0.052000000000000005, 0.98, 0.068, 192.0, 254.0, 96.0, 30.0, 160.0, 2.0, 32.0, 0.0, 0.0, 0.0, 1.687802932981969E9, 0.0, 2023-06-26 13:08:52.981
50.0, 47708.099807274324, 50712.442483001054, 55661.67749901742, -2278.6262367518234, -5759.1281246099625, -8775.607797575927, 19693.742059915312, 13578.081259498747, -0.052000000000000005, 0.98, 0.068, 192.0, 0.0, 0.0, 0.0, 0.0, 0.0, 0.0, 0.0, 0.0, 0.0, 1.6878029329860067E9, 0.0, 2023-06-26 13:08:52.986
51.0, 47788.32021812442, 50787.27612343742, 53337.09607566549, -2167.7168807645894, -5680.338225405005, -8668.878217801835, 19766.586395095157, 13668.605824542741, -0.052000000000000005, 0.98, 0.068, 192.0, 0.0, 0.0, 0.0, 0.0, 0.0, 0.0, 0.0, 0.0, 0.0, 1.6878029329900317E9, 0.0, 2023-06-26 13:08:52.990
52.0, 47762.23573234508, 50776.681396565604, 53513.25017371776, -2195.2318781890726, -5672.246893912184, -8682.557485408484, 19781.606767369125, 13671.84682748876, -0.052000000000000005, 0.98, 0.068, 192.0, 0.0, 0.0, 0.0, 0.0, 0.0, 0.0, 0.0, 0.0, 0.0, 1.687802932994042E9, 0.0, 2023-06-26 13:08:52.994
53.0, 47721.82377836988, 50733.207253600034, 54820.536651675306, -2270.959588403653, -5719.5655369240685, -8767.896445738847, 19726.66617949798, 13588.318358459277, -0.052000000000000005, 0.98, 0.068, 192.0, 0.0, 0.0, 0.0, 0.0, 0.0, 0.0, 0.0, 0.0, 0.0, 1.6878029329980423E9, 0.0, 2023-06-26 13:08:52.998
54.0, 47705.19408049513, 50715.50467199143, 55792.837535481165, -2283.856544954365, -5749.226301816261, -8779.228780177687, 19700.000548362797, 13570.124038472659, -0.052000000000000005, 0.98, 0.068, 192.0, 0.0, 0.0, 0.0, 0.0, 0.0, 0.0, 0.0, 0.0, 0.0, 1.6878029330020726E9, 0.0, 2023-06-26 13:08:53.002
55.0, 47773.34454933937, 50770.3335011403, 53760.81809530474, -2195.410692144715, -5697.571420380047, -8691.632293657338, 19741.932420960955, 13636.262850315912, -0.052000000000000005, 0.98, 0.068, 192.0, 0.0, 0.0, 0.0, 0.0, 0.0, 0.0, 0.0, 0.0, 0.0, 1.6878029330050824E9, 0.0, 2023-06-26 13:08:53.005
56.0, 47773.12103189481, 50785.487983881, 53309.22345032972, -2187.922857752187, -5664.200265908274, -8673.460325415173, 19777.62815685608, 13674.75255426795, -0.052000000000000005, 0.98, 0.068, 192.0, 0.0, 0.0, 0.0, 0.0, 0.0, 0.0, 0.0, 0.0, 0.0, 1.6878029330091174E9, 0.0, 2023-06-26 13:08:53.009
57.0, 47735.52539772099, 50746.37243108421, 54613.671256741436, -2273.217114593639, -5715.363408966471, -8775.339576642464, 19729.169574876974, 13587.513695658887, -0.052000000000000005, 0.98, 0.068, 192.0, 0.0, 0.0, 0.0, 0.0, 0.0, 0.0, 0.0, 0.0, 0.0, 1.6878029330132225E9, 0.0, 2023-06-26 13:08:53.013
58.0, 47706.848109584826, 50714.85647140223, 55803.946352475454, -2296.1276526603287, -5750.7909239281325, -8784.704957569236, 19703.532123986737, 13567.531236115843, -0.052000000000000005, 0.98, 0.068, 192.0, 0.0, 0.0, 0.0, 0.0, 0.0, 0.0, 0.0, 0.0, 0.0, 1.6878029330181992E9, 0.0, 2023-06-26 13:08:53.018
59.0, 47778.99954068656, 50776.94961749907, 54237.133769647335, -2207.9053172952317, -5696.543240135103, -8696.393215226319, 19742.893545972533, 13629.959658379516, -0.07200000000000001, 0.974, 0.07200000000000001, 192.0, 253.0, 192.0, 30.0, 112.0, 2.0, 64.0, 0.0, 0.0, 0.0, 1.6878029330221913E9, 0.0, 2023-06-26 13:08:53.022
60.0, 47796.65741880625, 50808.13030101422, 53084.07432843141, -2164.7440987520336, -5643.502550542659, -8649.1416274478, 19802.773869368302, 13697.618388845729, -0.07200000000000001, 0.974, 0.07200000000000001, 192.0, 0.0, 0.0, 0.0, 0.0, 0.0, 0.0, 0.0, 0.0, 0.0, 1.6878029330261977E9, 0.0, 2023-06-26 13:08:53.026
61.0, 47733.625499442285, 50743.73492523848, 54391.00317847767, -2269.2385040805943, -5707.786167596122, -8750.573843785984, 19745.508700073802, 13607.496155201932, -0.07200000000000001, 0.974, 0.07200000000000001, 192.0, 0.0, 0.0, 0.0, 0.0, 0.0, 0.0, 0.0, 0.0, 0.0, 1.6878029330292368E9, 0.0, 2023-06-26 13:08:53.029
62.0, 47692.76651057798, 50699.523174705886, 55698.62493260204, -2313.673772057745, -5749.427467516359, -8795.702015841249, 19705.18615307643, 13565.899558770605, -0.07200000000000001, 0.974, 0.07200000000000001, 192.0, 0.0, 0.0, 0.0, 0.0, 0.0, 0.0, 0.0, 0.0, 0.0, 1.6878029330332866E9, 0.0, 2023-06-26 13:08:53.033
63.0, 47745.40486877023, 50740.78449497039, 54742.41730480401, -2251.2900532829826, -5732.350734752505, -8737.431018046263, 19716.876115426556, 13597.996663808426, -0.07200000000000001, 0.974, 0.07200000000000001, 192.0, 0.0, 0.0, 0.0, 0.0, 0.0, 0.0, 0.0, 0.0, 0.0, 1.6878029330372555E9, 0.0, 2023-06-26 13:08:53.037
64.0, 47799.22786941861, 50801.89416431119, 53013.241650252545, -2163.894732462732, -5643.055515653553, -8647.867578013847, 19804.003215313343, 13699.071252235324, -0.07200000000000001, 0.974, 0.07200000000000001, 192.0, 0.0, 0.0, 0.0, 0.0, 0.0, 0.0, 0.0, 0.0, 0.0, 1.6878029330432773E9, 0.0, 2023-06-26 13:08:53.043
65.0, 47746.65656645973, 50753.480285820995, 54180.27093175303, -2253.63698645079, -5695.179783723329, -8736.447541290228, 19755.38817112305, 13624.528184476876, -0.07200000000000001, 0.974, 0.07200000000000001, 192.0, 0.0, 0.0, 0.0, 0.0, 0.0, 0.0, 0.0, 0.0, 0.0, 1.6878029330472932E9, 0.0, 2023-06-26 13:08:53.047
66.0, 47709.30680147491, 50714.16356732411, 55479.30961600657, -2294.0042369370744, -5728.327420750549, -8778.558227844027, 19721.257057339797, 13584.183285735046, -0.07200000000000001, 0.974, 0.07200000000000001, 192.0, 0.0, 0.0, 0.0, 0.0, 0.0, 0.0, 0.0, 0.0, 0.0, 1.6878029330503273E9, 0.0, 2023-06-26 13:08:53.050
67.0, 47733.44668548664, 50732.11201812173, 55166.13932444326, -2259.6496057092677, -5734.205929542295, -8746.751695484125, 19718.127813116054, 13597.013187052393, -0.07200000000000001, 0.974, 0.07200000000000001, 192.0, 0.0, 0.0, 0.0, 0.0, 0.0, 0.0, 0.0, 0.0, 0.0, 1.6878029330553284E9, 0.0, 2023-06-26 13:08:53.055
68.0, 47797.864413006835, 50802.40825443366, 53011.47586244057, -2162.1289446507626, -5648.822265723022, -8648.873406514336, 19797.58826465467, 13696.165525456134, -0.07200000000000001, 0.974, 0.07200000000000001, 192.0, 0.0, 0.0, 0.0, 0.0, 0.0, 0.0, 0.0, 0.0, 0.0, 1.6878029330593467E9, 0.0, 2023-06-26 13:08:53.059
69.0, 47749.38347928327, 50764.678509793106, 53936.6816206791, -2233.609823418835, -5682.55104810608, -8720.443692260229, 19767.324002662182, 13643.214242841512, -0.074, 0.978, 0.066, 192.0, 253.0, 176.0, 30.0, 144.0, 2.0, 16.0, 0.0, 0.0, 0.0, 1.687802933062358E9, 0.0, 2023-06-26 13:08:53.062
70.0, 47697.52743214696, 50709.4697009885, 55290.37032012586, -2304.26368764206, -5734.809426642589, -8792.528068128595, 19710.081185112143, 13569.989928005925, -0.074, 0.978, 0.066, 192.0, 0.0, 0.0, 0.0, 0.0, 0.0, 0.0, 0.0, 0.0, 0.0, 1.6878029330653832E9, 0.0, 2023-06-26 13:08:53.065
71.0, 47704.16590025019, 50710.766102166905, 55577.70199509883, -2287.7457484895886, -5754.836589674544, -8775.78661153157, 19691.730402914334, 13570.63812859513, -0.074, 0.978, 0.066, 192.0, 0.0, 0.0, 0.0, 0.0, 0.0, 0.0, 0.0, 0.0, 0.0, 1.6878029330694108E9, 0.0, 2023-06-26 13:08:53.069
72.0, 47784.20749714464, 50788.796042060385, 53226.65610631181, -2171.00258719952, -5663.127382174419, -8658.931691519225, 19773.336621920662, 13678.865275247726, -0.074, 0.978, 0.066, 192.0, 0.0, 0.0, 0.0, 0.0, 0.0, 0.0, 0.0, 0.0, 0.0, 1.687802933074428E9, 0.0, 2023-06-26 13:08:53.074
73.0, 47752.33390955137, 50769.215913917535, 53718.57329828421, -2224.378552958793, -5675.711414302757, -8704.86452637488, 19767.413409640005, 13657.161731381624, -0.074, 0.978, 0.066, 192.0, 0.0, 0.0, 0.0, 0.0, 0.0, 0.0, 0.0, 0.0, 0.0, 1.6878029330784447E9, 0.0, 2023-06-26 13:08:53.078
74.0, 47710.37968520876, 50724.78064594039, 55043.89763401719, -2290.0926816573956, -5723.030057314641, -8773.149105685843, 19715.646769481515, 13584.049175268314, -0.074, 0.978, 0.066, 192.0, 0.0, 0.0, 0.0, 0.0, 0.0, 0.0, 0.0, 0.0, 0.0, 1.687802933082448E9, 0.0, 2023-06-26 13:08:53.082
75.0, 47701.260173471, 50715.32585803579, 55788.97068369039, -2292.2608008695606, -5751.193255328329, -8776.524219098595, 19693.33972851512, 13573.387393163133, -0.074, 0.978, 0.066, 192.0, 0.0, 0.0, 0.0, 0.0, 0.0, 0.0, 0.0, 0.0, 0.0, 1.68780293308648E9, 0.0, 2023-06-26 13:08:53.086
76.0, 47776.8761249633, 50783.85630653576, 53501.761377067734, -2184.9500757396313, -5687.423728397337, -8676.298996960997, 19749.509662331304, 13652.601975512742, -0.074, 0.978, 0.066, 192.0, 0.0, 0.0, 0.0, 0.0, 0.0, 0.0, 0.0, 0.0, 0.0, 1.6878029330905163E9, 0.0, 2023-06-26 13:08:53.090
77.0, 47762.92863642319, 50781.26350417895, 53445.569091507095, -2201.5127183810137, -5669.832905511011, -8682.736299364125, 19777.695212089446, 13669.164618154124, -0.074, 0.978, 0.066, 192.0, 0.0, 0.0, 0.0, 0.0, 0.0, 0.0, 0.0, 0.0, 0.0, 1.6878029330945346E9, 0.0, 2023-06-26 13:08:53.094
78.0, 47715.364124222295, 50726.83700643027, 54803.75049158937, -2287.0304926670187, -5730.808464385088, -8774.333748141975, 19716.674949726457, 13577.433058909543, -0.074, 0.978, 0.066, 192.0, 0.0, 0.0, 0.0, 0.0, 0.0, 0.0, 0.0, 0.0, 0.0, 1.6878029330995524E9, 0.0, 2023-06-26 13:08:53.099
79.0, 47693.72763558956, 50701.55718345132, 55879.91993187904, -2309.404588866781, -5767.957063669809, -8796.529030386095, 19685.09193481111, 13551.281517896834, -0.074, 0.978, 0.066, 192.0, 0.0, 0.0, 0.0, 0.0, 0.0, 0.0, 0.0, 0.0, 0.0, 1.6878029331025715E9, 0.0, 2023-06-26 13:08:53.102
80.0, 47767.175467869696, 50766.93603598309, 53938.64857419117, -2215.415503432215, -5716.615106655969, -8706.697369420215, 19737.28325811425, 13621.823623397784, -0.068, 0.976, 0.064, 192.0, 253.0, 224.0, 30.0, 128.0, 2.0, 0.0, 0.0, 0.0, 0.0, 1.6878029331065924E9, 0.0, 2023-06-26 13:08:53.106
81.0, 47771.98109292759, 50787.07495773733, 53273.997101068155, -2191.5214886094914, -5673.744460790689, -8676.924845805746, 19788.28993896126, 13671.243330388466, -0.068, 0.976, 0.064, 192.0, 0.0, 0.0, 0.0, 0.0, 0.0, 0.0, 0.0, 0.0, 0.0, 1.6878029331166513E9, 0.0, 2023-06-26 13:08:53.116
82.0, 47724.12600804878, 50736.82823620179, 54616.42052130944, -2280.1908588636948, -5733.915356864376, -8771.11509694041, 19728.05198765421, 13581.098745000214, -0.068, 0.976, 0.064, 192.0, 0.0, 0.0, 0.0, 0.0, 0.0, 0.0, 0.0, 0.0, 0.0, 1.687802933119657E9, 0.0, 2023-06-26 13:08:53.119
83.0, 47694.73346409005, 50704.820538141794, 55863.67021366003, -2304.621315553345, -5769.007595659208, -8791.902219283846, 19700.8499146521, 13557.405895877588, -0.068, 0.976, 0.064, 192.0, 0.0, 0.0, 0.0, 0.0, 0.0, 0.0, 0.0, 0.0, 0.0, 1.6878029331236832E9, 0.0, 2023-06-26 13:08:53.123
84.0, 47757.0724793759, 50754.86609397723, 54434.0973417875, -2225.339677970371, -5735.301165020605, -8720.242526560132, 19727.314380087184, 13607.160879035102, -0.068, 0.976, 0.064, 192.0, 0.0, 0.0, 0.0, 0.0, 0.0, 0.0, 0.0, 0.0, 0.0, 1.687802933126676E9, 0.0, 2023-06-26 13:08:53.126
85.0, 47778.59720928636, 50787.27612343742, 53117.15491022527, -2177.57400006938, -5681.165239949852, -8664.81020031097, 19787.86525581661, 13674.819609501315, -0.068, 0.976, 0.064, 192.0, 0.0, 0.0, 0.0, 0.0, 0.0, 0.0, 0.0, 0.0, 0.0, 1.6878029331297152E9, 0.0, 2023-06-26 13:08:53.129
86.0, 47736.128894821275, 50744.80780897234, 54390.086756955, -2264.499934256069, -5730.495539962714, -8755.424172332785, 19740.36779884908, 13597.147297519125, -0.068, 0.976, 0.064, 192.0, 0.0, 0.0, 0.0, 0.0, 0.0, 0.0, 0.0, 0.0, 0.0, 1.6878029331327133E9, 0.0, 2023-06-26 13:08:53.132
87.0, 47696.02986526846, 50702.65241892963, 55705.48691814982, -2304.7107225311665, -5777.009520174208, -8795.50085014115, 19704.917932142966, 13561.07158196826, -0.068, 0.976, 0.064, 192.0, 0.0, 0.0, 0.0, 0.0, 0.0, 0.0, 0.0, 0.0, 0.0, 1.687802933136749E9, 0.0, 2023-06-26 13:08:53.136
88.0, 47738.16290356671, 50735.93416642358, 54918.57140285628, -2247.914939870231, -5766.012461902197, -8752.496093809139, 19713.210429335886, 13585.814963080284, -0.068, 0.976, 0.064, 192.0, 0.0, 0.0, 0.0, 0.0, 0.0, 0.0, 0.0, 0.0, 0.0, 1.6878029331397524E9, 0.0, 2023-06-26 13:08:53.139
89.0, 47786.75559601255, 50789.19837346058, 53029.7148859161, -2166.0181481859863, -5698.152565735885, -8660.116333975355, 19785.67478485999, 13677.99355721397, -0.068, 0.976, 0.064, 192.0, 0.0, 0.0, 0.0, 0.0, 0.0, 0.0, 0.0, 0.0, 0.0, 1.6878029331427872E9, 0.0, 2023-06-26 13:08:53.142
90.0, 47750.27754906149, 50756.47541957801, 54151.4818848946, -2238.460151965636, -5728.796807384111, -8731.910137165802, 19758.025676968777, 13621.577754208774, -0.046, 0.98, 0.062, 192.0, 254.0, 144.0, 30.0, 160.0, 1.0, 240.0, 0.0, 0.0, 0.0, 1.6878029331477797E9, 0.0, 2023-06-26 13:08:53.147
91.0, 47707.96569680759, 50710.83315740027, 55477.58853168351, -2291.545545046991, -5766.392441557938, -8791.321073928008, 19713.702167713902, 13566.167779704068, -0.046, 0.98, 0.062, 192.0, 0.0, 0.0, 0.0, 0.0, 0.0, 0.0, 0.0, 0.0, 0.0, 1.6878029331508613E9, 0.0, 2023-06-26 13:08:53.150
92.0, 47736.68768843266, 50732.13436986618, 55305.79302380002, -2250.7536114160553, -5775.1543253844175, -8754.641861276848, 19710.438813023426, 13580.897579300115, -0.046, 0.98, 0.062, 192.0, 0.0, 0.0, 0.0, 0.0, 0.0, 0.0, 0.0, 0.0, 0.0, 1.6878029331548116E9, 0.0, 2023-06-26 13:08:53.154
93.0, 47794.1316716828, 50794.20516421857, 53066.863485200825, -2155.1775521251625, -5701.0135890261645, -8658.484656630118, 19782.34437493615, 13672.316214122322, -0.046, 0.98, 0.062, 192.0, 0.0, 0.0, 0.0, 0.0, 0.0, 0.0, 0.0, 0.0, 0.0, 1.6878029331578295E9, 0.0, 2023-06-26 13:08:53.157
94.0, 47752.82564792939, 50762.84566674777, 53892.827498057784, -2230.413523961726, -5733.490673719725, -8721.427169016262, 19752.683610043958, 13627.098635089236, -0.046, 0.98, 0.062, 192.0, 0.0, 0.0, 0.0, 0.0, 0.0, 0.0, 0.0, 0.0, 0.0, 1.6878029331618514E9, 0.0, 2023-06-26 13:08:53.161
95.0, 47715.11825503329, 50722.50076800594, 55209.233487753096, -2287.8351554674095, -5775.7131189958, -8787.610684348427, 19712.741042702324, 13566.458352381987, -0.046, 0.98, 0.062, 192.0, 0.0, 0.0, 0.0, 0.0, 0.0, 0.0, 0.0, 0.0, 0.0, 1.6878029331658716E9, 0.0, 2023-06-26 13:08:53.165
96.0, 47717.465188201095, 50719.12565459319, 55638.38698129499, -2271.965416904142, -5801.194107674851, -8777.194771432254, 19698.927664628944, 13560.959823245981, -0.046, 0.98, 0.062, 192.0, 0.0, 0.0, 0.0, 0.0, 0.0, 0.0, 0.0, 0.0, 0.0, 1.687802933168877E9, 0.0, 2023-06-26 13:08:53.168
97.0, 47796.41154961724, 50795.47921365252, 53282.64722617236, -2161.324281850372, -5716.7492171227, -8667.2465404566, 19774.29774693224, 13657.586414526275, -0.046, 0.98, 0.062, 192.0, 0.0, 0.0, 0.0, 0.0, 0.0, 0.0, 0.0, 0.0, 0.0, 1.6878029331729012E9, 0.0, 2023-06-26 13:08:53.172
98.0, 47769.32123533741, 50783.45397513556, 53644.76783809279, -2203.211450959617, -5715.251650244195, -8696.281456504043, 19781.87498830259, 13647.975164410493, -0.046, 0.98, 0.062, 192.0, 0.0, 0.0, 0.0, 0.0, 0.0, 0.0, 0.0, 0.0, 0.0, 1.6878029331789324E9, 0.0, 2023-06-26 13:08:53.178
99.0, 47720.99676382503, 50732.53670126638, 54972.55086571585, -2276.9051524287647, -5764.984281657253, -8783.430908135284, 19731.024769666765, 13572.336861173733, -0.046, 0.98, 0.062, 192.0, 0.0, 0.0, 0.0, 0.0, 0.0, 0.0, 0.0, 0.0, 0.0, 1.6878029331819403E9, 0.0, 2023-06-26 13:08:53.181
100.0, 47705.61876363978, 50712.84481440125, 55845.900576818065, -2288.1927833786945, -5796.857869250521, -8793.98093151819, 19706.99664437731, 13558.657593567086, -0.036000000000000004, 0.984, 0.058, 192.0, 254.0, 224.0, 30.0, 192.0, 1.0, 208.0, 0.0, 0.0, 0.0, 1.6878029331859772E9, 0.0, 2023-06-26 13:08:53.185
101.0, 47779.267761620016, 50780.972931501026, 53628.4063611515, -2182.6925495496453, -5733.89300511992, -8686.536095921529, 19762.026639226275, 13637.447492772042, -0.036000000000000004, 0.984, 0.058, 192.0, 0.0, 0.0, 0.0, 0.0, 0.0, 0.0, 0.0, 0.0, 0.0, 1.6878029331899729E9, 0.0, 2023-06-26 13:08:53.189
102.0, 47767.22017135861, 50784.258637935956, 53390.49439316922, -2189.934514753165, -5712.211812998273, -8678.601226639894, 19794.146096008553, 13666.147132652657, -0.036000000000000004, 0.984, 0.058, 192.0, 0.0, 0.0, 0.0, 0.0, 0.0, 0.0, 0.0, 0.0, 0.0, 1.6878029331940153E9, 0.0, 2023-06-26 13:08:53.194
103.0, 47725.40005748273, 50739.26457634742, 54740.562110014216, -2272.345396559882, -5759.865732176988, -8770.35513762893, 19740.14428140453, 13583.557436890298, -0.036000000000000004, 0.984, 0.058, 192.0, 0.0, 0.0, 0.0, 0.0, 0.0, 0.0, 0.0, 0.0, 0.0, 1.687802933198033E9, 0.0, 2023-06-26 13:08:53.198
104.0, 47693.839394311835, 50705.804014897825, 55894.470917519444, -2300.8438707403984, -5801.641142563956, -8798.339521686974, 19702.593350719613, 13554.343706887212, -0.036000000000000004, 0.984, 0.058, 192.0, 0.0, 0.0, 0.0, 0.0, 0.0, 0.0, 0.0, 0.0, 0.0, 1.6878029332010417E9, 0.0, 2023-06-26 13:08:53.201
105.0, 47762.79452595646, 50763.85149524826, 54077.09527934734, -2206.921840539198, -5758.636386231946, -8713.648761945817, 19739.741950004336, 13618.046178584837, -0.036000000000000004, 0.984, 0.058, 192.0, 0.0, 0.0, 0.0, 0.0, 0.0, 0.0, 0.0, 0.0, 0.0, 1.6878029332070813E9, 0.0, 2023-06-26 13:08:53.207
106.0, 47776.026758674, 50789.2877804384, 53188.18875410423, -2174.7576802680114, -5707.98733329622, -8670.085212002423, 19792.76028785232, 13675.490161834976, -0.036000000000000004, 0.984, 0.058, 192.0, 0.0, 0.0, 0.0, 0.0, 0.0, 0.0, 0.0, 0.0, 0.0, 1.6878029332100787E9, 0.0, 2023-06-26 13:08:53.210
107.0, 47733.24551978654, 50747.11003865123, 54512.79783401464, -2259.8507714093653, -5759.664566476889, -8761.30268112453, 19741.306572116206, 13593.012224794893, -0.036000000000000004, 0.984, 0.058, 192.0, 0.0, 0.0, 0.0, 0.0, 0.0, 0.0, 0.0, 0.0, 0.0, 1.6878029332140975E9, 0.0, 2023-06-26 13:08:53.214
108.0, 47698.06387401389, 50712.91186963462, 55798.17960240598, -2290.3609025908595, -5794.2874186381605, -8795.545553630061, 19712.0034351353, 13561.943300002016, -0.036000000000000004, 0.984, 0.058, 192.0, 0.0, 0.0, 0.0, 0.0, 0.0, 0.0, 0.0, 0.0, 0.0, 1.687802933218228E9, 0.0, 2023-06-26 13:08:53.218
109.0, 47753.675014218694, 50754.687280021586, 54562.1281340275, -2223.171558758206, -5767.979415414264, -8732.737151710648, 19730.018941166276, 13599.337768475745, -0.036000000000000004, 0.984, 0.058, 192.0, 0.0, 0.0, 0.0, 0.0, 0.0, 0.0, 0.0, 0.0, 0.0, 1.6878029332212117E9, 0.0, 2023-06-26 13:08:53.221
110.0, 47777.74784299706, 50789.73481532751, 53059.308595574934, -2168.9238749651763, -5710.669542630857, -8668.028851512534, 19790.30159596224, 13673.769077511917, -0.032, 0.988, 0.052000000000000005, 192.0, 255.0, 0.0, 30.0, 224.0, 1.0, 160.0, 0.0, 0.0, 0.0, 1.6878029332252257E9, 0.0, 2023-06-26 13:08:53.225
111.0, 47740.822761156895, 50758.040041689885, 54295.65063663133, -2242.5281694565024, -5746.722906437267, -8742.862491948903, 19756.39399962354, 13610.26777151439, -0.032, 0.988, 0.052000000000000005, 192.0, 0.0, 0.0, 0.0, 0.0, 0.0, 0.0, 0.0, 0.0, 0.0, 1.6878029332292268E9, 0.0, 2023-06-26 13:08:53.229
112.0, 47693.973504778565, 50710.47552948899, 55645.51718777623, -2301.6485335407897, -5796.276723894683, -8800.909972299334, 19712.741042702324, 13559.10462845619, -0.032, 0.988, 0.052000000000000005, 192.0, 0.0, 0.0, 0.0, 0.0, 0.0, 0.0, 0.0, 0.0, 0.0, 1.6878029332332141E9, 0.0, 2023-06-26 13:08:53.233
113.0, 47736.95590936612, 50741.2762333484, 55030.955973977565, -2253.5252277285135, -5792.05224419263, -8754.083067665466, 19704.359138531585, 13578.818867065773, -0.032, 0.988, 0.052000000000000005, 192.0, 0.0, 0.0, 0.0, 0.0, 0.0, 0.0, 0.0, 0.0, 0.0, 1.6878029332402477E9, 0.0, 2023-06-26 13:08:53.240
114.0, 47791.918848981724, 50805.00105679048, 53010.13475777325, -2157.613892270791, -5711.027170542142, -8655.735392062115, 19774.1189329766, 13675.55721706834, -0.032, 0.988, 0.052000000000000005, 192.0, 0.0, 0.0, 0.0, 0.0, 0.0, 0.0, 0.0, 0.0, 0.0, 1.6878029332432425E9, 0.0, 2023-06-26 13:08:53.243
115.0, 47755.12787760829, 50777.888390766195, 54044.64054639823, -2228.468922194114, -5736.195234798817, -8731.619564487883, 19771.414371897506, 13625.466957743998, -0.032, 0.988, 0.052000000000000005, 192.0, 0.0, 0.0, 0.0, 0.0, 0.0, 0.0, 0.0, 0.0, 0.0, 1.687802933247336E9, 0.0, 2023-06-26 13:08:53.247
116.0, 47709.86559508629, 50729.40745704263, 55404.00658893664, -2287.276361856027, -5781.882200465465, -8796.730196086191, 19726.017978908778, 13564.178474447546, -0.032, 0.988, 0.052000000000000005, 192.0, 0.0, 0.0, 0.0, 0.0, 0.0, 0.0, 0.0, 0.0, 0.0, 1.6878029332502763E9, 0.0, 2023-06-26 13:08:53.250
117.0, 47727.07643831688, 50737.23056760199, 55450.22999647022, -2265.2598935675496, -5798.869526251498, -8778.44646912175, 19700.738155929823, 13561.764486046373, -0.032, 0.988, 0.052000000000000005, 192.0, 0.0, 0.0, 0.0, 0.0, 0.0, 0.0, 0.0, 0.0, 0.0, 1.6878029332543085E9, 0.0, 2023-06-26 13:08:53.254
118.0, 47799.85371826336, 50808.86790858125, 53116.2384887026, -2150.9530724231095, -5699.963057036764, -8657.344717662898, 19793.654357630534, 13671.489199577476, -0.032, 0.988, 0.052000000000000005, 192.0, 0.0, 0.0, 0.0, 0.0, 0.0, 0.0, 0.0, 0.0, 0.0, 1.6878029332573397E9, 0.0, 2023-06-26 13:08:53.257
119.0, 47761.11814512231, 50783.63278909121, 53791.48468869743, -2208.3970556732484, -5716.257478744684, -8708.06082583199, 19785.16069473752, 13644.465940531009, -0.032, 0.988, 0.052000000000000005, 192.0, 0.0, 0.0, 0.0, 0.0, 0.0, 0.0, 0.0, 0.0, 0.0, 1.6878029332613335E9, 0.0, 2023-06-26 13:08:53.261
120.0, 47710.826720097866, 50729.94389890956, 55143.787579987955, -2284.057710654463, -5768.5158572811915, -8789.577637860493, 19724.43100505245, 13567.777105304851, -0.032, 0.988, 0.052000000000000005, 192.0, 0.0, 0.0, 0.0, 0.0, 0.0, 0.0, 0.0, 0.0, 0.0, 1.6878029332653537E9, 0.0, 2023-06-26 13:08:53.265
121.0, 47699.02499902547, 50711.257840544924, 55747.17292155897, -2284.8623734548537, -5795.740282027756, -8792.751585573147, 19700.33582452963, 13553.114360942169, -0.042, 0.994, 0.048, 192.0, 254.0, 176.0, 31.0, 16.0, 1.0, 128.0, 0.0, 0.0, 0.0, 1.6878029332693777E9, 0.0, 2023-06-26 13:08:53.269
122.0, 47787.113223923836, 50794.65219910767, 53387.16398324537, -2167.9851016980533, -5709.395493196905, -8680.232903985132, 19774.387153910062, 13650.27739408939, -0.042, 0.994, 0.048, 192.0, 0.0, 0.0, 0.0, 0.0, 0.0, 0.0, 0.0, 0.0, 0.0, 1.687802933274397E9, 0.0, 2023-06-26 13:08:53.274
123.0, 47776.205572629646, 50796.66385610865, 53520.53684241019, -2186.604104829324, -5693.749272078189, -8690.157078523289, 19793.319081463706, 13660.670955261106, -0.042, 0.994, 0.048, 192.0, 0.0, 0.0, 0.0, 0.0, 0.0, 0.0, 0.0, 0.0, 0.0, 1.6878029332784204E9, 0.0, 2023-06-26 13:08:53.278
124.0, 47723.50015920403, 50740.4268670591, 54879.36644308167, -2271.2948645704823, -5752.422601273371, -8781.21808543421, 19733.304647601206, 13575.175532719557, -0.042, 0.994, 0.048, 192.0, 0.0, 0.0, 0.0, 0.0, 0.0, 0.0, 0.0, 0.0, 0.0, 1.6878029332814317E9, 0.0, 2023-06-26 13:08:53.281
125.0, 47704.188251994645, 50717.829253414784, 55879.40584175657, -2283.700082743178, -5782.843325477043, -8792.796289062058, 19707.935417644432, 13556.981212732937, -0.042, 0.994, 0.048, 192.0, 0.0, 0.0, 0.0, 0.0, 0.0, 0.0, 0.0, 0.0, 0.0, 1.687802933285455E9, 0.0, 2023-06-26 13:08:53.285
126.0, 47774.9762266846, 50778.60364658877, 53750.67040332203, -2186.648808318235, -5725.600507927002, -8697.644912915815, 19756.461054856904, 13631.79250142485, -0.042, 0.994, 0.048, 192.0, 0.0, 0.0, 0.0, 0.0, 0.0, 0.0, 0.0, 0.0, 0.0, 1.6878029332904928E9, 0.0, 2023-06-26 13:08:53.290
127.0, 47771.869334205316, 50794.026350262924, 53289.375101253405, -2176.0987849353296, -5695.0903767455075, -8676.723680105648, 19796.15775300953, 13670.41631584362, -0.042, 0.994, 0.048, 192.0, 0.0, 0.0, 0.0, 0.0, 0.0, 0.0, 0.0, 0.0, 0.0, 1.6878029332944832E9, 0.0, 2023-06-26 13:08:53.294
128.0, 47727.031734827964, 50748.00410842945, 54626.121178403046, -2259.023756864519, -5736.441103987826, -8766.622396304894, 19748.973220464377, 13590.017091037882, -0.042, 0.994, 0.048, 192.0, 0.0, 0.0, 0.0, 0.0, 0.0, 0.0, 0.0, 0.0, 0.0, 1.6878029332975278E9, 0.0, 2023-06-26 13:08:53.297
129.0, 47689.570211120874, 50709.156776566124, 55865.21248402745, -2297.6922747722, -5780.965778942797, -8807.011998535634, 19710.975254890356, 13557.942337744516, -0.042, 0.994, 0.048, 192.0, 0.0, 0.0, 0.0, 0.0, 0.0, 0.0, 0.0, 0.0, 0.0, 1.6878029333025424E9, 0.0, 2023-06-26 13:08:53.302
130.0, 47766.14728762476, 50770.22174241803, 54195.22424879364, -2201.7585875700224, -5728.6626969173785, -8710.72068342217, 19750.403732109517, 13624.148204821135, -0.042, 0.994, 0.048, 192.0, 0.0, 0.0, 0.0, 0.0, 0.0, 0.0, 0.0, 0.0, 0.0, 1.6878029333085794E9, 0.0, 2023-06-26 13:08:53.308
131.0, 47784.52042156702, 50802.430606178124, 53097.26185766004, -2161.5254475504694, -5673.744460790689, -8658.216435696655, 19808.093584548664, 13690.644644575674, -0.052000000000000005, 0.994, 0.046, 192.0, 254.0, 96.0, 31.0, 16.0, 1.0, 112.0, 0.0, 0.0, 0.0, 1.687802933312605E9, 0.0, 2023-06-26 13:08:53.312
132.0, 47738.02879309998, 50756.11779166672, 54420.172204991846, -2254.955739373653, -5731.031981829641, -8756.340593855452, 19745.866327985088, 13601.908219088105, -0.052000000000000005, 0.994, 0.046, 192.0, 0.0, 0.0, 0.0, 0.0, 0.0, 0.0, 0.0, 0.0, 0.0, 1.6878029333156059E9, 0.0, 2023-06-26 13:08:53.315
133.0, 47690.129004732255, 50706.1169393202, 55766.663642724, -2303.3919696083035, -5782.4856975657585, -8803.0780915115, 19706.974292632854, 13557.58470983323, -0.052000000000000005, 0.994, 0.046, 192.0, 0.0, 0.0, 0.0, 0.0, 0.0, 0.0, 0.0, 0.0, 0.0, 1.6878029333186152E9, 0.0, 2023-06-26 13:08:53.318
134.0, 47742.36503152431, 50744.33842233878, 54707.88385962056, -2239.957718844142, -5764.850171190521, -8747.712820495704, 19721.27940908425, 13589.011262537393, -0.052000000000000005, 0.994, 0.046, 192.0, 0.0, 0.0, 0.0, 0.0, 0.0, 0.0, 0.0, 0.0, 0.0, 1.6878029333216271E9, 0.0, 2023-06-26 13:08:53.321
135.0, 47791.784738514994, 50804.12933875673, 53001.574039646875, -2165.8169824858883, -5683.176896950829, -8663.558502621472, 19797.58826465467, 13681.32396713781, -0.052000000000000005, 0.994, 0.046, 192.0, 0.0, 0.0, 0.0, 0.0, 0.0, 0.0, 0.0, 0.0, 0.0, 1.687802933325656E9, 0.0, 2023-06-26 13:08:53.325
136.0, 47748.712926949614, 50766.5337045829, 54191.46915572514, -2248.183160803695, -5723.074760803552, -8742.77308497108, 19759.165615935995, 13612.391187237643, -0.052000000000000005, 0.994, 0.046, 192.0, 0.0, 0.0, 0.0, 0.0, 0.0, 0.0, 0.0, 0.0, 0.0, 1.6878029333296688E9, 0.0, 2023-06-26 13:08:53.329
137.0, 47704.07649327237, 50718.29864004834, 55559.08299196756, -2287.5892862784012, -5768.314691581094, -8791.097556483455, 19714.350368303105, 13562.92677675805, -0.052000000000000005, 0.994, 0.046, 192.0, 0.0, 0.0, 0.0, 0.0, 0.0, 0.0, 0.0, 0.0, 0.0, 1.6878029333336945E9, 0.0, 2023-06-26 13:08:53.333
138.0, 47738.721697178094, 50742.013840915424, 55159.25498715103, -2246.7526491585554, -5766.414793302392, -8751.646727519837, 19721.167650361975, 13586.35140494721, -0.052000000000000005, 0.994, 0.046, 192.0, 0.0, 0.0, 0.0, 0.0, 0.0, 0.0, 0.0, 0.0, 0.0, 1.687802933336708E9, 0.0, 2023-06-26 13:08:53.336
139.0, 47787.49320357957, 50794.20516421857, 53007.564307160894, -2165.3028923634165, -5699.180745980829, -8669.884046302324, 19784.177217981483, 13666.124780908202, -0.052000000000000005, 0.994, 0.046, 192.0, 0.0, 0.0, 0.0, 0.0, 0.0, 0.0, 0.0, 0.0, 0.0, 1.6878029333477793E9, 0.0, 2023-06-26 13:08:53.347
140.0, 47740.174560567684, 50753.99437594347, 53961.000318646475, -2238.7507246435553, -5726.114598049474, -8740.314393080997, 19760.8643485146, 13610.491288958943, -0.052000000000000005, 0.994, 0.046, 192.0, 0.0, 0.0, 0.0, 0.0, 0.0, 0.0, 0.0, 0.0, 0.0, 1.6878029333508177E9, 0.0, 2023-06-26 13:08:53.350
141.0, 47698.309743202895, 50711.50370973393, 55338.44892244923, -2294.7194927596443, -5769.655796248412, -8802.049911266555, 19716.272618326264, 13554.522520842853, -0.056, 0.988, 0.048, 192.0, 254.0, 64.0, 30.0, 224.0, 1.0, 128.0, 0.0, 0.0, 0.0, 1.687802933353797E9, 0.0, 2023-06-26 13:08:53.353
142.0, 47709.709132875105, 50716.73401793648, 55555.841989021545, -2274.1111843718513, -5785.212610389306, -8777.954730743735, 19707.89071415552, 13565.966614003972, -0.056, 0.988, 0.048, 192.0, 0.0, 0.0, 0.0, 0.0, 0.0, 0.0, 0.0, 0.0, 0.0, 1.6878029333568108E9, 0.0, 2023-06-26 13:08:53.356
143.0, 47782.10643316584, 50786.94084727059, 53189.66396923828, -2170.153220910218, -5695.291542445605, -8679.651758629294, 19791.039203529264, 13662.257929117433, -0.056, 0.988, 0.048, 192.0, 0.0, 0.0, 0.0, 0.0, 0.0, 0.0, 0.0, 0.0, 0.0, 1.6878029333628216E9, 0.0, 2023-06-26 13:08:53.362
144.0, 47742.275624546484, 50759.47055333502, 53730.084446678695, -2226.7478378710557, -5715.1622432663735, -8730.703142965216, 19779.706869090423, 13630.943135135549, -0.056, 0.988, 0.048, 192.0, 0.0, 0.0, 0.0, 0.0, 0.0, 0.0, 0.0, 0.0, 0.0, 1.6878029333658495E9, 0.0, 2023-06-26 13:08:53.365
145.0, 47695.98516177954, 50709.80497715533, 55098.86057363279, -2293.2219258811388, -5764.112563623496, -8798.473632153706, 19728.05198765421, 13560.982174990437, -0.056, 0.988, 0.048, 192.0, 0.0, 0.0, 0.0, 0.0, 0.0, 0.0, 0.0, 0.0, 0.0, 1.6878029333698487E9, 0.0, 2023-06-26 13:08:53.369
146.0, 47700.94724904862, 50708.30741027682, 55814.96576249192, -2279.9673414191416, -5778.663549263901, -8783.810887791025, 19718.776013705257, 13560.892768012616, -0.056, 0.988, 0.048, 192.0, 0.0, 0.0, 0.0, 0.0, 0.0, 0.0, 0.0, 0.0, 0.0, 1.687802933372881E9, 0.0, 2023-06-26 13:08:53.372
147.0, 47780.40770058724, 50781.57642860132, 53463.383431837974, -2176.0987849353296, -5707.22737398474, -8687.966607566668, 19769.58152885217, 13636.754588693928, -0.056, 0.988, 0.048, 192.0, 0.0, 0.0, 0.0, 0.0, 0.0, 0.0, 0.0, 0.0, 0.0, 1.6878029333758955E9, 0.0, 2023-06-26 13:08:53.375
