%OpenBCI Raw EEG Data
%Number of channels = 8
%Sample Rate = 250 Hz
%Board = OpenBCI_GUI$BoardCytonSerial
Sample Index, EXG Channel 0, EXG Channel 1, EXG Channel 2, EXG Channel 3, EXG Channel 4, EXG Channel 5, EXG Channel 6, EXG Channel 7, Accel Channel 0, Accel Channel 1, Accel Channel 2, Other, Other, Other, Other, Other, Other, Other, Analog Channel 0, Analog Channel 1, Analog Channel 2, Timestamp, Other, Timestamp (Formatted)
24.0, 48953.606063557396, 52578.99195897484, 60486.189780973174, -1800.298905408252, -5179.100355994744, -8015.201451206381, 21972.39064841159, 14837.333838621837, 0.0, 0.0, 0.0, 192.0, 0.0, 0.0, 0.0, 0.0, 0.0, 0.0, 0.0, 0.0, 0.0, 1.68780306692312E9, 0.0, 2023-06-26 13:11:06.923
25.0, 48892.60815293886, 52517.792882656206, 62276.13982869862, -1898.490118800416, -5249.37424056223, -8113.437368087455, 21910.47631627039, 14747.546881144868, 0.0, 0.0, 0.0, 192.0, 0.0, 0.0, 0.0, 0.0, 0.0, 0.0, 0.0, 0.0, 0.0, 1.6878030669231558E9, 0.0, 2023-06-26 13:11:06.923
70.0, 48729.79804632641, 52525.23601355982, 62389.619635298215, -1848.846894365179, -5234.935013644102, -8093.477260288866, 21929.765871735322, 14762.142570274184, 0.0, 0.0, 0.0, 192.0, 0.0, 0.0, 0.0, 0.0, 0.0, 0.0, 0.0, 0.0, 0.0, 1.6878030669231777E9, 0.0, 2023-06-26 13:11:06.923
71.0, 48780.40239577322, 52582.12120319858, 60304.760671229444, -1763.4855822903614, -5155.563969083306, -8001.946866744383, 22009.628654674132, 14856.668097575677, 0.002, 0.982, 0.058, 192.0, 0.0, 16.0, 30.0, 176.0, 1.0, 208.0, 0.0, 0.0, 0.0, 1.6878030669231975E9, 0.0, 2023-06-26 13:11:06.923
72.0, 48729.57452888186, 52544.25734809129, 61707.645560222336, -1835.748772114369, -5189.113937510721, -8062.698908173908, 22001.917302837053, 14819.519498290956, 0.002, 0.982, 0.058, 192.0, 0.0, 0.0, 0.0, 0.0, 0.0, 0.0, 0.0, 0.0, 0.0, 1.687803066923221E9, 0.0, 2023-06-26 13:11:06.923
122.0, 48728.23342421454, 52535.4507607759, 61489.13490642726, -1834.1170947691317, -5153.574663826784, -8049.332564989635, 22015.417756488056, 14843.122940435762, -0.014, 0.996, 0.052000000000000005, 192.0, 255.0, 144.0, 31.0, 32.0, 1.0, 160.0, 0.0, 0.0, 0.0, 1.6878030669232516E9, 0.0, 2023-06-26 13:11:06.923
74.0, 48701.657200057176, 52499.397396969485, 62819.421329429315, -1876.7195197009469, -5241.796999191881, -8110.5316413082655, 21942.86399398613, 14764.869483097731, -0.014, 0.996, 0.052000000000000005, 192.0, 0.0, 0.0, 0.0, 0.0, 0.0, 0.0, 0.0, 0.0, 0.0, 1.687803066923273E9, 0.0, 2023-06-26 13:11:06.923
119.0, 48680.467746313545, 52479.30317870417, 63266.14329411308, -1898.646581011603, -5218.305315769353, -8127.317801394201, 21951.312953390236, 14764.802427864364, -0.014, 0.996, 0.052000000000000005, 192.0, 0.0, 0.0, 0.0, 0.0, 0.0, 0.0, 0.0, 0.0, 0.0, 1.6878030669232936E9, 0.0, 2023-06-26 13:11:06.923
76.0, 48731.139150993724, 52546.47017079237, 61382.986472009005, -1827.2551092213523, -5170.718451824004, -8044.6163469095645, 22032.74035844092, 14848.442655616123, -0.014, 0.996, 0.052000000000000005, 192.0, 0.0, 0.0, 0.0, 0.0, 0.0, 0.0, 0.0, 0.0, 0.0, 1.6878030669233136E9, 0.0, 2023-06-26 13:11:06.923
77.0, 48681.384167836215, 52493.317722477645, 62954.828197339564, -1902.6922467580137, -5228.341249029786, -8123.98739147036, 21974.290546690292, 14773.564311690845, -0.014, 0.996, 0.052000000000000005, 192.0, 0.0, 0.0, 0.0, 0.0, 0.0, 0.0, 0.0, 0.0, 0.0, 1.6878030669233353E9, 0.0, 2023-06-26 13:11:06.923
115.0, 48674.90216194417, 52473.42466991242, 63407.5180777929, -1900.61353452367, -5221.166339059632, -8136.839644532162, 21953.72694179141, 14762.723715630022, -0.014, 0.996, 0.052000000000000005, 192.0, 0.0, 0.0, 0.0, 0.0, 0.0, 0.0, 0.0, 0.0, 0.0, 1.6878030669233549E9, 0.0, 2023-06-26 13:11:06.923
113.0, 48768.28775027845, 52573.49342983883, 60379.23668375453, -1764.4467073019396, -5120.091750632733, -7992.58148581761, 22042.30690506779, 14888.27346423548, -0.014, 0.996, 0.052000000000000005, 192.0, 0.0, 0.0, 0.0, 0.0, 0.0, 0.0, 0.0, 0.0, 0.0, 1.6878030669233744E9, 0.0, 2023-06-26 13:11:06.923
80.0, 48744.75136336701, 52564.1056971676, 61032.62287767207, -1802.7128938094252, -5153.798181271337, -8019.448282652889, 22046.509033025388, 14872.694298350132, -0.014, 0.996, 0.052000000000000005, 192.0, 0.0, 0.0, 0.0, 0.0, 0.0, 0.0, 0.0, 0.0, 0.0, 1.6878030669233935E9, 0.0, 2023-06-26 13:11:06.923
81.0, 48691.39774935219, 52507.91341160696, 62732.65185745381, -1893.4386245535165, -5223.647382694171, -8113.124443665081, 21978.78324732581, 14779.889855371697, -0.014, 0.996, 0.052000000000000005, 192.0, 0.0, 0.0, 30.0, 176.0, 1.0, 192.0, 0.0, 0.0, 0.0, 1.6878030669234126E9, 0.0, 2023-06-26 13:11:06.923
109.0, 48744.25962498899, 52553.39921157351, 60646.80941662901, -1795.4485768614504, -5140.945928209535, -8010.440529637401, 22034.03675961933, 14870.257958204504, -0.014, 0.996, 0.052000000000000005, 192.0, 0.0, 0.0, 0.0, 0.0, 0.0, 0.0, 0.0, 0.0, 0.0, 1.6878030669234335E9, 0.0, 2023-06-26 13:11:06.923
107.0, 48667.54843801838, 52469.11078323255, 63387.46856301649, -1902.8934124581115, -5237.170188089632, -8124.054446703726, 21941.835813741185, 14757.247538238471, -0.014, 0.996, 0.052000000000000005, 192.0, 0.0, 0.0, 0.0, 0.0, 0.0, 0.0, 0.0, 0.0, 0.0, 1.6878030669234529E9, 0.0, 2023-06-26 13:11:06.923
84.0, 48749.78050586945, 52570.11831642608, 60728.75091180217, -1789.2794953917858, -5148.277300390876, -8001.745701044286, 22050.26412609388, 14886.306510723414, -0.014, 0.996, 0.052000000000000005, 192.0, 0.0, 0.0, 0.0, 0.0, 0.0, 0.0, 0.0, 0.0, 0.0, 1.6878030669237103E9, 0.0, 2023-06-26 13:11:06.923
132.0, 48671.527048531425, 52466.7862018092, 63512.504221499476, -1909.397770094606, -5229.525891485917, -8133.933917752972, 21922.30038908725, 14742.96477353153, -0.03, 0.992, 0.052000000000000005, 192.0, 255.0, 16.0, 31.0, 0.0, 1.0, 160.0, 0.0, 0.0, 0.0, 1.6878030669237227E9, 0.0, 2023-06-26 13:11:06.923
130.0, 48764.04091883194, 52567.078479180156, 60766.61476690946, -1789.6818267919812, -5120.851709944214, -8014.06151223916, 22030.460480506477, 14863.261862189993, -0.03, 0.992, 0.052000000000000005, 192.0, 0.0, 0.0, 0.0, 0.0, 0.0, 0.0, 0.0, 0.0, 0.0, 1.687803066923735E9, 0.0, 2023-06-26 13:11:06.923
87.0, 48732.63671787223, 52534.6013944866, 61574.76443943554, -1824.7293620979026, -5209.163452287132, -8051.433628968433, 21967.383857653604, 14809.438861541614, -0.03, 0.992, 0.052000000000000005, 192.0, 0.0, 0.0, 0.0, 0.0, 0.0, 0.0, 0.0, 0.0, 0.0, 1.687803066923748E9, 0.0, 2023-06-26 13:11:06.923
103.0, 48680.043063168894, 52484.82405958463, 63221.953895324936, -1888.0295023953322, -5240.388839291196, -8111.805690742218, 21930.212906624427, 14760.82381735132, -0.03, 0.992, 0.052000000000000005, 192.0, 0.0, 0.0, 0.0, 0.0, 0.0, 0.0, 0.0, 0.0, 0.0, 1.6878030669237587E9, 0.0, 2023-06-26 13:11:06.923
128.0, 48679.50662130197, 52472.709414089855, 63368.02254534037, -1902.7816537358349, -5226.664868195638, -8120.232298401868, 21928.87180195711, 14752.48661666949, -0.03, 0.992, 0.052000000000000005, 192.0, 0.0, 0.0, 0.0, 0.0, 0.0, 0.0, 0.0, 0.0, 0.0, 1.6878030669237692E9, 0.0, 2023-06-26 13:11:06.923
145.0, 48673.96338867705, 52465.15452446396, 63400.47727828947, -1900.7699967348574, -5207.263554008431, -8126.423731615989, 21941.656999785544, 14752.352506202758, -0.03, 0.992, 0.052000000000000005, 192.0, 0.0, 0.0, 0.0, 0.0, 0.0, 0.0, 0.0, 0.0, 0.0, 1.6878030669237835E9, 0.0, 2023-06-26 13:11:06.923
99.0, 48704.96525823656, 52511.31087676417, 62924.22865918025, -1876.004263878377, -5234.309164799352, -8103.334379593656, 21944.965057964928, 14770.613881422745, -0.03, 0.992, 0.052000000000000005, 192.0, 0.0, 0.0, 0.0, 0.0, 0.0, 0.0, 0.0, 0.0, 0.0, 1.6878030669237943E9, 0.0, 2023-06-26 13:11:06.923
126.0, 48734.96129929558, 52540.70342072289, 61135.016219021825, -1817.1297689830983, -5139.224843886476, -8030.847672325096, 22024.60432345919, 14854.097646963317, -0.03, 0.992, 0.052000000000000005, 192.0, 0.0, 0.0, 0.0, 0.0, 0.0, 0.0, 0.0, 0.0, 0.0, 1.6878030669238048E9, 0.0, 2023-06-26 13:11:06.923
135.0, 48704.31705764736, 52506.28173426172, 62193.863057358634, -1873.3891097771061, -5171.545466368851, -8099.512231291799, 21979.364392681648, 14788.539980475902, -0.03, 0.992, 0.052000000000000005, 192.0, 0.0, 0.0, 0.0, 0.0, 0.0, 0.0, 0.0, 0.0, 0.0, 1.687803066923815E9, 0.0, 2023-06-26 13:11:06.923
151.0, 48747.00888955699, 52551.87929295055, 60709.908391226345, -1791.3582076261293, -5098.924648633558, -8009.188831947903, 22045.950239414007, 14881.813810087897, -0.03, 0.992, 0.052000000000000005, 192.0, 0.0, 0.0, 0.0, 0.0, 0.0, 0.0, 0.0, 0.0, 0.0, 1.6878030669238255E9, 0.0, 2023-06-26 13:11:06.923
133.0, 48747.81355235739, 52533.12617935255, 61458.892996179224, -1815.9004230380565, -5172.752460569437, -8051.858312113084, 21955.425674370013, 14800.721681204044, -0.03, 0.992, 0.052000000000000005, 192.0, 0.0, 0.0, 0.0, 0.0, 0.0, 0.0, 0.0, 0.0, 0.0, 1.687803066923836E9, 0.0, 2023-06-26 13:11:06.923
138.0, 48764.06327057639, 52561.78111574425, 60802.15404059339, -1778.2600853753192, -5114.369704052175, -8009.613515092554, 22017.40706174458, 14857.65157433171, -0.03, 0.992, 0.052000000000000005, 192.0, 0.0, 0.0, 0.0, 0.0, 0.0, 0.0, 0.0, 0.0, 0.0, 1.6878030669238465E9, 0.0, 2023-06-26 13:11:06.923
149.0, 48675.81858346684, 52474.54225713519, 63593.43988817214, -1913.8010637523014, -5216.226603535009, -8136.5937753431535, 21930.65994151353, 14749.424427679114, -0.03, 0.992, 0.052000000000000005, 192.0, 0.0, 0.0, 0.0, 0.0, 0.0, 0.0, 0.0, 0.0, 0.0, 1.6878030669238567E9, 0.0, 2023-06-26 13:11:06.923
146.0, 48757.22363677307, 52546.55957777019, 60939.14788235997, -1790.7994140147466, -5118.482425031952, -8017.615439607554, 22012.132050053126, 14846.98979222653, -0.03, 0.992, 0.052000000000000005, 192.0, 0.0, 0.0, 0.0, 0.0, 0.0, 0.0, 0.0, 0.0, 0.0, 1.6878030669238672E9, 0.0, 2023-06-26 13:11:06.923
147.0, 48743.74553486652, 52541.68689747893, 61022.966924067376, -1824.8411208201792, -5117.007209897901, -8041.241233496814, 22029.186431072525, 14849.113207949784, -0.03, 0.992, 0.052000000000000005, 192.0, 0.0, 0.0, 0.0, 0.0, 0.0, 0.0, 0.0, 0.0, 0.0, 1.6878030669238772E9, 0.0, 2023-06-26 13:11:06.923
152.0, 48695.13049067622, 52502.50428944878, 62364.585681508266, -1878.3735487906397, -5154.535788838361, -8093.1643358664915, 21999.011576057863, 14807.538963262912, -0.03, 0.992, 0.052000000000000005, 192.0, 0.0, 0.0, 0.0, 0.0, 0.0, 0.0, 0.0, 0.0, 0.0, 1.6878030669239528E9, 0.0, 2023-06-26 13:11:06.923
153.0, 48672.778746220916, 52481.024263027226, 63684.478543338606, -1901.3734938351506, -5202.636742906183, -8120.634629802064, 21953.391665624582, 14769.920977344631, -0.054, 0.988, 0.058, 192.0, 254.0, 80.0, 30.0, 224.0, 1.0, 208.0, 0.0, 0.0, 0.0, 1.6878030669239635E9, 0.0, 2023-06-26 13:11:06.923
174.0, 48675.90799044466, 52500.76085338126, 63621.267810018995, -1907.1849473935304, -5192.489050923473, -8121.707513535919, 21944.562726564734, 14759.817988850831, -0.054, 0.988, 0.058, 192.0, 0.0, 0.0, 0.0, 0.0, 0.0, 0.0, 0.0, 0.0, 0.0, 1.6878030669239745E9, 0.0, 2023-06-26 13:11:06.923
172.0, 48768.7124334231, 52596.5157266278, 60674.7714489426, -1791.4252628594952, -5078.361043734675, -8005.9925324907945, 22053.41572206208, 14880.338594953848, -0.054, 0.988, 0.058, 192.0, 0.0, 0.0, 0.0, 0.0, 0.0, 0.0, 0.0, 0.0, 0.0, 1.687803066923985E9, 0.0, 2023-06-26 13:11:06.923
156.0, 48714.30828741888, 52534.37787704205, 61971.55260700615, -1852.0208420778326, -5135.44739907353, -8069.292672788224, 22016.714157666465, 14827.186146639127, -0.054, 0.988, 0.058, 192.0, 0.0, 0.0, 0.0, 0.0, 0.0, 0.0, 0.0, 0.0, 0.0, 1.6878030669239953E9, 0.0, 2023-06-26 13:11:06.923
160.0, 48726.624098613756, 52549.5547115272, 61601.63123627082, -1837.26869073733, -5127.400771069619, -8055.5910534371205, 22019.105794323183, 14837.557356066389, -0.054, 0.988, 0.058, 192.0, 0.0, 0.0, 0.0, 0.0, 0.0, 0.0, 0.0, 0.0, 0.0, 1.687803066924006E9, 0.0, 2023-06-26 13:11:06.924
170.0, 48690.23545864051, 52512.71903666485, 63425.108900679224, -1888.7224064734469, -5189.5162689109175, -8104.966056938894, 21947.803729510753, 14769.228073266517, -0.054, 0.988, 0.058, 192.0, 0.0, 0.0, 0.0, 0.0, 0.0, 0.0, 0.0, 0.0, 0.0, 1.687803066924016E9, 0.0, 2023-06-26 13:11:06.924
163.0, 48788.672541221684, 52607.51278489981, 60443.49794906354, -1744.3748407810738, -5078.316340245765, -7973.202523374859, 22046.576088258756, 14894.867228849796, -0.056, 0.984, 0.058, 192.0, 254.0, 64.0, 30.0, 192.0, 1.0, 208.0, 0.0, 0.0, 0.0, 1.6878030669240265E9, 0.0, 2023-06-26 13:11:06.924
168.0, 48753.69206114913, 52582.16590668749, 60950.50256854327, -1806.7138560669252, -5091.7273869189485, -8021.147015231492, 22047.939544670528, 14867.665155847688, -0.056, 0.984, 0.058, 192.0, 0.0, 0.0, 0.0, 0.0, 0.0, 0.0, 0.0, 0.0, 0.0, 1.6878030669240372E9, 0.0, 2023-06-26 13:11:06.924
175.0, 48761.53752345294, 52579.88602875305, 61299.05567157933, -1798.5778210851934, -5118.214204098488, -8024.745646088797, 21993.53539866631, 14831.723550763554, -0.056, 0.984, 0.058, 192.0, 0.0, 0.0, 0.0, 0.0, 0.0, 0.0, 0.0, 0.0, 0.0, 1.6878030669240477E9, 0.0, 2023-06-26 13:11:06.924
176.0, 48765.896113621726, 52596.3145609277, 60484.75926932803, -1785.166774412009, -5075.947055333502, -8001.455128366367, 22046.866660936674, 14875.264748962492, -0.056, 0.984, 0.058, 192.0, 0.0, 0.0, 0.0, 0.0, 0.0, 0.0, 0.0, 0.0, 0.0, 1.687803066924058E9, 0.0, 2023-06-26 13:11:06.924
177.0, 48704.54057509191, 52536.63540323203, 62127.456024581916, -1871.9362463875111, -5127.981916425457, -8083.776603195263, 22003.3925179711, 14808.477736530036, -0.056, 0.984, 0.058, 192.0, 0.0, 0.0, 0.0, 0.0, 0.0, 0.0, 0.0, 0.0, 0.0, 1.6878030669240713E9, 0.0, 2023-06-26 13:11:06.924
183.0, 48735.22952022905, 52553.84624646261, 62300.547933643815, -1834.7652953583356, -5144.946890467035, -8074.83590541314, 21960.901851761562, 14786.774192663932, -0.07, 0.978, 0.064, 192.0, 253.0, 208.0, 30.0, 144.0, 2.0, 0.0, 0.0, 0.0, 0.0, 1.6878030669240818E9, 0.0, 2023-06-26 13:11:06.924
189.0, 48738.38111619725, 52571.749993771315, 61112.73152979989, -1837.3133942262405, -5087.569962450262, -8050.025469067749, 22026.63833220462, 14839.524309578457, -0.07, 0.978, 0.064, 192.0, 0.0, 0.0, 0.0, 0.0, 0.0, 0.0, 0.0, 0.0, 0.0, 1.6878030669240932E9, 0.0, 2023-06-26 13:11:06.924
180.0, 48782.123480096285, 52611.44669192394, 60403.15305032171, -1764.3796520685737, -5071.744927375905, -7985.2724653807245, 22044.273858579858, 14883.445487433135, -0.07, 0.978, 0.064, 192.0, 0.0, 0.0, 0.0, 0.0, 0.0, 0.0, 0.0, 0.0, 0.0, 1.6878030669241047E9, 0.0, 2023-06-26 13:11:06.924
187.0, 48711.69313331761, 52534.93667065343, 62807.82077405701, -1870.1928103199973, -5163.074155220289, -8097.142946379537, 21940.271191629316, 14764.690669142088, -0.07, 0.978, 0.064, 192.0, 0.0, 0.0, 0.0, 0.0, 0.0, 0.0, 0.0, 0.0, 0.0, 1.6878030669241312E9, 0.0, 2023-06-26 13:11:06.924
184.0, 48786.63853247625, 52614.8665088256, 60380.73425063304, -1759.9987101553334, -5065.687604628516, -7990.4357183499005, 22040.161137600084, 14876.829371074364, -0.07, 0.978, 0.064, 192.0, 0.0, 0.0, 0.0, 0.0, 0.0, 0.0, 0.0, 0.0, 0.0, 1.687803066924142E9, 0.0, 2023-06-26 13:11:06.924
185.0, 48735.36363069578, 52568.9113222255, 61425.275972518444, -1840.17441751652, -5099.863421900681, -8058.541483705221, 22020.469250734957, 14827.901402461697, -0.07, 0.978, 0.064, 192.0, 0.0, 0.0, 0.0, 0.0, 0.0, 0.0, 0.0, 0.0, 0.0, 1.6878030669241524E9, 0.0, 2023-06-26 13:11:06.924
190.0, 48667.235513596, 52501.40905397046, 63148.01432466678, -1920.104255688698, -5158.02266097339, -8128.748313039341, 21966.042752986283, 14767.596395921279, -0.07, 0.978, 0.064, 192.0, 0.0, 0.0, 0.0, 0.0, 0.0, 0.0, 0.0, 0.0, 0.0, 1.6878030669241629E9, 0.0, 2023-06-26 13:11:06.924
202.0, 48702.126586690734, 52539.56348175568, 62015.83141277211, -1881.9498279034888, -5109.7428929499265, -8087.442289285933, 22008.68988140701, 14807.963646407563, -0.07, 0.978, 0.064, 192.0, 0.0, 0.0, 0.0, 0.0, 0.0, 0.0, 0.0, 0.0, 0.0, 1.6878030669241743E9, 0.0, 2023-06-26 13:11:06.924
192.0, 48775.619122459786, 52602.34953193063, 60689.5236002831, -1779.757652253825, -5078.092822801212, -8000.292837654691, 22022.480907735935, 14863.150103467717, -0.07, 0.978, 0.064, 192.0, 0.0, 0.0, 0.0, 0.0, 0.0, 0.0, 0.0, 0.0, 0.0, 1.687803066924186E9, 0.0, 2023-06-26 13:11:06.924
193.0, 48749.17700876916, 52586.368034645086, 60827.32210485007, -1817.0180102608217, -5075.455316955486, -8023.583355377121, 22045.234983591436, 14861.831350544853, -0.07, 0.978, 0.064, 192.0, 0.0, 0.0, 0.0, 0.0, 0.0, 0.0, 0.0, 0.0, 0.0, 1.687803066924198E9, 0.0, 2023-06-26 13:11:06.924
194.0, 48679.86424921325, 52520.43038850193, 62771.40978233931, -1901.7534734908909, -5138.73310550846, -8108.162356396003, 21987.947462552485, 14787.891779886697, -0.08, 0.98, 0.064, 192.0, 253.0, 128.0, 30.0, 160.0, 2.0, 0.0, 0.0, 0.0, 0.0, 1.6878030669242084E9, 0.0, 2023-06-26 13:11:06.924
200.0, 48750.92044483667, 52577.85202000762, 61457.373077556265, -1814.5369666262827, -5103.372645780164, -8033.909861315473, 21994.652985889075, 14823.341646592815, -0.08, 0.98, 0.064, 192.0, 0.0, 0.0, 0.0, 0.0, 0.0, 0.0, 0.0, 0.0, 0.0, 1.6878030669242196E9, 0.0, 2023-06-26 13:11:06.924
196.0, 48770.25470379052, 52600.53904062975, 61019.72592112135, -1782.1492889105427, -5086.9664653499685, -8004.696131312387, 22017.07178557775, 14854.254109174504, -0.08, 0.98, 0.064, 192.0, 0.0, 0.0, 0.0, 0.0, 0.0, 0.0, 0.0, 0.0, 0.0, 1.68780306692423E9, 0.0, 2023-06-26 13:11:06.924
197.0, 48766.6113694443, 52605.74699708784, 60600.87658177335, -1787.5807628131824, -5054.645842867594, -7997.901200997973, 22061.37294308817, 14884.384260700257, -0.08, 0.98, 0.064, 192.0, 0.0, 0.0, 0.0, 0.0, 0.0, 0.0, 0.0, 0.0, 0.0, 1.6878030669242527E9, 0.0, 2023-06-26 13:11:06.924
198.0, 48686.5921242943, 52528.45466476139, 62385.708080018536, -1889.683531485025, -5123.578622767762, -8094.371330067079, 22000.486791191914, 14801.63810272671, -0.08, 0.98, 0.064, 192.0, 0.0, 0.0, 0.0, 0.0, 0.0, 0.0, 0.0, 0.0, 0.0, 1.6878030669242637E9, 0.0, 2023-06-26 13:11:06.924
204.0, 48734.290746961924, 52566.4079268465, 61932.52646118718, -1828.1938824884753, -5112.53686100684, -8043.074076542149, 21986.87457881863, 14817.150213378694, -0.096, 0.984, 0.062, 192.0, 253.0, 0.0, 30.0, 192.0, 1.0, 240.0, 0.0, 0.0, 0.0, 1.687803066924274E9, 0.0, 2023-06-26 13:11:06.924
205.0, 48763.593883942835, 52606.574011632685, 60405.8576114008, -1780.3164458652075, -5043.961709017958, -7989.876924738518, 22067.78789374684, 14892.47559219308, -0.096, 0.984, 0.062, 192.0, 0.0, 0.0, 0.0, 0.0, 0.0, 0.0, 0.0, 0.0, 0.0, 1.6878030669242852E9, 0.0, 2023-06-26 13:11:06.924
206.0, 48702.01482796846, 52550.985223172334, 61676.464876707185, -1870.5504382312822, -5091.190945052022, -8073.2042280679025, 22030.84046016222, 14826.113262905272, -0.096, 0.984, 0.062, 192.0, 0.0, 0.0, 0.0, 0.0, 0.0, 0.0, 0.0, 0.0, 0.0, 1.6878030669242973E9, 0.0, 2023-06-26 13:11:06.924
207.0, 48647.744792430974, 52495.88817309, 63605.01809179999, -1927.0332964698432, -5147.964375968501, -8127.295449649746, 21978.425619414524, 14769.898625600175, -0.096, 0.984, 0.062, 192.0, 0.0, 0.0, 0.0, 0.0, 0.0, 0.0, 0.0, 0.0, 0.0, 1.6878030669243078E9, 0.0, 2023-06-26 13:11:06.924
208.0, 48709.904993761185, 52547.855978948595, 62441.96742081254, -1856.4464874799835, -5118.01303839839, -8070.276149544257, 21984.52764565082, 14798.330044547325, -0.096, 0.984, 0.062, 192.0, 0.0, 0.0, 0.0, 0.0, 0.0, 0.0, 0.0, 0.0, 0.0, 1.687803066924361E9, 0.0, 2023-06-26 13:11:06.924
209.0, 48763.77269789847, 52610.284401212266, 60442.44741707414, -1772.5827422836712, -5034.797493791281, -7983.506677568756, 22066.245623379426, 14890.978025314573, -0.096, 0.984, 0.062, 192.0, 0.0, 0.0, 0.0, 0.0, 0.0, 0.0, 0.0, 0.0, 0.0, 1.687803066924374E9, 0.0, 2023-06-26 13:11:06.924
210.0, 48717.90691827618, 52572.93463622745, 61345.54730004637, -1848.9139495985448, -5066.559322662273, -8049.936062089928, 22043.536251012833, 14841.93829797963, -0.096, 0.984, 0.062, 192.0, 0.0, 0.0, 0.0, 0.0, 0.0, 0.0, 0.0, 0.0, 0.0, 1.6878030669243846E9, 0.0, 2023-06-26 13:11:06.924
211.0, 48655.76906869043, 52512.02613258674, 63353.22569051095, -1923.4123138680834, -5130.909994949102, -8119.360580368112, 21985.131142751117, 14777.654680926167, -0.096, 0.984, 0.062, 192.0, 0.0, 0.0, 0.0, 0.0, 0.0, 0.0, 0.0, 0.0, 0.0, 1.687803066924395E9, 0.0, 2023-06-26 13:11:06.924
212.0, 48694.01290345346, 52537.015382887774, 62916.651417809895, -1876.518354000849, -5131.669954260583, -8085.229466584858, 21968.34498266518, 14781.074497827829, -0.096, 0.984, 0.062, 192.0, 0.0, 0.0, 0.0, 0.0, 0.0, 0.0, 0.0, 0.0, 0.0, 1.6878030669244068E9, 0.0, 2023-06-26 13:11:06.924
213.0, 48762.87862812026, 52611.200822734936, 60581.98935770862, -1777.7906987417578, -5043.581729362218, -7985.227761891814, 22048.20776560399, 14879.04219377544, -0.096, 0.984, 0.062, 192.0, 0.0, 0.0, 0.0, 0.0, 0.0, 0.0, 0.0, 0.0, 0.0, 1.687803066924418E9, 0.0, 2023-06-26 13:11:06.924
214.0, 48733.5531393949, 52588.178525945965, 61062.14953209753, -1825.5340248982936, -5043.693488084494, -8024.700942599887, 22060.54592854332, 14861.630184844755, -0.108, 0.986, 0.062, 192.0, 252.0, 160.0, 30.0, 208.0, 1.0, 240.0, 0.0, 0.0, 0.0, 1.6878030669244287E9, 0.0, 2023-06-26 13:11:06.924
215.0, 48659.59121699229, 52515.58005995513, 63007.13127936498, -1907.7213892604577, -5108.401788282608, -8106.843603473139, 22002.811372615262, 14788.361166520259, -0.108, 0.986, 0.062, 192.0, 0.0, 0.0, 0.0, 0.0, 0.0, 0.0, 0.0, 0.0, 0.0, 1.6878030669244397E9, 0.0, 2023-06-26 13:11:06.924
216.0, 48674.36572007724, 52524.65486820399, 63291.60193104768, -1895.1597088765752, -5135.737971751449, -8104.183745882959, 21961.617107584134, 14769.295128499882, -0.108, 0.986, 0.062, 192.0, 0.0, 0.0, 0.0, 0.0, 0.0, 0.0, 0.0, 0.0, 0.0, 1.6878030669244504E9, 0.0, 2023-06-26 13:11:06.924
217.0, 48763.68329092066, 52613.19012799146, 60804.7021394613, -1782.5069168218276, -5042.240624694899, -7994.637846307498, 22031.108681095684, 14866.569920369378, -0.108, 0.986, 0.062, 192.0, 0.0, 0.0, 0.0, 0.0, 0.0, 0.0, 0.0, 0.0, 0.0, 1.6878030669244616E9, 0.0, 2023-06-26 13:11:06.924
218.0, 48740.45982843159, 52600.33787492965, 60847.72924753777, -1811.7429985693693, -5031.176511189522, -8012.58629710511, 22061.395294832622, 14871.867283805286, -0.108, 0.986, 0.062, 192.0, 0.0, 0.0, 0.0, 0.0, 0.0, 0.0, 0.0, 0.0, 0.0, 1.6878030669244723E9, 0.0, 2023-06-26 13:11:06.924
219.0, 48671.951731676076, 52528.141740339015, 62649.458664591155, -1896.2549443548853, -5090.319227018264, -8094.237219600346, 22008.332253495726, 14802.487469016012, -0.108, 0.986, 0.062, 192.0, 0.0, 0.0, 0.0, 0.0, 0.0, 0.0, 0.0, 0.0, 0.0, 1.6878030669244828E9, 0.0, 2023-06-26 13:11:06.924
220.0, 48665.5367810174, 52514.32836226563, 63558.72762903305, -1905.0615316702763, -5131.222919371477, -8107.93883895145, 21964.8357587857, 14773.49725645748, -0.108, 0.986, 0.062, 192.0, 0.0, 0.0, 0.0, 0.0, 0.0, 0.0, 0.0, 0.0, 0.0, 1.6878030669244933E9, 0.0, 2023-06-26 13:11:06.924
221.0, 48756.17310478367, 52599.108528984616, 61155.62452740962, -1794.5321553387828, -5049.281424198321, -8005.277276668225, 22024.82784090374, 14854.857606274798, -0.108, 0.986, 0.062, 192.0, 0.0, 0.0, 0.0, 0.0, 0.0, 0.0, 0.0, 0.0, 0.0, 1.6878030669245036E9, 0.0, 2023-06-26 13:11:06.924
222.0, 48760.84461937483, 52613.078369269184, 60681.34286181246, -1791.1793936704867, -5014.5915168036845, -7990.100442183071, 22071.990021704438, 14888.027595046473, -0.108, 0.986, 0.062, 192.0, 0.0, 0.0, 0.0, 0.0, 0.0, 0.0, 0.0, 0.0, 0.0, 1.6878030669245138E9, 0.0, 2023-06-26 13:11:06.924
223.0, 48687.97793245053, 52541.284566078735, 62280.23019793394, -1887.1577843615753, -5076.997587322901, -8081.429670027455, 22017.764689655865, 14810.399986553191, -0.108, 0.986, 0.062, 192.0, 0.0, 0.0, 0.0, 0.0, 0.0, 0.0, 0.0, 0.0, 0.0, 1.6878030669245408E9, 0.0, 2023-06-26 13:11:06.924
224.0, 48654.07033611183, 52506.54995519519, 63696.347319644374, -1923.1887964235302, -5129.747704237426, -8117.237164644857, 21968.166168709537, 14768.132837788206, -0.12, 0.98, 0.076, 192.0, 252.0, 64.0, 30.0, 160.0, 2.0, 96.0, 0.0, 0.0, 0.0, 1.6878030669245605E9, 0.0, 2023-06-26 13:11:06.924
225.0, 48743.74553486652, 52586.725662556375, 61567.16484632073, -1818.046190505766, -5057.730383602427, -8023.91863154395, 22012.4449744755, 14837.51265257748, -0.12, 0.98, 0.076, 192.0, 0.0, 0.0, 0.0, 0.0, 0.0, 0.0, 0.0, 0.0, 0.0, 1.6878030669245882E9, 0.0, 2023-06-26 13:11:06.924
226.0, 48763.258607776, 52617.86164258262, 60578.1001541734, -1788.944219224956, -5003.817975976226, -7982.836125235096, 22078.02499270737, 14897.28121725097, -0.12, 0.98, 0.076, 192.0, 0.0, 0.0, 0.0, 0.0, 0.0, 0.0, 0.0, 0.0, 0.0, 1.6878030669246042E9, 0.0, 2023-06-26 13:11:06.924
227.0, 48696.53865057691, 52551.38755457253, 61939.36609499051, -1882.6650837260586, -5056.56809289075, -8072.64543445652, 22033.187393330027, 14822.782852981432, -0.12, 0.98, 0.076, 192.0, 0.0, 0.0, 0.0, 0.0, 0.0, 0.0, 0.0, 0.0, 0.0, 1.6878030669246151E9, 0.0, 2023-06-26 13:11:06.924
228.0, 48652.796286677876, 52508.852184874086, 63639.84210966136, -1929.0896569597314, -5111.352218550708, -8121.148719924537, 21985.689936362498, 14774.145457046683, -0.12, 0.98, 0.076, 192.0, 0.0, 0.0, 0.0, 0.0, 0.0, 0.0, 0.0, 0.0, 0.0, 1.687803066924626E9, 0.0, 2023-06-26 13:11:06.924
229.0, 48727.89814804771, 52573.53813332774, 62033.019904258246, -1843.2589582513522, -5070.247360497398, -8045.3763062210455, 22005.135954038615, 14814.132727877228, -0.12, 0.98, 0.076, 192.0, 0.0, 0.0, 0.0, 0.0, 0.0, 0.0, 0.0, 0.0, 0.0, 1.6878030669246366E9, 0.0, 2023-06-26 13:11:06.924
230.0, 48766.05257583292, 52622.46610194041, 60542.49382525609, -1780.4505563319394, -5000.442862563475, -7977.762279243741, 22082.540045087346, 14895.224856761082, -0.12, 0.98, 0.076, 192.0, 0.0, 0.0, 0.0, 0.0, 0.0, 0.0, 0.0, 0.0, 0.0, 1.687803066924647E9, 0.0, 2023-06-26 13:11:06.924
231.0, 48707.938040249115, 52563.435144833944, 61633.66128607527, -1869.2093335639638, -5043.961709017958, -8061.380155251045, 22045.659666736086, 14830.60596354079, -0.12, 0.98, 0.076, 192.0, 0.0, 0.0, 0.0, 0.0, 0.0, 0.0, 0.0, 0.0, 0.0, 1.6878030669246628E9, 0.0, 2023-06-26 13:11:06.924
232.0, 48653.3327285448, 52508.38279824052, 63479.75891587245, -1927.2344621699408, -5102.322113790764, -8118.019475700793, 21994.697689377987, 14776.604148936767, -0.12, 0.98, 0.076, 192.0, 0.0, 0.0, 0.0, 0.0, 0.0, 0.0, 0.0, 0.0, 0.0, 1.687803066924674E9, 0.0, 2023-06-26 13:11:06.924
233.0, 48708.921517005154, 52551.655775506, 62519.147994416715, -1868.650539952581, -5084.887753115625, -8071.080812344649, 21986.762820096355, 14794.083213100817, -0.12, 0.98, 0.076, 192.0, 0.0, 0.0, 0.0, 0.0, 0.0, 0.0, 0.0, 0.0, 0.0, 1.6878030669246843E9, 0.0, 2023-06-26 13:11:06.924
234.0, 48766.946645611126, 52615.96174430392, 60596.04860497101, -1787.0443209462549, -5001.403987575053, -7985.764203758741, 22065.37390534567, 14886.731193868065, -0.12, 0.98, 0.076, 192.0, 0.0, 0.0, 0.0, 0.0, 0.0, 0.0, 0.0, 0.0, 0.0, 1.6878030669246948E9, 0.0, 2023-06-26 13:11:06.924
235.0, 48725.014773012976, 52576.42150836247, 61400.19731523959, -1853.8983886120784, -5025.052133208768, -8042.738800375319, 22052.767521472877, 14845.827501514854, -0.124, 0.98, 0.084, 192.0, 252.0, 32.0, 30.0, 160.0, 2.0, 160.0, 0.0, 0.0, 0.0, 1.6878030669247053E9, 0.0, 2023-06-26 13:11:06.924
236.0, 48661.08878387079, 52511.422635486444, 63195.176505467476, -1920.1713109220639, -5080.3950524801085, -8105.882478461562, 22006.67822440603, 14792.250370055483, -0.124, 0.98, 0.084, 192.0, 0.0, 0.0, 0.0, 0.0, 0.0, 0.0, 0.0, 0.0, 0.0, 1.6878030669247165E9, 0.0, 2023-06-26 13:11:06.924
237.0, 48697.36566512176, 52540.97164165636, 62939.33843843204, -1885.0790721272317, -5086.944113605513, -8083.441327028433, 21982.963023538952, 14790.21636131005, -0.124, 0.98, 0.084, 192.0, 0.0, 0.0, 0.0, 0.0, 0.0, 0.0, 0.0, 0.0, 0.0, 1.6878030669247267E9, 0.0, 2023-06-26 13:11:06.924
238.0, 48773.20513405861, 52622.33199147368, 60721.218373920725, -1780.919942965501, -4994.407891560542, -7979.52806705571, 22067.56437630229, 14894.107269538317, -0.124, 0.98, 0.084, 192.0, 0.0, 0.0, 0.0, 0.0, 0.0, 0.0, 0.0, 0.0, 0.0, 1.6878030669247372E9, 0.0, 2023-06-26 13:11:06.924
239.0, 48737.39763944121, 52589.92196201348, 61203.07728088824, -1839.3474029716735, -5008.288324867288, -8025.215032722358, 22070.47010308148, 14869.475647148569, -0.124, 0.98, 0.084, 192.0, 0.0, 0.0, 0.0, 0.0, 0.0, 0.0, 0.0, 0.0, 0.0, 1.6878030669247591E9, 0.0, 2023-06-26 13:11:06.924
240.0, 48671.48234504251, 52524.05137110369, 62844.56704194153, -1912.61642129617, -5063.832409838726, -8094.259571344802, 22021.229210046436, 14808.611846996768, -0.124, 0.98, 0.084, 192.0, 0.0, 0.0, 0.0, 0.0, 0.0, 0.0, 0.0, 0.0, 0.0, 1.6878030669247699E9, 0.0, 2023-06-26 13:11:06.924
241.0, 48677.606723023266, 52523.49257749231, 63282.8847507101, -1907.9225549605555, -5092.040311341323, -8095.175992867469, 21983.365354939146, 14786.997710108484, -0.124, 0.98, 0.084, 192.0, 0.0, 0.0, 0.0, 0.0, 0.0, 0.0, 0.0, 0.0, 0.0, 1.6878030669247801E9, 0.0, 2023-06-26 13:11:06.924
242.0, 48759.4588112186, 52605.5681831322, 60963.2877663717, -1804.1434054545648, -5009.070635923224, -7995.4872125968, 22043.469195779468, 14873.163684983694, -0.124, 0.98, 0.084, 192.0, 0.0, 0.0, 0.0, 0.0, 0.0, 0.0, 0.0, 0.0, 0.0, 1.6878030669247909E9, 0.0, 2023-06-26 13:11:06.924
243.0, 48738.33641270833, 52593.49824112633, 61138.6819051125, -1832.9995075463662, -5001.538098041785, -8010.127605215026, 22068.83842573624, 14879.444525175635, -0.124, 0.98, 0.084, 192.0, 0.0, 0.0, 0.0, 0.0, 0.0, 0.0, 0.0, 0.0, 0.0, 1.687803066924801E9, 0.0, 2023-06-26 13:11:06.924
244.0, 48673.762222976955, 52528.007629872285, 62483.94399689961, -1905.6650287705695, -5047.739153830905, -8085.2965218182235, 22026.50422173789, 14812.433995298625, -0.124, 0.98, 0.084, 192.0, 0.0, 0.0, 0.0, 0.0, 0.0, 0.0, 0.0, 0.0, 0.0, 1.6878030669248111E9, 0.0, 2023-06-26 13:11:06.924
245.0, 48653.46683901153, 52506.192327283905, 63488.878427610216, -1922.9876307234326, -5089.559267706784, -8103.244972615836, 21984.214721228447, 14780.225131538527, -0.138, 0.976, 0.08600000000000001, 192.0, 251.0, 176.0, 30.0, 128.0, 2.0, 176.0, 0.0, 0.0, 0.0, 1.6878030669248216E9, 0.0, 2023-06-26 13:11:06.924
246.0, 48743.20909299959, 52592.29124692574, 61291.72429939799, -1816.7274375829027, -5011.4846243243965, -8003.980875489817, 22034.439091019525, 14859.41736214368, -0.138, 0.976, 0.08600000000000001, 192.0, 0.0, 0.0, 0.0, 0.0, 0.0, 0.0, 0.0, 0.0, 0.0, 1.6878030669248333E9, 0.0, 2023-06-26 13:11:06.924
247.0, 48744.75136336701, 52605.05409300973, 61158.239681510895, -1818.8732050506121, -4978.918132653014, -7999.912857998951, 22086.295138155838, 14892.90027533773, -0.138, 0.976, 0.08600000000000001, 192.0, 0.0, 0.0, 0.0, 0.0, 0.0, 0.0, 0.0, 0.0, 0.0, 1.6878030669248438E9, 0.0, 2023-06-26 13:11:06.924
248.0, 48686.32390336083, 52541.08340037864, 62205.754185408856, -1898.4230635670501, -5024.023952963824, -8074.947664135417, 22037.277762565347, 14824.615696026767, -0.138, 0.976, 0.08600000000000001, 192.0, 0.0, 0.0, 0.0, 0.0, 0.0, 0.0, 0.0, 0.0, 0.0, 1.687803066924854E9, 0.0, 2023-06-26 13:11:06.924
249.0, 48658.98771989199, 52513.27783027623, 63487.93965434309, -1931.9059767611, -5071.074375042245, -8107.782376740262, 21990.786134098307, 14786.528323474924, -0.138, 0.976, 0.08600000000000001, 192.0, 0.0, 0.0, 0.0, 0.0, 0.0, 0.0, 0.0, 0.0, 0.0, 1.6878030669248643E9, 0.0, 2023-06-26 13:11:06.924
250.0, 48738.4034679417, 52586.12216545608, 61621.70310279168, -1830.5184639118272, -5013.920964470025, -8020.5435181312, 22023.196163558503, 14844.061713702884, -0.138, 0.976, 0.08600000000000001, 192.0, 0.0, 0.0, 0.0, 0.0, 0.0, 0.0, 0.0, 0.0, 0.0, 1.6878030669248748E9, 0.0, 2023-06-26 13:11:06.924
251.0, 48739.78927609793, 52601.43311040797, 61204.30662683328, -1816.6603823495368, -4973.9113418950255, -7994.593142818588, 22080.70720204201, 14893.66023464921, -0.138, 0.976, 0.08600000000000001, 192.0, 0.0, 0.0, 0.0, 0.0, 0.0, 0.0, 0.0, 0.0, 0.0, 1.6878030669248855E9, 0.0, 2023-06-26 13:11:06.924
252.0, 48695.577525565335, 52548.772400471265, 62042.36293344056, -1889.683531485025, -5009.830595234704, -8065.626986697554, 22041.25637307839, 14830.874184474253, -0.138, 0.976, 0.08600000000000001, 192.0, 0.0, 0.0, 0.0, 0.0, 0.0, 0.0, 0.0, 0.0, 0.0, 1.6878030669248974E9, 0.0, 2023-06-26 13:11:06.924
253.0, 48646.426039508115, 52505.119443550044, 63391.35776655171, -1932.5094738613934, -5056.724555101938, -8103.9602284384055, 22002.40904121507, 14792.898570644686, -0.138, 0.976, 0.08600000000000001, 192.0, 0.0, 0.0, 0.0, 0.0, 0.0, 0.0, 0.0, 0.0, 0.0, 1.687803066924908E9, 0.0, 2023-06-26 13:11:06.924
254.0, 48716.610517097775, 52565.178580901455, 62024.32507566513, -1859.687490426003, -5024.962726230947, -8043.275242242246, 22007.840515117707, 14822.134652392228, -0.138, 0.976, 0.08600000000000001, 192.0, 0.0, 0.0, 0.0, 0.0, 0.0, 0.0, 0.0, 0.0, 0.0, 1.6878030669249184E9, 0.0, 2023-06-26 13:11:06.924
255.0, 48748.05942154639, 52610.32910470118, 61105.422509363, -1809.3513619126513, -4959.159190554523, -7984.981892702805, 22081.869492753685, 14898.063528306906, -0.15, 0.97, 0.092, 192.0, 251.0, 80.0, 30.0, 80.0, 2.0, 224.0, 0.0, 0.0, 0.0, 1.6878030669249403E9, 0.0, 2023-06-26 13:11:06.924
0.0, 48697.9915139665, 52552.885121451036, 61910.040606265145, -1889.974104162944, -4999.973475929914, -8060.240216283824, 22044.206803346493, 14833.712856020076, -0.15, 0.97, 0.092, 192.0, 0.0, 0.0, 0.0, 0.0, 0.0, 0.0, 0.0, 0.0, 0.0, 1.6878030669249516E9, 0.0, 2023-06-26 13:11:06.924
1.0, 48650.1811325766, 52507.645190673495, 63178.36799363709, -1936.1751599520637, -5042.195921205988, -8105.234277872358, 22004.68891914951, 14794.373785778736, -0.15, 0.97, 0.092, 192.0, 0.0, 0.0, 0.0, 0.0, 0.0, 0.0, 0.0, 0.0, 0.0, 1.687803066924962E9, 0.0, 2023-06-26 13:11:06.924
2.0, 48703.624153569246, 52555.16499938548, 62442.34740046828, -1882.9333046595223, -5033.635203079606, -8059.659070927986, 21994.720041122444, 14807.02487314044, -0.15, 0.97, 0.092, 192.0, 0.0, 0.0, 0.0, 0.0, 0.0, 0.0, 0.0, 0.0, 0.0, 1.6878030669249725E9, 0.0, 2023-06-26 13:11:06.924
3.0, 48758.832962373854, 52621.08029378418, 60967.802818751676, -1802.2435071758637, -4949.257367760822, -7976.9352646988955, 22077.309736884803, 14900.52222019699, -0.15, 0.97, 0.092, 192.0, 0.0, 0.0, 0.0, 0.0, 0.0, 0.0, 0.0, 0.0, 0.0, 1.687803066924983E9, 0.0, 2023-06-26 13:11:06.924
4.0, 48712.92247926265, 52572.375842616064, 61741.977839705694, -1875.333711544718, -4984.215496088922, -8042.850559097596, 22052.879280195153, 14850.186091683638, -0.15, 0.97, 0.092, 192.0, 0.0, 0.0, 0.0, 0.0, 0.0, 0.0, 0.0, 0.0, 0.0, 1.6878030669249935E9, 0.0, 2023-06-26 13:11:06.924
5.0, 48651.388126777194, 52511.646152930996, 62899.664092023864, -1932.3753633946615, -5028.226080921421, -8099.892210947539, 22011.796773886297, 14798.330044547325, -0.15, 0.97, 0.092, 192.0, 0.0, 0.0, 0.0, 0.0, 0.0, 0.0, 0.0, 0.0, 0.0, 1.6878030669250035E9, 0.0, 2023-06-26 13:11:06.925
6.0, 48677.49496430099, 52533.662621219475, 62840.14139653938, -1907.6096305381814, -5046.152179974578, -8081.675539216464, 21985.086439262206, 14790.909265388163, -0.15, 0.97, 0.092, 192.0, 0.0, 0.0, 0.0, 0.0, 0.0, 0.0, 0.0, 0.0, 0.0, 1.6878030669250138E9, 0.0, 2023-06-26 13:11:06.925
7.0, 48739.16342725318, 52599.89084004055, 60936.39861779197, -1821.5777661297043, -4969.1727720705, -7996.470689352834, 22053.438073806534, 14875.152990240216, -0.15, 0.97, 0.092, 192.0, 0.0, 0.0, 0.0, 0.0, 0.0, 0.0, 0.0, 0.0, 0.0, 1.687803066925024E9, 0.0, 2023-06-26 13:11:06.925
8.0, 48705.81462452586, 52570.02890944826, 61591.37178556583, -1877.8818104126228, -4985.690711222972, -8036.9273468169395, 22051.202899361004, 14852.309507406891, -0.15, 0.97, 0.092, 192.0, 0.0, 0.0, 0.0, 0.0, 0.0, 0.0, 0.0, 0.0, 0.0, 1.6878030669250343E9, 0.0, 2023-06-26 13:11:06.925
9.0, 48653.15391458916, 52513.76956865425, 62638.10397840786, -1934.7670000513795, -5023.3981041190755, -8089.163373608992, 22012.31086400877, 14808.45538478558, -0.158, 0.97, 0.1, 192.0, 251.0, 16.0, 30.0, 80.0, 3.0, 32.0, 0.0, 0.0, 0.0, 1.6878030669250448E9, 0.0, 2023-06-26 13:11:06.925
10.0, 48655.25497856796, 52514.931859365926, 63179.28441515975, -1936.9798227524548, -5058.110363258167, -8097.277056846268, 21982.717154349943, 14780.515704216446, -0.158, 0.97, 0.1, 192.0, 0.0, 0.0, 0.0, 0.0, 0.0, 0.0, 0.0, 0.0, 0.0, 1.6878030669250557E9, 0.0, 2023-06-26 13:11:06.925
11.0, 48740.68334587614, 52603.22124996439, 61030.83473811564, -1822.1589114855424, -4963.517780723308, -7992.357968373057, 22053.79570171782, 14875.443562918135, -0.158, 0.97, 0.1, 192.0, 0.0, 0.0, 0.0, 0.0, 0.0, 0.0, 0.0, 0.0, 0.0, 1.6878030669250662E9, 0.0, 2023-06-26 13:11:06.925
12.0, 48711.73783680652, 52581.87533400957, 61379.141971962694, -1859.3075107702628, -4966.848190647148, -8019.560041375165, 22069.08429492525, 14869.967385526585, -0.158, 0.97, 0.1, 192.0, 0.0, 0.0, 0.0, 0.0, 0.0, 0.0, 0.0, 0.0, 0.0, 1.6878030669250765E9, 0.0, 2023-06-26 13:11:06.925
13.0, 48661.044080381886, 52524.94544088191, 62322.38558797665, -1921.6241743116589, -5002.99096143138, -8073.271283301268, 22036.830727676243, 14823.31929484836, -0.158, 0.97, 0.1, 192.0, 0.0, 0.0, 0.0, 0.0, 0.0, 0.0, 0.0, 0.0, 0.0, 1.6878030669250867E9, 0.0, 2023-06-26 13:11:06.925
14.0, 48647.118943586225, 52509.72390290784, 63332.17034723406, -1937.1809884525526, -5041.659479339061, -8091.532658521254, 21997.558712668266, 14794.709061945567, -0.158, 0.97, 0.1, 192.0, 0.0, 0.0, 0.0, 0.0, 0.0, 0.0, 0.0, 0.0, 0.0, 1.6878030669251397E9, 0.0, 2023-06-26 13:11:06.925
15.0, 48727.60757536979, 52587.32915965666, 61266.35506944121, -1843.594234418182, -4977.107641352134, -8008.58533484761, 22035.377864286645, 14856.444580131125, -0.158, 0.97, 0.1, 192.0, 0.0, 0.0, 0.0, 0.0, 0.0, 0.0, 0.0, 0.0, 0.0, 1.6878030669251504E9, 0.0, 2023-06-26 13:11:06.925
16.0, 48716.677572331144, 52587.93265675696, 61207.50292629039, -1852.8255048782237, -4953.146571296045, -8009.434701136912, 22078.963765974495, 14884.89835082273, -0.158, 0.97, 0.1, 192.0, 0.0, 0.0, 0.0, 0.0, 0.0, 0.0, 0.0, 0.0, 0.0, 1.6878030669251606E9, 0.0, 2023-06-26 13:11:06.925
17.0, 48674.186906121606, 52536.21072008738, 62092.788468931736, -1916.5056248313936, -4984.394310044564, -8067.6833471874415, 22046.084349880737, 14831.947068208108, -0.158, 0.97, 0.1, 192.0, 0.0, 0.0, 0.0, 0.0, 0.0, 0.0, 0.0, 0.0, 0.0, 1.6878030669251728E9, 0.0, 2023-06-26 13:11:06.925
18.0, 48633.64084167968, 52497.27398124623, 63398.73384222196, -1954.6377008721474, -5034.305755413265, -8106.4636238174, 22003.861904604662, 14789.5905124653, -0.158, 0.97, 0.1, 192.0, 0.0, 0.0, 0.0, 0.0, 0.0, 0.0, 0.0, 0.0, 0.0, 1.687803066925183E9, 0.0, 2023-06-26 13:11:06.925
19.0, 48707.938040249115, 52562.49637156682, 61657.48824566463, -1869.365795775151, -4984.08138562219, -8032.322887459146, 22025.543096726313, 14837.333838621837, -0.158, 0.97, 0.1, 192.0, 0.0, 0.0, 0.0, 0.0, 0.0, 0.0, 0.0, 0.0, 0.0, 1.6878030669251933E9, 0.0, 2023-06-26 13:11:06.925
20.0, 48720.186796210626, 52588.02206373478, 61061.63544197506, -1845.6282431636148, -4937.589757155151, -7998.1247184425265, 22082.048306709326, 14891.268597992492, -0.168, 0.96, 0.094, 192.0, 250.0, 192.0, 30.0, 0.0, 2.0, 240.0, 0.0, 0.0, 0.0, 1.6878030669252033E9, 0.0, 2023-06-26 13:11:06.925
21.0, 48673.695167743586, 52535.473112520354, 61899.401175904415, -1920.6630493000805, -4975.163039584522, -8070.142039077526, 22042.865698679176, 14827.767291994965, -0.168, 0.96, 0.094, 192.0, 0.0, 0.0, 0.0, 0.0, 0.0, 0.0, 0.0, 0.0, 0.0, 1.6878030669252143E9, 0.0, 2023-06-26 13:11:06.925
22.0, 48627.09178055427, 52490.590809654095, 63300.09559394069, -1966.2829597333623, -5024.426284364019, -8113.660885532008, 21999.033927802317, 14787.623558953233, -0.168, 0.96, 0.094, 192.0, 0.0, 0.0, 0.0, 0.0, 0.0, 0.0, 0.0, 0.0, 0.0, 1.6878030669252245E9, 0.0, 2023-06-26 13:11:06.925
23.0, 48698.72912153353, 52554.717964496376, 62078.304538524695, -1892.8351274532233, -4992.239772348377, -8052.104181302093, 22004.73362263842, 14817.574896523345, -0.168, 0.96, 0.094, 192.0, 0.0, 0.0, 0.0, 0.0, 0.0, 0.0, 0.0, 0.0, 0.0, 1.687803066925259E9, 0.0, 2023-06-26 13:11:06.925
24.0, 48739.07402027536, 52606.864584310606, 60950.815492965645, -1836.3746209591177, -4924.73750409335, -7987.1500119149705, 22080.662498553098, 14896.27538875048, -0.168, 0.96, 0.094, 192.0, 0.0, 0.0, 0.0, 0.0, 0.0, 0.0, 0.0, 0.0, 0.0, 1.6878030669253354E9, 0.0, 2023-06-26 13:11:06.925
25.0, 48690.36956910724, 52553.06393540668, 61776.5336366336, -1917.9137847320778, -4966.60232145814, -8057.200379037903, 22045.302038824804, 14837.870280488763, -0.168, 0.96, 0.094, 192.0, 0.0, 0.0, 0.0, 0.0, 0.0, 0.0, 0.0, 0.0, 0.0, 1.6878030669253728E9, 0.0, 2023-06-26 13:11:06.925
26.0, 48642.782705161895, 52509.79095814121, 63089.72097512734, -1958.9515875520217, -5005.56141204374, -8094.88542018955, 22011.148573297094, 14804.40971903917, -0.168, 0.96, 0.094, 192.0, 0.0, 0.0, 0.0, 0.0, 0.0, 0.0, 0.0, 0.0, 0.0, 1.687803066925387E9, 0.0, 2023-06-26 13:11:06.925
96.0, 48769.1594683122, 52954.99300420201, 63160.53130156175, -698.4249589949798, -4448.578291961943, -7262.998195051932, 22939.885907159558, 15669.533988181829, -0.168, 0.96, 0.094, 192.0, 0.0, 0.0, 0.0, 0.0, 0.0, 0.0, 0.0, 0.0, 0.0, 1.6878030669315755E9, 0.0, 2023-06-26 13:11:06.931
97.0, 48754.563779182885, 52938.74328598301, 63983.32136670606, -733.5619012787225, -4468.761917205085, -7309.422768285605, 22901.329147974153, 15617.722644534428, -0.168, 0.96, 0.094, 192.0, 0.0, 0.0, 0.0, 0.0, 0.0, 0.0, 0.0, 0.0, 0.0, 1.6878030669345765E9, 0.0, 2023-06-26 13:11:06.934
0.0, 0.0, 0.0, 0.0, 0.0, 0.0, 0.0, 0.0, 0.0, -0.168, 0.96, 0.094, 192.0, 0.0, 0.0, 0.0, 0.0, 0.0, 0.0, 0.0, 0.0, 0.0, 1.687803067003902E9, 0.0, 2023-06-26 13:11:07.003
1.0, 48730.513302148975, 52916.61505897225, 64686.57430250339, -728.5774622651891, -4489.437280826245, -7310.719169464013, 22892.567264147674, 15612.961722965447, -0.168, 0.96, 0.094, 192.0, 0.0, 0.0, 0.0, 0.0, 0.0, 0.0, 0.0, 0.0, 0.0, 1.687803067134548E9, 0.0, 2023-06-26 13:11:07.134
2.0, 48767.997177600526, 52944.174759885645, 63907.39249079138, -684.2763047547704, -4484.475193557167, -7268.072041043287, 22888.365136190074, 15634.128824964622, -0.168, 0.96, 0.094, 192.0, 0.0, 0.0, 0.0, 0.0, 0.0, 0.0, 0.0, 0.0, 0.0, 1.6878030671385536E9, 0.0, 2023-06-26 13:11:07.138
3.0, 48793.70168372413, 52980.87632428126, 62448.896461593686, -615.8576149770755, -4413.329590955924, -7189.460955793972, 22966.998573183846, 15723.40169231912, 0.048, 0.984, 0.128, 192.0, 1.0, 128.0, 30.0, 192.0, 4.0, 0.0, 0.0, 0.0, 0.0, 1.6878030671435657E9, 0.0, 2023-06-26 13:11:07.143
4.0, 48750.27224424747, 52937.55864352687, 63396.45396428752, -699.4754909843792, -4461.631710723843, -7274.263474257407, 22922.093918573133, 15646.087008248212, 0.048, 0.984, 0.128, 192.0, 0.0, 0.0, 0.0, 0.0, 0.0, 0.0, 0.0, 0.0, 0.0, 1.687803067148604E9, 0.0, 2023-06-26 13:11:07.148
5.0, 48722.489025889525, 52910.893012391694, 64442.40384607361, -723.0789331291835, -4480.228362110658, -7303.007817626932, 22899.719822373372, 15618.348493379175, 0.048, 0.984, 0.128, 192.0, 0.0, 0.0, 0.0, 0.0, 0.0, 0.0, 0.0, 0.0, 0.0, 1.6878030671516109E9, 0.0, 2023-06-26 13:11:07.151
6.0, 48739.4539999311, 52916.27978280542, 64314.10483290015, -704.839909653653, -4498.2215163971805, -7287.24983778594, 22880.027935508246, 15616.1356706781, 0.048, 0.984, 0.128, 192.0, 0.0, 0.0, 0.0, 0.0, 0.0, 0.0, 0.0, 0.0, 0.0, 1.6878030671556249E9, 0.0, 2023-06-26 13:11:07.155
7.0, 48787.912581910205, 52969.63339682024, 62391.854809743745, -617.2210713888493, -4417.9787538026285, -7197.865211709168, 22958.88488994657, 15715.198602104021, 0.048, 0.984, 0.128, 192.0, 0.0, 0.0, 0.0, 0.0, 0.0, 0.0, 0.0, 0.0, 0.0, 1.6878030671596394E9, 0.0, 2023-06-26 13:11:07.159
8.0, 48753.42384021567, 52941.246681362, 63272.51354128284, -684.678636154966, -4449.248844295603, -7260.271282228385, 22942.72457870538, 15663.342554967709, 0.048, 0.984, 0.128, 192.0, 0.0, 0.0, 0.0, 0.0, 0.0, 0.0, 0.0, 0.0, 0.0, 1.6878030671636612E9, 0.0, 2023-06-26 13:11:07.163
9.0, 48725.52886313544, 52912.792910670396, 64160.43658976992, -726.2081773529264, -4471.824106195463, -7306.8299659287895, 22909.979273078356, 15620.04722595778, 0.048, 0.984, 0.128, 192.0, 0.0, 0.0, 0.0, 0.0, 0.0, 0.0, 0.0, 0.0, 0.0, 1.6878030671686969E9, 0.0, 2023-06-26 13:11:07.168
10.0, 48728.88162480374, 52910.0883495913, 64639.09919728032, -723.7271337183873, -4491.203068638214, -7296.68227394608, 22890.33208970214, 15618.19203116799, 0.048, 0.984, 0.128, 192.0, 0.0, 0.0, 0.0, 0.0, 0.0, 0.0, 0.0, 0.0, 0.0, 1.6878030671727207E9, 0.0, 2023-06-26 13:11:07.172
11.0, 48790.23716333356, 52971.30977765439, 62470.80117115989, -635.6165570755669, -4419.0963410253935, -7203.050816422799, 22951.35235206513, 15706.548476999818, 0.048, 0.984, 0.128, 192.0, 0.0, 0.0, 0.0, 0.0, 0.0, 0.0, 0.0, 0.0, 0.0, 1.6878030671770844E9, 0.0, 2023-06-26 13:11:07.177
12.0, 48760.75521239701, 52951.23791113352, 63145.622688010066, -684.5221739437787, -4438.587062190421, -7243.395715164628, 22950.83826194266, 15681.402764487597, 0.048, 0.984, 0.128, 192.0, 0.0, 0.0, 0.0, 0.0, 0.0, 0.0, 0.0, 0.0, 0.0, 1.6878030671807404E9, 0.0, 2023-06-26 13:11:07.180
13.0, 48734.24604347302, 52920.392503785195, 63922.234049109706, -731.997279166851, -4463.2410363246245, -7299.900925147645, 22910.180438778454, 15623.75761553736, 0.04, 0.984, 0.128, 192.0, 1.0, 64.0, 30.0, 192.0, 4.0, 0.0, 0.0, 0.0, 0.0, 1.687803067184762E9, 0.0, 2023-06-26 13:11:07.184
14.0, 48715.38117115274, 52900.16417505314, 64849.89849923832, -743.9778141948956, -4501.864850743395, -7313.7590067099345, 22881.27963319774, 15606.189144395488, 0.04, 0.984, 0.128, 192.0, 0.0, 0.0, 0.0, 0.0, 0.0, 0.0, 0.0, 0.0, 0.0, 1.687803067189775E9, 0.0, 2023-06-26 13:11:07.189
15.0, 48775.57441897088, 52953.00369894549, 62672.16803695775, -653.743821828821, -4443.772666904052, -7226.2966306563185, 22924.083223829657, 15680.77691564285, 0.04, 0.984, 0.128, 192.0, 0.0, 0.0, 0.0, 0.0, 0.0, 0.0, 0.0, 0.0, 0.0, 1.6878030671928124E9, 0.0, 2023-06-26 13:11:07.192
16.0, 48745.95835756759, 52937.51394003796, 63005.656064230934, -678.3977959630247, -4445.493751227111, -7238.746552317924, 22949.452453786427, 15690.678738436549, 0.04, 0.984, 0.128, 192.0, 0.0, 0.0, 0.0, 0.0, 0.0, 0.0, 0.0, 0.0, 0.0, 1.6878030671958048E9, 0.0, 2023-06-26 13:11:07.195
17.0, 48728.61340387027, 52914.9386781381, 63767.872901901355, -729.3374215766695, -4474.863943441384, -7304.617143227714, 22907.319415488175, 15619.33197013521, 0.04, 0.984, 0.128, 192.0, 0.0, 0.0, 0.0, 0.0, 0.0, 0.0, 0.0, 0.0, 0.0, 1.6878030671988428E9, 0.0, 2023-06-26 13:11:07.198
18.0, 48702.573621579846, 52892.09519530478, 64947.41916029682, -747.4870380743788, -4511.632563070365, -7315.591849755269, 22881.123170986557, 15604.89274321708, 0.04, 0.984, 0.128, 192.0, 0.0, 0.0, 0.0, 0.0, 0.0, 0.0, 0.0, 0.0, 0.0, 1.6878030672028668E9, 0.0, 2023-06-26 13:11:07.202
19.0, 48761.96220659759, 52939.45854180557, 63016.831936458584, -664.450307422913, -4468.761917205085, -7236.399619150116, 22906.179476520956, 15665.465970690962, 0.04, 0.984, 0.128, 192.0, 0.0, 0.0, 0.0, 0.0, 0.0, 0.0, 0.0, 0.0, 0.0, 1.6878030672078688E9, 0.0, 2023-06-26 13:11:07.207
20.0, 48756.73189839505, 52948.488646565515, 62811.70997759223, -651.0392607497288, -4440.151684302293, -7212.438549094028, 22953.49811953284, 15706.481421766452, 0.04, 0.984, 0.128, 192.0, 0.0, 0.0, 0.0, 0.0, 0.0, 0.0, 0.0, 0.0, 0.0, 1.6878030672118826E9, 0.0, 2023-06-26 13:11:07.211
21.0, 48731.8991103052, 52919.02904737342, 63611.63420815876, -721.1119796171165, -4482.016501667083, -7293.374215766695, 22899.18338050644, 15625.009313226858, 0.04, 0.984, 0.128, 192.0, 0.0, 0.0, 0.0, 0.0, 0.0, 0.0, 0.0, 0.0, 0.0, 1.6878030672159095E9, 0.0, 2023-06-26 13:11:07.215
22.0, 48711.31315366187, 52899.89595411968, 64868.249281436125, -738.3675263366135, -4500.903725731817, -7311.21090784203, 22889.058040268188, 15615.308656133255, 0.04, 0.984, 0.128, 192.0, 0.0, 0.0, 0.0, 0.0, 0.0, 0.0, 0.0, 0.0, 0.0, 1.6878030672189085E9, 0.0, 2023-06-26 13:11:07.218
23.0, 48765.60554094381, 52941.939585440115, 63381.18772282454, -675.3356069726476, -4471.108850372893, -7248.871892556178, 22905.173648020467, 15653.664249618561, 0.048, 0.988, 0.12, 192.0, 1.0, 128.0, 30.0, 224.0, 3.0, 192.0, 0.0, 0.0, 0.0, 1.687803067222947E9, 0.0, 2023-06-26 13:11:07.222
24.0, 48762.25277927551, 52952.02022218946, 62600.50834423403, -651.3745369165584, -4436.0613150669715, -7214.941944473022, 22958.571965524196, 15707.599008989217, 0.048, 0.988, 0.12, 192.0, 0.0, 0.0, 0.0, 0.0, 0.0, 0.0, 0.0, 0.0, 0.0, 1.6878030672269592E9, 0.0, 2023-06-26 13:11:07.226
25.0, 48741.152732509705, 52927.85798643327, 63497.260331780955, -717.2004243374378, -4477.993187665127, -7294.49180298946, 22909.44283121143, 15626.305714405265, 0.048, 0.988, 0.12, 192.0, 0.0, 0.0, 0.0, 0.0, 0.0, 0.0, 0.0, 0.0, 0.0, 1.6878030672309794E9, 0.0, 2023-06-26 13:11:07.230
26.0, 48710.15086295019, 52901.304114020364, 64702.86872421131, -737.9428431919627, -4497.439205341245, -7316.821195700311, 22895.29417697122, 15609.541906063785, 0.048, 0.988, 0.12, 192.0, 0.0, 0.0, 0.0, 0.0, 0.0, 0.0, 0.0, 0.0, 0.0, 1.6878030672360275E9, 0.0, 2023-06-26 13:11:07.236
27.0, 48741.73387786554, 52919.38667528471, 63850.59670813045, -698.3132002727033, -4494.846402984429, -7278.130326048175, 22888.655708867995, 15624.495223104386, 0.048, 0.988, 0.12, 192.0, 0.0, 0.0, 0.0, 0.0, 0.0, 0.0, 0.0, 0.0, 0.0, 1.6878030672400365E9, 0.0, 2023-06-26 13:11:07.240
28.0, 48769.964131112596, 52958.52457982595, 62461.50284546648, -636.3094611536815, -4425.8465678508965, -7208.102310669698, 22962.48352080387, 15709.744776456926, 0.048, 0.988, 0.12, 192.0, 0.0, 0.0, 0.0, 0.0, 0.0, 0.0, 0.0, 0.0, 0.0, 1.6878030672440379E9, 0.0, 2023-06-26 13:11:07.244
29.0, 48736.59297664082, 52926.31571606585, 63388.42968802807, -707.9244503884853, -4466.236170081636, -7289.440308742561, 22925.15610756351, 15638.062731988757, 0.048, 0.988, 0.12, 192.0, 0.0, 0.0, 0.0, 0.0, 0.0, 0.0, 0.0, 0.0, 0.0, 1.6878030672480695E9, 0.0, 2023-06-26 13:11:07.248
30.0, 48706.70869430408, 52899.53832620839, 64439.47576754997, -732.4443140559572, -4483.849344712418, -7316.530623022392, 22905.799496865213, 15613.654627043561, 0.048, 0.988, 0.12, 192.0, 0.0, 0.0, 0.0, 0.0, 0.0, 0.0, 0.0, 0.0, 0.0, 1.6878030672520611E9, 0.0, 2023-06-26 13:11:07.252
31.0, 48726.802912569394, 52910.84830890278, 64241.90869830951, -713.5123865023121, -4497.170984407781, -7292.413090755116, 22891.82965658065, 15618.393196868086, 0.048, 0.988, 0.12, 192.0, 0.0, 0.0, 0.0, 0.0, 0.0, 0.0, 0.0, 0.0, 0.0, 1.687803067256101E9, 0.0, 2023-06-26 13:11:07.256
32.0, 48766.14198281074, 52954.47891407954, 62391.58658881028, -638.8352082771312, -4426.204195762181, -7213.042046194321, 22958.482558546373, 15703.754508942904, 0.048, 0.988, 0.12, 192.0, 0.0, 0.0, 0.0, 0.0, 0.0, 0.0, 0.0, 0.0, 0.0, 1.6878030672612033E9, 0.0, 2023-06-26 13:11:07.261
33.0, 48732.63671787223, 52926.22630908803, 63297.14516367259, -704.6834474424658, -4459.26242581158, -7280.7678318939015, 22934.96852337939, 15648.210423971466, 0.052000000000000005, 0.986, 0.126, 192.0, 1.0, 160.0, 30.0, 208.0, 3.0, 240.0, 0.0, 0.0, 0.0, 1.6878030672652037E9, 0.0, 2023-06-26 13:11:07.265
34.0, 48711.00022923949, 52903.47223323253, 64197.875761732554, -736.0652966577169, -4478.730795232153, -7315.301277077351, 22907.230008510352, 15616.1356706781, 0.052000000000000005, 0.986, 0.126, 192.0, 0.0, 0.0, 0.0, 0.0, 0.0, 0.0, 0.0, 0.0, 0.0, 1.6878030672691977E9, 0.0, 2023-06-26 13:11:07.269
35.0, 48716.65522058669, 52899.47127097503, 64588.22662690004, -732.5337210337784, -4507.475138601678, -7308.618105485214, 22881.883130298036, 15609.497202574874, 0.052000000000000005, 0.986, 0.126, 192.0, 0.0, 0.0, 0.0, 0.0, 0.0, 0.0, 0.0, 0.0, 0.0, 1.6878030672731967E9, 0.0, 2023-06-26 13:11:07.273
36.0, 48768.354805511815, 52948.220425632055, 62439.57578415582, -644.9819380023406, -4437.849454623396, -7219.7252177864575, 22942.903392661025, 15694.523238482863, 0.052000000000000005, 0.986, 0.126, 192.0, 0.0, 0.0, 0.0, 0.0, 0.0, 0.0, 0.0, 0.0, 0.0, 1.6878030672762158E9, 0.0, 2023-06-26 13:11:07.276
37.0, 48735.564796395876, 52925.98043989902, 63170.25431039981, -694.1557758040161, -4462.212856079681, -7255.085677514753, 22939.841203670647, 15666.874130591648, 0.052000000000000005, 0.986, 0.126, 192.0, 0.0, 0.0, 0.0, 0.0, 0.0, 0.0, 0.0, 0.0, 0.0, 1.687803067280232E9, 0.0, 2023-06-26 13:11:07.280
38.0, 48722.556081122886, 52910.33421878031, 63941.098921429984, -729.9632704214181, -4484.586952279443, -7303.2536868159405, 22902.06675554118, 15617.47677534542, 0.052000000000000005, 0.986, 0.126, 192.0, 0.0, 0.0, 0.0, 0.0, 0.0, 0.0, 0.0, 0.0, 0.0, 1.6878030672832332E9, 0.0, 2023-06-26 13:11:07.283
39.0, 48706.55223209289, 52893.70452090556, 64819.813051201476, -739.9992036818509, -4521.2885166750575, -7308.662808974124, 22874.305888927687, 15607.731414762906, 0.052000000000000005, 0.986, 0.126, 192.0, 0.0, 0.0, 0.0, 0.0, 0.0, 0.0, 0.0, 0.0, 0.0, 1.6878030672872536E9, 0.0, 2023-06-26 13:11:07.287
40.0, 48767.9077706227, 52949.42741983264, 62630.99612367107, -647.12770547005, -4456.960196132683, -7222.630944565648, 22921.02103483928, 15683.34736625521, 0.052000000000000005, 0.986, 0.126, 192.0, 0.0, 0.0, 0.0, 0.0, 0.0, 0.0, 0.0, 0.0, 0.0, 1.6878030672912662E9, 0.0, 2023-06-26 13:11:07.291
41.0, 48742.44913368811, 52935.30111733689, 63002.571523496095, -673.6145226495889, -4453.383917019834, -7240.937023274544, 22944.915049662002, 15685.023747089357, 0.052000000000000005, 0.986, 0.126, 192.0, 0.0, 0.0, 0.0, 0.0, 0.0, 0.0, 0.0, 0.0, 0.0, 1.687803067295278E9, 0.0, 2023-06-26 13:11:07.295
42.0, 48721.81847355586, 52909.976590869024, 63735.12759627433, -723.995354651851, -4476.875600442362, -7304.7736054389015, 22911.38743297904, 15622.729435292416, 0.052000000000000005, 0.986, 0.126, 192.0, 0.0, 0.0, 0.0, 0.0, 0.0, 0.0, 0.0, 0.0, 0.0, 1.6878030672993102E9, 0.0, 2023-06-26 13:11:07.299
43.0, 48696.85157499929, 52885.859058601745, 64904.63792140936, -743.5531310502447, -4511.632563070365, -7317.357637567239, 22885.86174081108, 15611.464156086942, 0.052000000000000005, 0.986, 0.126, 192.0, 0.0, 0.0, 0.0, 0.0, 0.0, 0.0, 0.0, 0.0, 0.0, 1.6878030673033402E9, 0.0, 2023-06-26 13:11:07.303
44.0, 48757.96124434009, 52934.76467546996, 62933.54933661811, -668.4736214248683, -4467.398460793312, -7241.585223863748, 22905.128944531556, 15667.656441647583, 0.054, 0.98, 0.13, 192.0, 1.0, 176.0, 30.0, 160.0, 4.0, 16.0, 0.0, 0.0, 0.0, 1.6878030673073559E9, 0.0, 2023-06-26 13:11:07.307
45.0, 48746.31598547888, 52939.480893550026, 62824.98691379868, -658.549446886712, -4444.666736682265, -7228.487101612938, 22951.128834620577, 15703.843915920725, 0.054, 0.98, 0.13, 192.0, 0.0, 0.0, 0.0, 0.0, 0.0, 0.0, 0.0, 0.0, 0.0, 1.6878030673113644E9, 0.0, 2023-06-26 13:11:07.311
46.0, 48728.34518293681, 52915.1398438382, 63623.01124608651, -713.3782760355803, -4474.752184719108, -7294.357692522728, 22911.454488212406, 15630.776063296327, 0.054, 0.98, 0.13, 192.0, 0.0, 0.0, 0.0, 0.0, 0.0, 0.0, 0.0, 0.0, 0.0, 1.687803067315371E9, 0.0, 2023-06-26 13:11:07.315
47.0, 48696.91863023265, 52886.17198302412, 64886.22008397819, -738.47928505889, -4500.881373987362, -7311.076797375298, 22891.38262169154, 15618.19203116799, 0.054, 0.98, 0.13, 192.0, 0.0, 0.0, 0.0, 0.0, 0.0, 0.0, 0.0, 0.0, 0.0, 1.6878030673193889E9, 0.0, 2023-06-26 13:11:07.319
48.0, 48748.81938085787, 52924.460521276065, 63331.835071067224, -674.7321098723543, -4470.259484083591, -7243.2616046978965, 22904.503095686807, 15658.805150843282, 0.054, 0.98, 0.13, 192.0, 0.0, 0.0, 0.0, 0.0, 0.0, 0.0, 0.0, 0.0, 0.0, 1.687803067323437E9, 0.0, 2023-06-26 13:11:07.323
49.0, 48748.84173260233, 52936.99984991549, 62624.80469045696, -648.1782374594495, -4429.1322742858265, -7210.762168259879, 22960.091884147154, 15715.042139892834, 0.054, 0.98, 0.13, 192.0, 0.0, 0.0, 0.0, 0.0, 0.0, 0.0, 0.0, 0.0, 0.0, 1.6878030673284495E9, 0.0, 2023-06-26 13:11:07.328
50.0, 48724.88066254624, 52907.249678045475, 63493.616997434736, -717.4909970153567, -4467.353757304401, -7289.507363975927, 22918.09295631563, 15637.146310466089, 0.054, 0.98, 0.13, 192.0, 0.0, 0.0, 0.0, 0.0, 0.0, 0.0, 0.0, 0.0, 0.0, 1.6878030673324673E9, 0.0, 2023-06-26 13:11:07.332
51.0, 48694.30347613138, 52880.405232954654, 64701.21469512161, -740.6697560155102, -4490.0631296709935, -7308.439291529571, 22904.637206153537, 15620.829537013715, 0.054, 0.98, 0.13, 192.0, 0.0, 0.0, 0.0, 0.0, 0.0, 0.0, 0.0, 0.0, 0.0, 1.6878030673364875E9, 0.0, 2023-06-26 13:11:07.336
52.0, 48736.21299698508, 52911.451806003075, 63766.5988524674, -694.1110723151055, -4483.447013312222, -7262.2829392293625, 22899.943339817924, 15646.534043137319, 0.054, 0.98, 0.13, 192.0, 0.0, 0.0, 0.0, 0.0, 0.0, 0.0, 0.0, 0.0, 0.0, 1.6878030673404982E9, 0.0, 2023-06-26 13:11:07.340
53.0, 48756.530732694955, 52942.7442482405, 62469.236549048015, -636.9800134873407, -4427.277079496036, -7202.804947233791, 22963.377590582084, 15721.300628340321, 0.054, 0.98, 0.13, 192.0, 0.0, 0.0, 0.0, 0.0, 0.0, 0.0, 0.0, 0.0, 0.0, 1.6878030673445296E9, 0.0, 2023-06-26 13:11:07.344
54.0, 48731.4520754161, 52917.397370028186, 63405.26055160291, -702.001238107829, -4464.1798095917475, -7274.464639957505, 22927.52539247577, 15651.250261217388, 0.052000000000000005, 0.984, 0.126, 192.0, 1.0, 160.0, 30.0, 192.0, 3.0, 240.0, 0.0, 0.0, 0.0, 1.6878030673485525E9, 0.0, 2023-06-26 13:11:07.348
55.0, 48699.891412245204, 52887.267218502435, 64490.974186775, -731.8631687001191, -4490.644275026832, -7308.662808974124, 22902.022052052267, 15624.674037060027, 0.052000000000000005, 0.984, 0.126, 192.0, 0.0, 0.0, 0.0, 0.0, 0.0, 0.0, 0.0, 0.0, 0.0, 1.687803067353582E9, 0.0, 2023-06-26 13:11:07.353
56.0, 48724.74655207951, 52901.14765180918, 64220.00398874331, -704.2811160422702, -4502.6248100548755, -7281.751308649935, 22885.124133244055, 15627.982095239413, 0.052000000000000005, 0.984, 0.126, 192.0, 0.0, 0.0, 0.0, 0.0, 0.0, 0.0, 0.0, 0.0, 0.0, 1.6878030673565989E9, 0.0, 2023-06-26 13:11:07.356
57.0, 48770.14294506823, 52953.02605068994, 62397.085117946284, -616.4387603329135, -4426.897099840296, -7196.032368663832, 22959.06370390221, 15719.624247506172, 0.052000000000000005, 0.984, 0.126, 192.0, 0.0, 0.0, 0.0, 0.0, 0.0, 0.0, 0.0, 0.0, 0.0, 1.687803067359605E9, 0.0, 2023-06-26 13:11:07.359
58.0, 48736.816494085375, 52924.50522476497, 63310.77972779033, -683.2704762542816, -4465.140934603326, -7263.15465726312, 22929.20177330992, 15661.286194477821, 0.052000000000000005, 0.984, 0.126, 192.0, 0.0, 0.0, 0.0, 0.0, 0.0, 0.0, 0.0, 0.0, 0.0, 1.6878030673626187E9, 0.0, 2023-06-26 13:11:07.362
59.0, 48717.25871768698, 52904.321599521834, 64203.91073273549, -708.2820782997702, -4475.758013219597, -7294.15652682263, 22910.806287623203, 15633.90530752007, 0.052000000000000005, 0.984, 0.126, 192.0, 0.0, 0.0, 0.0, 0.0, 0.0, 0.0, 0.0, 0.0, 0.0, 1.6878030673676476E9, 0.0, 2023-06-26 13:11:07.367
60.0, 48715.60468859729, 52895.26914301743, 64566.70189698957, -711.6795434569768, -4506.357551378912, -7291.027282598888, 22887.873397812058, 15624.51757484884, 0.052000000000000005, 0.984, 0.126, 192.0, 0.0, 0.0, 0.0, 0.0, 0.0, 0.0, 0.0, 0.0, 0.0, 1.6878030673716652E9, 0.0, 2023-06-26 13:11:07.371
61.0, 48776.60259921582, 52952.73547801203, 62428.891650306185, -615.6788010214331, -4425.287774239513, -7192.4337378065275, 22958.63902075756, 15719.780709717359, 0.052000000000000005, 0.984, 0.126, 192.0, 0.0, 0.0, 0.0, 0.0, 0.0, 0.0, 0.0, 0.0, 0.0, 1.6878030673756747E9, 0.0, 2023-06-26 13:11:07.375
62.0, 48733.86606381727, 52919.45373051807, 63192.47194438839, -679.1354035300498, -4456.379050776845, -7254.7056978590135, 22945.965581651402, 15678.228816774943, 0.052000000000000005, 0.984, 0.126, 192.0, 0.0, 0.0, 0.0, 0.0, 0.0, 0.0, 0.0, 0.0, 0.0, 1.6878030673797042E9, 0.0, 2023-06-26 13:11:07.379
63.0, 48719.02450549895, 52904.41100649965, 63968.25629094319, -715.7922644367534, -4469.812449194485, -7295.5646867233145, 22915.2095812809, 15633.011237741857, 0.052000000000000005, 0.984, 0.126, 192.0, 0.0, 0.0, 0.0, 0.0, 0.0, 0.0, 0.0, 0.0, 0.0, 1.6878030673826988E9, 0.0, 2023-06-26 13:11:07.382
64.0, 48709.94969725009, 52891.02231157092, 64783.82674262843, -725.7164389749097, -4501.730740276664, -7302.739596693468, 22893.19311299242, 15621.94712423648, 0.048, 0.982, 0.126, 192.0, 1.0, 128.0, 30.0, 176.0, 3.0, 240.0, 0.0, 0.0, 0.0, 1.6878030673867476E9, 0.0, 2023-06-26 13:11:07.386
65.0, 48777.496668994034, 52952.53431231193, 62557.01184952401, -623.4125046029693, -4432.730905143131, -7208.661104281081, 22948.714846219405, 15707.1072706112, 0.048, 0.982, 0.126, 192.0, 0.0, 0.0, 0.0, 0.0, 0.0, 0.0, 0.0, 0.0, 0.0, 1.6878030673907654E9, 0.0, 2023-06-26 13:11:07.390
66.0, 48745.04193604493, 52933.0435911469, 62996.648311215446, -660.4046416765025, -4442.900948870296, -7237.271337183874, 22963.444645815453, 15700.066471107779, 0.048, 0.982, 0.126, 192.0, 0.0, 0.0, 0.0, 0.0, 0.0, 0.0, 0.0, 0.0, 0.0, 1.6878030673947892E9, 0.0, 2023-06-26 13:11:07.394
67.0, 48724.83595905733, 52905.19331755559, 63744.26945975655, -711.9924678793511, -4468.650158482809, -7301.085567603775, 22921.557476706206, 15635.447577887486, 0.048, 0.982, 0.126, 192.0, 0.0, 0.0, 0.0, 0.0, 0.0, 0.0, 0.0, 0.0, 0.0, 1.687803067399804E9, 0.0, 2023-06-26 13:11:07.399
68.0, 48698.05856919987, 52881.746337621975, 64913.60097093594, -730.9243954329962, -4505.038798456049, -7310.9426869085655, 22900.39037470703, 15623.064711459247, 0.048, 0.982, 0.126, 192.0, 0.0, 0.0, 0.0, 0.0, 0.0, 0.0, 0.0, 0.0, 0.0, 1.6878030674038224E9, 0.0, 2023-06-26 13:11:07.403
69.0, 48763.34801475382, 52935.88226269272, 62895.26079836617, -644.1549234574942, -4451.484018741134, -7226.564851589782, 22937.58367748066, 15687.147162812611, 0.048, 0.982, 0.126, 192.0, 0.0, 0.0, 0.0, 0.0, 0.0, 0.0, 0.0, 0.0, 0.0, 1.6878030674078414E9, 0.0, 2023-06-26 13:11:07.407
70.0, 48742.87381683276, 52929.266146333954, 62828.093806277975, -649.2734729377596, -4438.765876146063, -7226.721313800969, 22976.900395977547, 15711.532916013351, 0.048, 0.982, 0.126, 192.0, 0.0, 0.0, 0.0, 0.0, 0.0, 0.0, 0.0, 0.0, 0.0, 1.6878030674118595E9, 0.0, 2023-06-26 13:11:07.411
71.0, 48720.14209272172, 52904.098082077275, 63614.696397149135, -706.2033660654266, -4464.671547969764, -7295.20705881203, 22928.21829655389, 15638.018028499846, 0.048, 0.982, 0.126, 192.0, 0.0, 0.0, 0.0, 0.0, 0.0, 0.0, 0.0, 0.0, 0.0, 1.687803067415874E9, 0.0, 2023-06-26 13:11:07.415
72.0, 48689.833127240316, 52880.29347423238, 64865.0082784901, -726.0070116528287, -4494.667589028787, -7306.5393932508705, 22905.33011023165, 15623.556449837262, 0.048, 0.982, 0.126, 192.0, 0.0, 0.0, 0.0, 0.0, 0.0, 0.0, 0.0, 0.0, 0.0, 1.6878030674198937E9, 0.0, 2023-06-26 13:11:07.419
73.0, 48748.32764247986, 52924.460521276065, 63264.06458187874, -655.710775340888, -4462.458725268689, -7235.550252860815, 22918.741156904838, 15667.321165480753, 0.048, 0.982, 0.126, 192.0, 0.0, 0.0, 0.0, 0.0, 0.0, 0.0, 0.0, 0.0, 0.0, 1.6878030674259267E9, 0.0, 2023-06-26 13:11:07.425
74.0, 48750.31694773638, 52941.090219150814, 62621.16135611074, -624.2171674033603, -4420.191576503704, -7200.458014065983, 22978.442666344963, 15725.122776642178, 0.046, 0.982, 0.126, 192.0, 1.0, 112.0, 30.0, 176.0, 3.0, 240.0, 0.0, 0.0, 0.0, 1.6878030674289494E9, 0.0, 2023-06-26 13:11:07.428
75.0, 48731.586185882836, 52918.62671597323, 63485.07863105281, -691.5853251916558, -4459.21772232267, -7282.10893656122, 22926.34075001964, 15643.784778569316, 0.046, 0.982, 0.126, 192.0, 0.0, 0.0, 0.0, 0.0, 0.0, 0.0, 0.0, 0.0, 0.0, 1.6878030674329567E9, 0.0, 2023-06-26 13:11:07.432
76.0, 48694.34817962029, 52884.78617486789, 64713.888134227775, -723.9282994184852, -4490.621923282376, -7308.68516071858, 22899.719822373372, 15619.577839324218, 0.046, 0.982, 0.126, 192.0, 0.0, 0.0, 0.0, 0.0, 0.0, 0.0, 0.0, 0.0, 0.0, 1.6878030674369783E9, 0.0, 2023-06-26 13:11:07.436
77.0, 48735.16246499568, 52912.45763450356, 63724.666979869246, -680.1412320305386, -4485.816298224485, -7266.7979916093345, 22893.416630436976, 15638.398008155586, 0.046, 0.982, 0.126, 192.0, 0.0, 0.0, 0.0, 0.0, 0.0, 0.0, 0.0, 0.0, 0.0, 1.687803067439984E9, 0.0, 2023-06-26 13:11:07.439
78.0, 48756.84365711733, 52945.4488093196, 62484.27927306644, -629.7380482838212, -4428.841701607907, -7206.448281580006, 22958.549613779738, 15715.690340482039, 0.046, 0.982, 0.126, 192.0, 0.0, 0.0, 0.0, 0.0, 0.0, 0.0, 0.0, 0.0, 0.0, 1.6878030674440255E9, 0.0, 2023-06-26 13:11:07.444
79.0, 48724.14305497921, 52912.010599614456, 63424.3712931122, -705.6669241984993, -4471.555885261999, -7288.993273853454, 22918.67410167147, 15636.56516511025, 0.046, 0.982, 0.126, 192.0, 0.0, 0.0, 0.0, 0.0, 0.0, 0.0, 0.0, 0.0, 0.0, 1.68780306744703E9, 0.0, 2023-06-26 13:11:07.447
80.0, 48697.43272035512, 52886.79783186887, 64510.33079747329, -728.9127384320186, -4490.5101645601, -7315.144814866164, 22902.20086600791, 15615.688635788994, 0.046, 0.982, 0.126, 192.0, 0.0, 0.0, 0.0, 0.0, 0.0, 0.0, 0.0, 0.0, 0.0, 1.6878030674510643E9, 0.0, 2023-06-26 13:11:07.451
81.0, 48723.78542706793, 52904.00867509946, 64170.18195035243, -699.7437119178429, -4503.138900177348, -7284.232352284474, 22884.00654602129, 15623.534098092807, 0.046, 0.982, 0.126, 192.0, 0.0, 0.0, 0.0, 0.0, 0.0, 0.0, 0.0, 0.0, 0.0, 1.68780306745507E9, 0.0, 2023-06-26 13:11:07.455
82.0, 48768.89124737874, 52955.37298385775, 62397.53215283539, -614.292992865204, -4422.739675371608, -7192.56784827326, 22967.087980161665, 15721.725311484972, 0.046, 0.982, 0.126, 192.0, 0.0, 0.0, 0.0, 0.0, 0.0, 0.0, 0.0, 0.0, 0.0, 1.6878030674590943E9, 0.0, 2023-06-26 13:11:07.459
83.0, 48733.86606381727, 52922.627678230725, 63322.67085584055, -681.9517233314185, -4463.553960746999, -7265.121610775186, 22939.05889261471, 15661.219139244455, 0.046, 0.982, 0.126, 192.0, 0.0, 0.0, 0.0, 0.0, 0.0, 0.0, 0.0, 0.0, 0.0, 1.687803067464121E9, 0.0, 2023-06-26 13:11:07.464
84.0, 48714.46474963007, 52902.46640473204, 64246.35669545612, -710.9866393788624, -4481.345949333424, -7302.247858315452, 22915.455450469908, 15627.669170817038, 0.046, 0.982, 0.126, 192.0, 0.0, 0.0, 0.0, 0.0, 0.0, 0.0, 0.0, 0.0, 0.0, 1.6878030674672143E9, 0.0, 2023-06-26 13:11:07.467
85.0, 48723.42779915665, 52906.10973907825, 64519.71853014452, -699.319028773192, -4502.915382732795, -7287.473355230493, 22897.1046682721, 15627.132728950111, 0.05, 0.98, 0.124, 192.0, 1.0, 144.0, 30.0, 160.0, 3.0, 224.0, 0.0, 0.0, 0.0, 1.6878030674701948E9, 0.0, 2023-06-26 13:11:07.470
86.0, 48774.38977651475, 52959.30689088189, 62415.70412107756, -607.2968968506929, -4430.87571035334, -7199.452185565494, 22962.148244637043, 15716.584410260251, 0.05, 0.98, 0.124, 192.0, 0.0, 0.0, 0.0, 0.0, 0.0, 0.0, 0.0, 0.0, 0.0, 1.6878030674754028E9, 0.0, 2023-06-26 13:11:07.475
87.0, 48734.6036713843, 52926.9415649106, 63203.491354404854, -667.9148278134857, -4464.313920058479, -7256.918520560089, 22946.68083747397, 15674.33961323972, 0.05, 0.98, 0.124, 192.0, 0.0, 0.0, 0.0, 0.0, 0.0, 0.0, 0.0, 0.0, 0.0, 1.6878030674792197E9, 0.0, 2023-06-26 13:11:07.479
88.0, 48714.88943277472, 52904.1874890551, 63991.435049943335, -703.5882119641557, -4480.541286533033, -7301.44319551506, 22914.091994058133, 15628.652647573073, 0.05, 0.98, 0.124, 192.0, 0.0, 0.0, 0.0, 0.0, 0.0, 0.0, 0.0, 0.0, 0.0, 1.687803067483198E9, 0.0, 2023-06-26 13:11:07.483
89.0, 48702.707732046576, 52888.6306749142, 64781.30099550498, -713.579441735678, -4512.571336337488, -7309.06514037432, 22889.52742690175, 15614.28047588831, 0.05, 0.98, 0.124, 192.0, 0.0, 0.0, 0.0, 0.0, 0.0, 0.0, 0.0, 0.0, 0.0, 1.687803067487232E9, 0.0, 2023-06-26 13:11:07.487
90.0, 48766.544314210936, 52946.0970099088, 62563.270337971495, -617.0646091776621, -4438.296489512502, -7213.109101427687, 22948.11134911911, 15700.692319952526, 0.05, 0.98, 0.124, 192.0, 0.0, 0.0, 0.0, 0.0, 0.0, 0.0, 0.0, 0.0, 0.0, 1.6878030674912467E9, 0.0, 2023-06-26 13:11:07.491
91.0, 48733.19551148362, 52923.700561964586, 63036.45676809034, -657.6106736195891, -4446.700745427697, -7246.368497177184, 22960.896546947544, 15689.650558191606, 0.05, 0.98, 0.124, 192.0, 0.0, 0.0, 0.0, 0.0, 0.0, 0.0, 0.0, 0.0, 0.0, 1.68780306749625E9, 0.0, 2023-06-26 13:11:07.496
92.0, 48716.185833953125, 52900.43239598661, 63780.81456194098, -709.2879068002591, -4476.473269042167, -7308.483995018482, 22917.042424326235, 15623.779967281816, 0.05, 0.98, 0.124, 192.0, 0.0, 0.0, 0.0, 0.0, 0.0, 0.0, 0.0, 0.0, 0.0, 1.6878030675002863E9, 0.0, 2023-06-26 13:11:07.500
93.0, 48690.86130748526, 52875.68901487458, 64897.0159765501, -726.7893227087644, -4509.486795602656, -7317.670561989613, 22893.640147881528, 15611.665321787039, 0.05, 0.98, 0.124, 192.0, 0.0, 0.0, 0.0, 0.0, 0.0, 0.0, 0.0, 0.0, 0.0, 1.687803067504303E9, 0.0, 2023-06-26 13:11:07.504
94.0, 48755.83782861684, 52930.02610564543, 62845.52816695311, -637.9858419878295, -4453.294510042013, -7233.359781904195, 22930.565229721695, 15678.318223752765, 0.05, 0.98, 0.124, 192.0, 0.0, 0.0, 0.0, 0.0, 0.0, 0.0, 0.0, 0.0, 0.0, 1.6878030675083249E9, 0.0, 2023-06-26 13:11:07.508
95.0, 48740.28101447595, 52929.75788471197, 62833.01119005814, -645.0936967246172, -4435.457817966678, -7227.056589967799, 22966.551538294738, 15702.212238575488, 0.042, 0.976, 0.128, 192.0, 1.0, 80.0, 30.0, 128.0, 4.0, 0.0, 0.0, 0.0, 0.0, 1.6878030675123515E9, 0.0, 2023-06-26 13:11:07.512
96.0, 48729.64158411522, 52911.89884089218, 63570.663460572185, -691.4735664693793, -4459.173018833759, -7283.9194278621, 22928.15124132052, 15640.320258178743, 0.042, 0.976, 0.128, 192.0, 0.0, 0.0, 0.0, 0.0, 0.0, 0.0, 0.0, 0.0, 0.0, 1.687803067517373E9, 0.0, 2023-06-26 13:11:07.517
97.0, 48693.02942669743, 52880.695805632575, 64846.07635093646, -717.2451278263484, -4499.026179197572, -7310.383893297183, 22901.06092704069, 15617.1862026675, 0.042, 0.976, 0.128, 192.0, 0.0, 0.0, 0.0, 0.0, 0.0, 0.0, 0.0, 0.0, 0.0, 1.6878030675213928E9, 0.0, 2023-06-26 13:11:07.521
98.0, 48752.59682567082, 52928.34972481128, 63212.856735331625, -646.5018566253015, -4467.152591604304, -7244.692116343036, 22912.884999857546, 15655.564147897263, 0.042, 0.976, 0.128, 192.0, 0.0, 0.0, 0.0, 0.0, 0.0, 0.0, 0.0, 0.0, 0.0, 1.6878030675243988E9, 0.0, 2023-06-26 13:11:07.524
99.0, 48749.37817446925, 52939.123265638744, 62650.8891762363, -627.5699290716564, -4432.216815020659, -7211.231554893441, 22968.83141622918, 15709.118927612179, 0.042, 0.976, 0.128, 192.0, 0.0, 0.0, 0.0, 0.0, 0.0, 0.0, 0.0, 0.0, 0.0, 1.6878030675274024E9, 0.0, 2023-06-26 13:11:07.527
100.0, 48728.68045910364, 52915.51982349394, 63501.171887060635, -695.2286595378708, -4474.238094596636, -7285.238180784962, 22918.629398182562, 15631.357208652165, 0.042, 0.976, 0.128, 192.0, 0.0, 0.0, 0.0, 0.0, 0.0, 0.0, 0.0, 0.0, 0.0, 1.6878030675304213E9, 0.0, 2023-06-26 13:11:07.530
101.0, 48694.54934532039, 52887.84836385827, 64726.65098031175, -723.3918575515578, -4504.256487400114, -7312.507309020438, 22892.299043214207, 15606.837344984693, 0.042, 0.976, 0.128, 192.0, 0.0, 0.0, 0.0, 0.0, 0.0, 0.0, 0.0, 0.0, 0.0, 1.68780306753444E9, 0.0, 2023-06-26 13:11:07.534
102.0, 48736.14594175172, 52916.838576416805, 63652.940231912165, -677.3696157180806, -4491.448937827223, -7264.33929971925, 22896.836447338635, 15632.921830764037, 0.042, 0.976, 0.128, 192.0, 0.0, 0.0, 0.0, 0.0, 0.0, 0.0, 0.0, 0.0, 0.0, 1.6878030675394557E9, 0.0, 2023-06-26 13:11:07.539
103.0, 48756.12840129476, 52947.97455644305, 62460.720534410546, -624.418333103458, -4427.567652173955, -7202.492022811416, 22970.68661101897, 15711.130584613156, 0.042, 0.976, 0.128, 192.0, 0.0, 0.0, 0.0, 0.0, 0.0, 0.0, 0.0, 0.0, 0.0, 1.6878030675434873E9, 0.0, 2023-06-26 13:11:07.543
104.0, 48722.71254333408, 52913.686980448605, 63379.71250769049, -701.1071683296167, -4470.728870717153, -7282.466564472505, 22929.15706982101, 15636.363999410154, 0.042, 0.976, 0.128, 192.0, 0.0, 0.0, 0.0, 0.0, 0.0, 0.0, 0.0, 0.0, 0.0, 1.6878030675475214E9, 0.0, 2023-06-26 13:11:07.547
105.0, 48692.11300517476, 52886.37314872422, 64483.77692506039, -730.4997122883454, -4492.901801216817, -7317.379989311695, 22905.643034654026, 15614.168717166034, 0.046, 0.978, 0.13, 192.0, 1.0, 112.0, 30.0, 144.0, 4.0, 16.0, 0.0, 0.0, 0.0, 1.6878030675505264E9, 0.0, 2023-06-26 13:11:07.550
106.0, 48715.58233685283, 52899.04658783038, 64078.137466685475, -700.2354502958597, -4502.244830399136, -7289.350901764739, 22887.71693560087, 15619.667246302039, 0.046, 0.978, 0.13, 192.0, 0.0, 0.0, 0.0, 0.0, 0.0, 0.0, 0.0, 0.0, 0.0, 1.6878030675545633E9, 0.0, 2023-06-26 13:11:07.554
107.0, 48755.81547687238, 52945.73938199752, 62360.048277383845, -620.8644057350642, -4426.338306228913, -7202.7602437448795, 22961.410637070017, 15709.63301773465, 0.046, 0.978, 0.13, 192.0, 0.0, 0.0, 0.0, 0.0, 0.0, 0.0, 0.0, 0.0, 0.0, 1.6878030675586147E9, 0.0, 2023-06-26 13:11:07.558
108.0, 48716.78933105342, 52909.8871838912, 63305.75058528788, -695.6533426825217, -4472.427603295756, -7279.158506293119, 22928.486517487352, 15642.577784368728, 0.046, 0.978, 0.13, 192.0, 0.0, 0.0, 0.0, 0.0, 0.0, 0.0, 0.0, 0.0, 0.0, 1.687803067562582E9, 0.0, 2023-06-26 13:11:07.562
109.0, 48698.21503141106, 52891.51404994894, 64258.560747928714, -719.0779708716835, -4484.810469723996, -7309.311009563328, 22906.939435832435, 15613.364054365642, 0.046, 0.978, 0.13, 192.0, 0.0, 0.0, 0.0, 0.0, 0.0, 0.0, 0.0, 0.0, 0.0, 1.6878030675676005E9, 0.0, 2023-06-26 13:11:07.567
110.0, 48709.904993761185, 52896.54319245138, 64466.81195101881, -704.8846131425636, -4502.960086221706, -7293.821250655801, 22893.416630436976, 15612.738205520895, 0.046, 0.978, 0.13, 192.0, 0.0, 0.0, 0.0, 0.0, 0.0, 0.0, 0.0, 0.0, 0.0, 1.6878030675716355E9, 0.0, 2023-06-26 13:11:07.571
111.0, 48755.39079372773, 52943.86183546327, 62397.82272551331, -618.0704376781509, -4436.977736589639, -7204.1684036455645, 22954.88392768907, 15700.714671696982, 0.046, 0.978, 0.13, 192.0, 0.0, 0.0, 0.0, 0.0, 0.0, 0.0, 0.0, 0.0, 0.0, 1.6878030675756292E9, 0.0, 2023-06-26 13:11:07.575
112.0, 48723.13722647873, 52919.52078575144, 63205.19008698346, -672.2510662378152, -4461.430545023745, -7254.526883903371, 22946.032636884767, 15666.091819535712, 0.046, 0.978, 0.13, 192.0, 0.0, 0.0, 0.0, 0.0, 0.0, 0.0, 0.0, 0.0, 0.0, 1.6878030675796456E9, 0.0, 2023-06-26 13:11:07.579
113.0, 48703.624153569246, 52898.867773874736, 64014.05501533211, -705.7339794318652, -4479.468402799178, -7297.866916402211, 22918.897619116025, 15626.350417894177, 0.046, 0.978, 0.13, 192.0, 0.0, 0.0, 0.0, 0.0, 0.0, 0.0, 0.0, 0.0, 0.0, 1.687803067583668E9, 0.0, 2023-06-26 13:11:07.583
114.0, 48689.65431328468, 52881.79104111088, 64774.19314076819, -717.289831315259, -4516.03585672806, -7310.048617130354, 22886.264072211277, 15609.698368274972, 0.046, 0.978, 0.13, 192.0, 0.0, 0.0, 0.0, 0.0, 0.0, 0.0, 0.0, 0.0, 0.0, 1.6878030675887232E9, 0.0, 2023-06-26 13:11:07.588
115.0, 48755.10022104981, 52940.71023949507, 62566.89132057325, -619.612708045567, -4443.616204692866, -7215.165461917575, 22941.696398460437, 15695.797287916816, 0.048, 0.99, 0.126, 192.0, 1.0, 128.0, 30.0, 240.0, 3.0, 240.0, 0.0, 0.0, 0.0, 1.6878030675937214E9, 0.0, 2023-06-26 13:11:07.593
116.0, 48730.28978470442, 52927.00862014397, 63064.35174517057, -654.4814293958461, -4447.572463461454, -7244.781523320857, 22958.88488994657, 15686.588369201228, 0.048, 0.99, 0.126, 192.0, 0.0, 0.0, 0.0, 0.0, 0.0, 0.0, 0.0, 0.0, 0.0, 1.6878030675967305E9, 0.0, 2023-06-26 13:11:07.596
117.0, 48715.135301963724, 52908.166099568145, 63780.56869275197, -698.9614008619071, -4471.622940495365, -7302.985465882477, 22920.35048250562, 15625.277534160321, 0.048, 0.99, 0.126, 192.0, 0.0, 0.0, 0.0, 0.0, 0.0, 0.0, 0.0, 0.0, 0.0, 1.6878030676007564E9, 0.0, 2023-06-26 13:11:07.600
118.0, 48692.38122610822, 52889.32357899232, 64872.80903730501, -714.1605870915159, -4504.122376933382, -7317.089416633776, 22896.925854316458, 15609.85483048616, 0.048, 0.99, 0.126, 192.0, 0.0, 0.0, 0.0, 0.0, 0.0, 0.0, 0.0, 0.0, 0.0, 1.6878030676037855E9, 0.0, 2023-06-26 13:11:07.603
119.0, 48755.81547687238, 52939.36913482775, 62803.08220423248, -628.5087023387792, -4453.182751319737, -7232.62217433717, 22928.732386676358, 15670.316299237766, 0.048, 0.99, 0.126, 192.0, 0.0, 0.0, 0.0, 0.0, 0.0, 0.0, 0.0, 0.0, 0.0, 1.6878030676078093E9, 0.0, 2023-06-26 13:11:07.607
120.0, 48735.564796395876, 52929.8919951787, 62866.047068363085, -643.774943801754, -4446.007841349583, -7235.9078807721, 22958.326096335186, 15685.649595934106, 0.048, 0.99, 0.126, 192.0, 0.0, 0.0, 0.0, 0.0, 0.0, 0.0, 0.0, 0.0, 0.0, 1.6878030676108196E9, 0.0, 2023-06-26 13:11:07.610
121.0, 48719.15861596568, 52908.14374782369, 63629.11327232281, -703.0741218416837, -4479.2001818657145, -7308.01460838492, 22910.448659711918, 15611.218286897933, 0.048, 0.99, 0.126, 192.0, 0.0, 0.0, 0.0, 0.0, 0.0, 0.0, 0.0, 0.0, 0.0, 1.6878030676148355E9, 0.0, 2023-06-26 13:11:07.614
122.0, 48689.60960979576, 52882.88627658919, 64879.38045017487, -724.3753343075913, -4511.65491481482, -7331.26042261844, 22889.214502479375, 15595.840286712682, 0.048, 0.99, 0.126, 192.0, 0.0, 0.0, 0.0, 0.0, 0.0, 0.0, 0.0, 0.0, 0.0, 1.687803067618849E9, 0.0, 2023-06-26 13:11:07.618
123.0, 48748.774677368965, 52929.91434692316, 63188.58274085316, -651.0392607497288, -4474.461612041189, -7262.327642718273, 22906.917084087978, 15643.42715065803, 0.048, 0.99, 0.126, 192.0, 0.0, 0.0, 0.0, 0.0, 0.0, 0.0, 0.0, 0.0, 0.0, 1.687803067622869E9, 0.0, 2023-06-26 13:11:07.622
124.0, 48746.98653781254, 52943.30304185189, 62676.21370270416, -632.9566994853855, -4434.563748188466, -7226.967182989977, 22964.58458478267, 15699.77589842986, 0.048, 0.99, 0.126, 192.0, 0.0, 0.0, 0.0, 0.0, 0.0, 0.0, 0.0, 0.0, 0.0, 1.6878030676268835E9, 0.0, 2023-06-26 13:11:07.626
125.0, 48718.35395316529, 52907.94258212359, 63517.600419235285, -710.3160870452032, -4480.094251643926, -7308.059311873832, 22912.52737194626, 15618.057920701256, 0.042, 0.988, 0.13, 192.0, 1.0, 80.0, 30.0, 224.0, 4.0, 16.0, 0.0, 0.0, 0.0, 1.6878030676309013E9, 0.0, 2023-06-26 13:11:07.630
126.0, 48690.90601097418, 52885.70259639056, 64744.018285753526, -728.3986483095465, -4502.311885632502, -7323.929050437099, 22895.808267093693, 15604.669225772528, 0.042, 0.988, 0.13, 192.0, 0.0, 0.0, 0.0, 0.0, 0.0, 0.0, 0.0, 0.0, 0.0, 1.6878030676339352E9, 0.0, 2023-06-26 13:11:07.633
127.0, 48734.73778185103, 52916.52565199443, 63612.90825759271, -676.5202494287788, -4492.924152961273, -7275.045785313343, 22892.455505425394, 15631.267801674343, 0.042, 0.988, 0.13, 192.0, 0.0, 0.0, 0.0, 0.0, 0.0, 0.0, 0.0, 0.0, 0.0, 1.6878030676379566E9, 0.0, 2023-06-26 13:11:07.637
128.0, 48746.673613390165, 52941.6937162511, 62496.863305194776, -631.7720570292541, -4436.0613150669715, -7216.417159607072, 22959.331924835675, 15705.788517688337, 0.042, 0.988, 0.13, 192.0, 0.0, 0.0, 0.0, 0.0, 0.0, 0.0, 0.0, 0.0, 0.0, 1.6878030676429763E9, 0.0, 2023-06-26 13:11:07.642
129.0, 48722.31021193388, 52917.93381189511, 63409.50738304942, -698.4696624838904, -4472.896989929318, -7287.24983778594, 22921.043386583733, 15635.67109533204, 0.042, 0.988, 0.13, 192.0, 0.0, 0.0, 0.0, 0.0, 0.0, 0.0, 0.0, 0.0, 0.0, 1.687803067648003E9, 0.0, 2023-06-26 13:11:07.648
130.0, 48686.3909585942, 52883.64623590067, 64540.46094899905, -728.0186686538063, -4496.567487307488, -7322.409131814138, 22900.122153773566, 15610.883010731104, 0.042, 0.988, 0.13, 192.0, 0.0, 0.0, 0.0, 0.0, 0.0, 0.0, 0.0, 0.0, 0.0, 1.6878030676520047E9, 0.0, 2023-06-26 13:11:07.652
131.0, 48712.36368565127, 52896.87846861821, 64055.696315252346, -699.9225258734854, -4503.362417621901, -7300.236201314474, 22889.438019923928, 15615.934504978002, 0.042, 0.988, 0.13, 192.0, 0.0, 0.0, 0.0, 0.0, 0.0, 0.0, 0.0, 0.0, 0.0, 1.6878030676550312E9, 0.0, 2023-06-26 13:11:07.655
132.0, 48749.44522970262, 52942.967765685054, 62377.63910027017, -618.5621760561677, -4431.367448731357, -7212.706770027491, 22968.67495401799, 15709.72242471247, 0.042, 0.988, 0.13, 192.0, 0.0, 0.0, 0.0, 0.0, 0.0, 0.0, 0.0, 0.0, 0.0, 1.6878030676590896E9, 0.0, 2023-06-26 13:11:07.659
133.0, 48714.867081030265, 52909.57425946883, 63313.41723363606, -688.970171090385, -4470.639463739331, -7282.667730172602, 22934.29797104573, 15648.590403627206, 0.042, 0.988, 0.13, 192.0, 0.0, 0.0, 0.0, 0.0, 0.0, 0.0, 0.0, 0.0, 0.0, 1.6878030676640704E9, 0.0, 2023-06-26 13:11:07.664
134.0, 48690.34721736279, 52886.194334768574, 64270.00484108983, -718.4744737713902, -4488.587914536943, -7318.229355600996, 22909.040499811235, 15617.342664878686, 0.042, 0.988, 0.13, 192.0, 0.0, 0.0, 0.0, 0.0, 0.0, 0.0, 0.0, 0.0, 0.0, 1.6878030676680827E9, 0.0, 2023-06-26 13:11:07.668
135.0, 48703.8476710138, 52892.5869336828, 64428.63517148914, -701.0848165851613, -4507.2069176682135, -7298.716282691513, 22893.081354270143, 15620.583667824707, 0.042, 0.988, 0.13, 192.0, 0.0, 0.0, 0.0, 0.0, 0.0, 0.0, 0.0, 0.0, 0.0, 1.6878030676720965E9, 0.0, 2023-06-26 13:11:07.672
136.0, 48756.73189839505, 52945.068829663855, 62386.758612007936, -613.7789027427319, -4436.463646467167, -7209.175194403553, 22954.079264888678, 15707.86722992268, 0.048, 0.984, 0.128, 192.0, 1.0, 128.0, 30.0, 192.0, 4.0, 0.0, 0.0, 0.0, 0.0, 1.6878030676762075E9, 0.0, 2023-06-26 13:11:07.676
137.0, 48723.87483404575, 52919.967820640544, 63211.113299264114, -674.2403714943375, -4469.611283494387, -7268.206151510019, 22933.090976845146, 15659.498054921396, 0.048, 0.984, 0.128, 192.0, 0.0, 0.0, 0.0, 0.0, 0.0, 0.0, 0.0, 0.0, 0.0, 1.6878030676801987E9, 0.0, 2023-06-26 13:11:07.680
138.0, 48708.04979897139, 52904.54511696639, 64002.275646004164, -701.1071683296167, -4481.033024911049, -7305.466509517016, 22910.783935878746, 15620.717778291439, 0.048, 0.984, 0.128, 192.0, 0.0, 0.0, 0.0, 0.0, 0.0, 0.0, 0.0, 0.0, 0.0, 1.6878030676852145E9, 0.0, 2023-06-26 13:11:07.685
139.0, 48703.601801824785, 52898.26427677444, 64690.552913016436, -702.0459415967396, -4508.70448454672, -7302.963114138021, 22888.72276410136, 15610.480679330907, 0.048, 0.984, 0.128, 192.0, 0.0, 0.0, 0.0, 0.0, 0.0, 0.0, 0.0, 0.0, 0.0, 1.6878030676882017E9, 0.0, 2023-06-26 13:11:07.688
140.0, 48763.03509033145, 52951.439076833616, 62492.594122003815, -610.9402311969079, -4438.810579634975, -7211.700941527002, 22950.882965431567, 15692.310415781787, 0.048, 0.984, 0.128, 192.0, 0.0, 0.0, 0.0, 0.0, 0.0, 0.0, 0.0, 0.0, 0.0, 1.6878030676912122E9, 0.0, 2023-06-26 13:11:07.691
141.0, 48728.12166549226, 52927.85798643327, 63069.85027430657, -661.2763597102595, -4459.083611855938, -7259.4666194279935, 22952.961677665913, 15670.003374815391, 0.048, 0.984, 0.128, 192.0, 0.0, 0.0, 0.0, 0.0, 0.0, 0.0, 0.0, 0.0, 0.0, 1.6878030676942248E9, 0.0, 2023-06-26 13:11:07.694
142.0, 48712.207223440084, 52907.49554723449, 63819.97481822668, -701.4424444964462, -4482.999978423117, -7311.166204353119, 22909.66634865598, 15610.391272353087, 0.048, 0.984, 0.128, 192.0, 0.0, 0.0, 0.0, 0.0, 0.0, 0.0, 0.0, 0.0, 0.0, 1.687803067698246E9, 0.0, 2023-06-26 13:11:07.698
143.0, 48688.67083652864, 52881.813392855336, 64901.821601608, -717.9380319044628, -4518.271031173591, -7321.4480068025605, 22886.934624544934, 15595.32619659021, 0.048, 0.984, 0.128, 192.0, 0.0, 0.0, 0.0, 0.0, 0.0, 0.0, 0.0, 0.0, 0.0, 1.687803067703261E9, 0.0, 2023-06-26 13:11:07.703
144.0, 48760.19641878563, 52946.72285875355, 62800.6235123424, -621.5796615576342, -4460.424716523256, -7236.086694727743, 22929.44764249893, 15664.236624745921, 0.048, 0.984, 0.128, 192.0, 0.0, 0.0, 0.0, 0.0, 0.0, 0.0, 0.0, 0.0, 0.0, 1.6878030677072642E9, 0.0, 2023-06-26 13:11:07.707
145.0, 48743.097334277314, 52943.414800574166, 62885.24721685019, -635.9965367313072, -4442.722134914653, -7237.204281950508, 22968.473788317897, 15686.945997112512, 0.048, 0.984, 0.128, 192.0, 0.0, 0.0, 0.0, 0.0, 0.0, 0.0, 0.0, 0.0, 0.0, 1.6878030677113101E9, 0.0, 2023-06-26 13:11:07.711
146.0, 48722.3996189117, 52915.38571302721, 63638.813929416414, -699.2072700509156, -4472.1593823622925, -7307.053483373343, 22919.948151105422, 15613.542868321285, 0.048, 0.986, 0.126, 192.0, 1.0, 128.0, 30.0, 208.0, 3.0, 240.0, 0.0, 0.0, 0.0, 1.6878030677143404E9, 0.0, 2023-06-26 13:11:07.714
147.0, 48691.6436185412, 52888.1836400251, 64882.48734265415, -719.4132470385131, -4503.183603666259, -7321.11273063573, 22895.11536301558, 15600.757670492849, 0.048, 0.986, 0.126, 192.0, 0.0, 0.0, 0.0, 0.0, 0.0, 0.0, 0.0, 0.0, 0.0, 1.6878030677183344E9, 0.0, 2023-06-26 13:11:07.718
148.0, 48754.429668716155, 52939.413838316665, 63123.62857146604, -638.388173388025, -4461.139972345826, -7248.089581500242, 22914.986063836346, 15653.016049029357, 0.048, 0.986, 0.126, 192.0, 0.0, 0.0, 0.0, 0.0, 0.0, 0.0, 0.0, 0.0, 0.0, 1.6878030677243657E9, 0.0, 2023-06-26 13:11:07.724
149.0, 48746.539502923435, 52945.493512808505, 62668.72586831163, -625.8264930041424, -4426.405361462279, -7222.76505503238, 22966.193910383452, 15699.77589842986, 0.048, 0.986, 0.126, 192.0, 0.0, 0.0, 0.0, 0.0, 0.0, 0.0, 0.0, 0.0, 0.0, 1.6878030677273636E9, 0.0, 2023-06-26 13:11:07.727
150.0, 48717.43753164262, 52910.78125366942, 63517.57806749083, -697.6873514279547, -4468.672510227265, -7300.191497825564, 22920.082261572155, 15621.678903303016, 0.048, 0.986, 0.126, 192.0, 0.0, 0.0, 0.0, 0.0, 0.0, 0.0, 0.0, 0.0, 0.0, 1.6878030677313924E9, 0.0, 2023-06-26 13:11:07.731
151.0, 48680.959484691564, 52878.01359629793, 64775.400134968775, -724.8447209411528, -4494.734644262153, -7320.911564935633, 22904.413688708984, 15605.183315895, 0.048, 0.986, 0.126, 192.0, 0.0, 0.0, 0.0, 0.0, 0.0, 0.0, 0.0, 0.0, 0.0, 1.6878030677353992E9, 0.0, 2023-06-26 13:11:07.735
152.0, 48726.44528465811, 52911.22828855852, 63575.04440248542, -671.7593278597984, -4478.417870809779, -7272.475334700983, 22902.446735196918, 15631.558374352262, 0.048, 0.986, 0.126, 192.0, 0.0, 0.0, 0.0, 0.0, 0.0, 0.0, 0.0, 0.0, 0.0, 1.687803067739424E9, 0.0, 2023-06-26 13:11:07.739
153.0, 48737.59880514131, 52931.85894869077, 62526.6581805537, -625.2006441593938, -4422.471454438145, -7213.802005505801, 22969.50196856284, 15709.655369479106, 0.048, 0.986, 0.126, 192.0, 0.0, 0.0, 0.0, 0.0, 0.0, 0.0, 0.0, 0.0, 0.0, 1.6878030677434397E9, 0.0, 2023-06-26 13:11:07.743
154.0, 48720.43266539963, 52907.607305956764, 63421.040883188354, -692.6582089255106, -4459.329481044946, -7285.618160440703, 22929.00060760982, 15640.275554689832, 0.048, 0.986, 0.126, 192.0, 0.0, 0.0, 0.0, 0.0, 0.0, 0.0, 0.0, 0.0, 0.0, 1.68780306774745E9, 0.0, 2023-06-26 13:11:07.747
155.0, 48686.03333068292, 52878.2818172314, 64561.06925738684, -726.1187703751052, -4487.872658714373, -7316.105939877742, 22904.16781951998, 15615.2863043888, 0.048, 0.986, 0.126, 192.0, 0.0, 0.0, 0.0, 0.0, 0.0, 0.0, 0.0, 0.0, 0.0, 1.6878030677514696E9, 0.0, 2023-06-26 13:11:07.751
156.0, 48709.79323503891, 52892.74339589398, 64037.63610573246, -696.256839782815, -4494.846402984429, -7284.567628451304, 22887.29225245622, 15625.411644627053, 0.042, 0.982, 0.128, 192.0, 1.0, 80.0, 30.0, 176.0, 4.0, 0.0, 0.0, 0.0, 0.0, 1.6878030677564757E9, 0.0, 2023-06-26 13:11:07.756
157.0, 48746.22657850106, 52937.13396038222, 62427.841118316785, -622.7643040137654, -4423.790207361008, -7210.4492438375055, 22963.466997559906, 15713.790442203337, 0.042, 0.982, 0.128, 192.0, 0.0, 0.0, 0.0, 0.0, 0.0, 0.0, 0.0, 0.0, 0.0, 1.6878030677605033E9, 0.0, 2023-06-26 13:11:07.760
158.0, 48716.99049675352, 52909.4401490021, 63353.4045044666, -695.1169008155944, -4460.871751412363, -7283.9417796065545, 22932.085148344657, 15649.216252471955, 0.042, 0.982, 0.128, 192.0, 0.0, 0.0, 0.0, 0.0, 0.0, 0.0, 0.0, 0.0, 0.0, 1.687803067764531E9, 0.0, 2023-06-26 13:11:07.764
159.0, 48689.65431328468, 52880.91932307713, 64312.20493462145, -727.6386889980661, -4481.234190611147, -7318.408169556638, 22903.11728753058, 15615.554525322263, 0.042, 0.982, 0.128, 192.0, 0.0, 0.0, 0.0, 0.0, 0.0, 0.0, 0.0, 0.0, 0.0, 1.687803067768552E9, 0.0, 2023-06-26 13:11:07.768
160.0, 48696.605705810274, 52879.153535265155, 64427.09290112173, -726.4763982863901, -4511.051417714527, -7311.4120735421275, 22868.606194091582, 15602.434051326998, 0.042, 0.982, 0.128, 192.0, 0.0, 0.0, 0.0, 0.0, 0.0, 0.0, 0.0, 0.0, 0.0, 1.6878030677715793E9, 0.0, 2023-06-26 13:11:07.771
161.0, 48758.073003062374, 52944.10770465228, 62388.278530630894, -631.3697256290586, -4427.634707407321, -7213.511432827882, 22940.55645949322, 15700.714671696982, 0.042, 0.982, 0.128, 192.0, 0.0, 0.0, 0.0, 0.0, 0.0, 0.0, 0.0, 0.0, 0.0, 1.6878030677755685E9, 0.0, 2023-06-26 13:11:07.775
162.0, 48726.199415469106, 52917.37501828373, 63216.008331299825, -691.093586813639, -4455.283815298536, -7270.82130561129, 22934.54384023474, 15657.754618853882, 0.042, 0.982, 0.128, 192.0, 0.0, 0.0, 0.0, 0.0, 0.0, 0.0, 0.0, 0.0, 0.0, 1.687803067778599E9, 0.0, 2023-06-26 13:11:07.778
163.0, 48701.791310523906, 52890.64233191518, 64043.9169459244, -731.7290582333873, -4476.875600442362, -7318.8775561902, 22903.072584041667, 15609.206629896955, 0.042, 0.982, 0.128, 192.0, 0.0, 0.0, 0.0, 0.0, 0.0, 0.0, 0.0, 0.0, 0.0, 1.687803067782616E9, 0.0, 2023-06-26 13:11:07.782
164.0, 48691.26363888546, 52875.1302212632, 64709.484840570076, -739.2615961148258, -4508.592725824443, -7323.25849810344, 22872.964784260366, 15593.985091922892, 0.042, 0.982, 0.128, 192.0, 0.0, 0.0, 0.0, 0.0, 0.0, 0.0, 0.0, 0.0, 0.0, 1.6878030677866364E9, 0.0, 2023-06-26 13:11:07.786
165.0, 48751.41218321469, 52932.14952136869, 62514.32001761437, -643.8867025240305, -4435.636631922321, -7225.804892278301, 22929.559401221206, 15681.738040654427, 0.042, 0.982, 0.128, 192.0, 0.0, 0.0, 0.0, 0.0, 0.0, 0.0, 0.0, 0.0, 0.0, 1.6878030677936823E9, 0.0, 2023-06-26 13:11:07.793
166.0, 48716.319944419854, 52910.62479145823, 63121.79572842071, -691.8088426362089, -4452.288681541524, -7259.712488617002, 22934.499136745828, 15662.783761356326, 0.05, 0.978, 0.126, 192.0, 1.0, 144.0, 30.0, 144.0, 3.0, 240.0, 0.0, 0.0, 0.0, 1.687803067797703E9, 0.0, 2023-06-26 13:11:07.797
167.0, 48703.06535995786, 52894.6879976616, 63845.36639992791, -731.1702646220047, -4473.165210862781, -7312.306143320339, 22898.110496772588, 15607.977283951914, 0.05, 0.978, 0.126, 192.0, 0.0, 0.0, 0.0, 0.0, 0.0, 0.0, 0.0, 0.0, 0.0, 1.687803067800685E9, 0.0, 2023-06-26 13:11:07.800
168.0, 48677.740833489996, 52869.51993340492, 64875.49124663964, -748.3811078525911, -4509.442092113744, -7327.371219083217, 22871.86954878206, 15596.354376835154, 0.05, 0.978, 0.126, 192.0, 0.0, 0.0, 0.0, 0.0, 0.0, 0.0, 0.0, 0.0, 0.0, 1.687803067803732E9, 0.0, 2023-06-26 13:11:07.803
169.0, 48742.35972671029, 52925.779274198925, 62756.65763099881, -659.9799585318516, -4449.427658251245, -7243.5521773758155, 22910.806287623203, 15665.354211968686, 0.05, 0.978, 0.126, 192.0, 0.0, 0.0, 0.0, 0.0, 0.0, 0.0, 0.0, 0.0, 0.0, 1.6878030678077445E9, 0.0, 2023-06-26 13:11:07.807
170.0, 48725.66297360218, 52922.53827125291, 62920.13828994492, -671.6922726264326, -4440.218739535659, -7247.083752999753, 22939.572982737183, 15679.279348764343, 0.05, 0.978, 0.126, 192.0, 0.0, 0.0, 0.0, 0.0, 0.0, 0.0, 0.0, 0.0, 0.0, 1.6878030678107464E9, 0.0, 2023-06-26 13:11:07.810
171.0, 48712.94483100711, 52903.1369570657, 63648.6263452323, -719.256784827326, -4466.45968752619, -7303.901887405144, 22896.858799083093, 15616.269781144832, 0.05, 0.978, 0.126, 192.0, 0.0, 0.0, 0.0, 0.0, 0.0, 0.0, 0.0, 0.0, 0.0, 1.6878030678147595E9, 0.0, 2023-06-26 13:11:07.814
172.0, 48682.5911620368, 52875.17492475211, 64884.521351399584, -735.9088344465297, -4500.054359442515, -7312.619067742714, 22878.66447909647, 15610.190106652988, 0.05, 0.978, 0.126, 192.0, 0.0, 0.0, 0.0, 0.0, 0.0, 0.0, 0.0, 0.0, 0.0, 1.6878030678188007E9, 0.0, 2023-06-26 13:11:07.818
173.0, 48745.131343022746, 52926.11455036575, 63098.01347232026, -660.2705312097706, -4458.278949055547, -7239.998250007421, 22898.82575259516, 15660.369772955153, 0.05, 0.978, 0.126, 192.0, 0.0, 0.0, 0.0, 0.0, 0.0, 0.0, 0.0, 0.0, 0.0, 1.6878030678238153E9, 0.0, 2023-06-26 13:11:07.823
174.0, 48737.084715018835, 52932.32833532433, 62707.05911005248, -646.2559874362931, -4419.990410803605, -7215.120758428665, 22962.30470684823, 15708.515430511885, 0.05, 0.978, 0.126, 192.0, 0.0, 0.0, 0.0, 0.0, 0.0, 0.0, 0.0, 0.0, 0.0, 1.6878030678288743E9, 0.0, 2023-06-26 13:11:07.828
175.0, 48707.379246637734, 52899.65008493067, 63530.609134508275, -714.7864359362645, -4459.955329889694, -7296.436404757072, 22913.510848702295, 15629.636124329107, 0.05, 0.978, 0.126, 192.0, 0.0, 0.0, 0.0, 0.0, 0.0, 0.0, 0.0, 0.0, 0.0, 1.687803067831846E9, 0.0, 2023-06-26 13:11:07.831
176.0, 48671.8399729538, 52868.15647699314, 64784.45259147318, -741.5638257937225, -4488.543211048032, -7320.710399235535, 22891.82965658065, 15613.431109599009, 0.05, 0.978, 0.126, 192.0, 0.0, 0.0, 0.0, 0.0, 0.0, 0.0, 0.0, 0.0, 0.0, 1.687803067835873E9, 0.0, 2023-06-26 13:11:07.835
177.0, 48722.53372937843, 52906.065035589345, 63523.23305883802, -680.4541564529129, -4467.577274748955, -7258.661956627603, 22898.44577293942, 15650.378543183631, 0.048, 0.97, 0.13, 192.0, 1.0, 128.0, 30.0, 80.0, 4.0, 16.0, 0.0, 0.0, 0.0, 1.6878030678398979E9, 0.0, 2023-06-26 13:11:07.839
178.0, 48733.93311905064, 52929.93669866761, 62518.23157289405, -638.4105251324803, -4422.225585249136, -7209.868098481667, 22956.336791078662, 15715.48917478194, 0.048, 0.97, 0.13, 192.0, 0.0, 0.0, 0.0, 0.0, 0.0, 0.0, 0.0, 0.0, 0.0, 1.6878030678440163E9, 0.0, 2023-06-26 13:11:07.844
179.0, 48706.37341813725, 52898.55484945236, 63445.314877666824, -713.3335725466696, -4469.723042216664, -7292.5695529663035, 22903.430211952953, 15629.434958629008, 0.048, 0.97, 0.13, 192.0, 0.0, 0.0, 0.0, 0.0, 0.0, 0.0, 0.0, 0.0, 0.0, 1.6878030678489397E9, 0.0, 2023-06-26 13:11:07.848
180.0, 48676.51148754496, 52871.62099738372, 64603.26935091846, -736.8029042247421, -4488.990245937139, -7318.721093979013, 22884.073601254655, 15611.844135742682, 0.048, 0.97, 0.13, 192.0, 0.0, 0.0, 0.0, 0.0, 0.0, 0.0, 0.0, 0.0, 0.0, 1.687803067851944E9, 0.0, 2023-06-26 13:11:07.851
181.0, 48707.08867395981, 52890.35175923727, 63997.91705583538, -702.8282526526752, -4491.739510505141, -7286.959265108021, 22870.461388881373, 15622.394159125586, 0.048, 0.97, 0.13, 192.0, 0.0, 0.0, 0.0, 0.0, 0.0, 0.0, 0.0, 0.0, 0.0, 1.6878030678549511E9, 0.0, 2023-06-26 13:11:07.854
182.0, 48736.14594175172, 52927.23213758852, 62439.21815624454, -634.7895425307206, -4423.544338172, -7210.80687174879, 22944.49036651735, 15707.263732822388, 0.048, 0.97, 0.13, 192.0, 0.0, 0.0, 0.0, 0.0, 0.0, 0.0, 0.0, 0.0, 0.0, 1.6878030678579757E9, 0.0, 2023-06-26 13:11:07.857
183.0, 48708.67564781614, 52901.79585239838, 63372.20232155351, -699.2966770287368, -4457.966024633172, -7275.7833928803675, 22917.3106452597, 15650.199729227988, 0.048, 0.97, 0.13, 192.0, 0.0, 0.0, 0.0, 0.0, 0.0, 0.0, 0.0, 0.0, 0.0, 1.6878030678629825E9, 0.0, 2023-06-26 13:11:07.862
184.0, 48678.32197884584, 52871.35277645025, 64357.57897586573, -733.159569878527, -4481.234190611147, -7314.071931132309, 22888.72276410136, 15615.398063111075, 0.048, 0.97, 0.13, 192.0, 0.0, 0.0, 0.0, 0.0, 0.0, 0.0, 0.0, 0.0, 0.0, 1.6878030678670242E9, 0.0, 2023-06-26 13:11:07.867
185.0, 48690.90601097418, 52876.493677674975, 64401.813078142775, -719.770874949798, -4501.4625193432, -7299.3197797918065, 22867.75682780228, 15610.100699675168, 0.048, 0.97, 0.13, 192.0, 0.0, 0.0, 0.0, 0.0, 0.0, 0.0, 0.0, 0.0, 0.0, 1.687803067871028E9, 0.0, 2023-06-26 13:11:07.871
186.0, 48747.14300002372, 52935.65874524817, 62391.13955392117, -625.938251726419, -4418.246974736092, -7202.402615833595, 22946.099692118132, 15708.895410167625, 0.048, 0.97, 0.13, 192.0, 0.0, 0.0, 0.0, 0.0, 0.0, 0.0, 0.0, 0.0, 0.0, 1.6878030678750648E9, 0.0, 2023-06-26 13:11:07.875
187.0, 48714.241232185515, 52908.68018969062, 63247.59134621517, -687.740825145343, -4453.428620508745, -7270.10604978872, 22926.497212230828, 15658.983964798925, 0.05, 0.972, 0.13, 192.0, 1.0, 144.0, 30.0, 96.0, 4.0, 16.0, 0.0, 0.0, 0.0, 1.6878030678780792E9, 0.0, 2023-06-26 13:11:07.878
188.0, 48695.10813893177, 52888.22834351401, 64064.637013034466, -717.5804039931779, -4467.353757304401, -7307.031131628887, 22904.436040453442, 15624.47287135993, 0.05, 0.972, 0.13, 192.0, 0.0, 0.0, 0.0, 0.0, 0.0, 0.0, 0.0, 0.0, 0.0, 1.6878030678820848E9, 0.0, 2023-06-26 13:11:07.882
189.0, 48684.938095204605, 52872.76093635094, 64672.17977907417, -720.1061511166276, -4501.551926321021, -7305.354750794739, 22881.32433668665, 15615.80039451127, 0.05, 0.972, 0.13, 192.0, 0.0, 0.0, 0.0, 0.0, 0.0, 0.0, 0.0, 0.0, 0.0, 1.6878030678861036E9, 0.0, 2023-06-26 13:11:07.886
190.0, 48739.31988946437, 52925.712218965564, 62493.1976191041, -633.8284175191424, -4434.831969121929, -7217.288877640829, 22935.14733733503, 15698.72536644046, 0.05, 0.972, 0.13, 192.0, 0.0, 0.0, 0.0, 0.0, 0.0, 0.0, 0.0, 0.0, 0.0, 1.6878030678902104E9, 0.0, 2023-06-26 13:11:07.890
191.0, 48711.02258098395, 52907.607305956764, 63110.95513235988, -680.4541564529129, -4447.907739628285, -7257.745535104935, 22939.617686226095, 15674.853703362192, 0.05, 0.972, 0.13, 192.0, 0.0, 0.0, 0.0, 0.0, 0.0, 0.0, 0.0, 0.0, 0.0, 1.6878030678942049E9, 0.0, 2023-06-26 13:11:07.894
192.0, 48693.677627286634, 52885.099099290266, 63839.15261496933, -725.0011831523399, -4468.001957893605, -7311.389721797672, 22905.710089887394, 15620.42720561352, 0.05, 0.972, 0.13, 192.0, 0.0, 0.0, 0.0, 0.0, 0.0, 0.0, 0.0, 0.0, 0.0, 1.6878030678992002E9, 0.0, 2023-06-26 13:11:07.899
193.0, 48672.577580520825, 52863.149686235156, 64851.84310100593, -735.4394478129683, -4502.468347843689, -7321.291544591373, 22883.58186287664, 15608.670188030028, 0.05, 0.972, 0.13, 192.0, 0.0, 0.0, 0.0, 0.0, 0.0, 0.0, 0.0, 0.0, 0.0, 1.6878030679032013E9, 0.0, 2023-06-26 13:11:07.903
194.0, 48739.74457260902, 52922.225346830535, 62721.2524677816, -645.9430630139188, -4444.912605871273, -7233.382133648651, 22922.67506392897, 15678.944072597513, 0.05, 0.972, 0.13, 192.0, 0.0, 0.0, 0.0, 0.0, 0.0, 0.0, 0.0, 0.0, 0.0, 1.6878030679071963E9, 0.0, 2023-06-26 13:11:07.907
195.0, 48715.20235719709, 52913.17289032613, 62931.38121740594, -666.7525371018097, -4441.425733736245, -7240.9146715300885, 22948.580735752672, 15689.047061091313, 0.05, 0.972, 0.13, 192.0, 0.0, 0.0, 0.0, 0.0, 0.0, 0.0, 0.0, 0.0, 0.0, 1.687803067911242E9, 0.0, 2023-06-26 13:11:07.911
196.0, 48702.88654600222, 52895.69382616208, 63648.69340046566, -712.8641859131081, -4462.2352078241365, -7295.497631489949, 22915.030767325257, 15629.412606884553, 0.05, 0.972, 0.13, 192.0, 0.0, 0.0, 0.0, 0.0, 0.0, 0.0, 0.0, 0.0, 0.0, 1.687803067915258E9, 0.0, 2023-06-26 13:11:07.915
197.0, 48670.23064735301, 52865.31780544732, 64865.07533372347, -741.0273839267951, -4498.199164652725, -7316.2847538333845, 22888.163970489975, 15611.106528175656, 0.052000000000000005, 0.978, 0.126, 192.0, 1.0, 160.0, 30.0, 144.0, 3.0, 240.0, 0.0, 0.0, 0.0, 1.6878030679202752E9, 0.0, 2023-06-26 13:11:07.920
198.0, 48723.76307532348, 52906.31090477835, 63061.89305328048, -672.4969354268236, -4465.699728214709, -7249.609500123203, 22905.687738142937, 15657.86637757616, 0.052000000000000005, 0.978, 0.126, 192.0, 0.0, 0.0, 0.0, 0.0, 0.0, 0.0, 0.0, 0.0, 0.0, 1.687803067924285E9, 0.0, 2023-06-26 13:11:07.924
199.0, 48717.035200242426, 52913.15053858168, 62735.78110167755, -658.9517782869075, -4434.608451677376, -7227.123645201164, 22954.526299777783, 15700.289988552331, 0.052000000000000005, 0.978, 0.126, 192.0, 0.0, 0.0, 0.0, 0.0, 0.0, 0.0, 0.0, 0.0, 0.0, 1.6878030679282994E9, 0.0, 2023-06-26 13:11:07.928
200.0, 48697.61153431077, 52887.73660513599, 63542.63437302523, -721.2460900838483, -4466.8173154374745, -7301.800823426345, 22908.43700271094, 15625.054016715769, 0.052000000000000005, 0.978, 0.126, 192.0, 0.0, 0.0, 0.0, 0.0, 0.0, 0.0, 0.0, 0.0, 0.0, 1.6878030679323175E9, 0.0, 2023-06-26 13:11:07.932
201.0, 48662.74281296049, 52856.019479753915, 64794.354414266876, -747.8893694745743, -4500.501394331622, -7325.001934170954, 22889.34861294611, 15609.117222919134, 0.052000000000000005, 0.978, 0.126, 192.0, 0.0, 0.0, 0.0, 0.0, 0.0, 0.0, 0.0, 0.0, 0.0, 1.6878030679353404E9, 0.0, 2023-06-26 13:11:07.935
202.0, 48712.341333906814, 52892.74339589398, 63500.21076204906, -687.1149763005944, -4476.74148997563, -7268.161448021108, 22894.28834847073, 15641.393141912598, 0.052000000000000005, 0.978, 0.126, 192.0, 0.0, 0.0, 0.0, 0.0, 0.0, 0.0, 0.0, 0.0, 0.0, 1.6878030679393735E9, 0.0, 2023-06-26 13:11:07.939
203.0, 48728.21107247008, 52922.80649218637, 62547.37824766377, -641.5621211006786, -4422.82908234943, -7211.812700249279, 22960.62832601408, 15713.522221269874, 0.052000000000000005, 0.978, 0.126, 192.0, 0.0, 0.0, 0.0, 0.0, 0.0, 0.0, 0.0, 0.0, 0.0, 1.6878030679423687E9, 0.0, 2023-06-26 13:11:07.942
204.0, 48697.49977558849, 52888.8318406143, 63445.49369162246, -718.3403633046584, -4468.538399760532, -7294.827079156289, 22913.644959169025, 15631.75954005236, 0.052000000000000005, 0.978, 0.126, 192.0, 0.0, 0.0, 0.0, 0.0, 0.0, 0.0, 0.0, 0.0, 0.0, 1.6878030679464123E9, 0.0, 2023-06-26 13:11:07.946
205.0, 48669.11306013025, 52864.55784613584, 64580.40351634068, -742.1002676606498, -4486.710368002698, -7314.54131776587, 22903.139639275032, 15616.917981734035, 0.052000000000000005, 0.978, 0.126, 192.0, 0.0, 0.0, 0.0, 0.0, 0.0, 0.0, 0.0, 0.0, 0.0, 1.6878030679504175E9, 0.0, 2023-06-26 13:11:07.950
206.0, 48701.3442756348, 52887.35662548025, 63924.37981657742, -706.5833457211669, -4492.946504705728, -7281.460735972016, 22894.06483102618, 15627.80328128377, 0.052000000000000005, 0.978, 0.126, 192.0, 0.0, 0.0, 0.0, 0.0, 0.0, 0.0, 0.0, 0.0, 0.0, 1.6878030679544334E9, 0.0, 2023-06-26 13:11:07.954
207.0, 48731.094447504816, 52925.846329432294, 62421.24735370247, -633.7613622857765, -4424.371352716846, -7206.671799024559, 22967.959698195424, 15715.377416059664, 0.056, 0.978, 0.126, 192.0, 1.0, 192.0, 30.0, 144.0, 3.0, 240.0, 0.0, 0.0, 0.0, 1.6878030679594607E9, 0.0, 2023-06-26 13:11:07.959
208.0, 48702.66302855767, 52895.47030871753, 63353.06922829977, -700.771892162787, -4462.838704924429, -7280.63372142717, 22929.671159943482, 15648.47864490493, 0.056, 0.978, 0.126, 192.0, 0.0, 0.0, 0.0, 0.0, 0.0, 0.0, 0.0, 0.0, 0.0, 1.687803067962468E9, 0.0, 2023-06-26 13:11:07.962
209.0, 48671.39293806469, 52866.10011650326, 64353.37684790813, -733.0254594117952, -4483.201144123214, -7318.385817812183, 22906.00066256531, 15617.85675500116, 0.056, 0.978, 0.126, 192.0, 0.0, 0.0, 0.0, 0.0, 0.0, 0.0, 0.0, 0.0, 0.0, 1.6878030679664872E9, 0.0, 2023-06-26 13:11:07.966
210.0, 48681.56298179185, 52868.91643630462, 64359.43417065551, -722.1848633509712, -4503.228307155169, -7306.7182072065125, 22885.034726266233, 15615.353359622164, 0.056, 0.978, 0.126, 192.0, 0.0, 0.0, 0.0, 0.0, 0.0, 0.0, 0.0, 0.0, 0.0, 1.6878030679705057E9, 0.0, 2023-06-26 13:11:07.970
211.0, 48731.094447504816, 52921.443035774595, 62400.527286592405, -625.4465133484023, -4424.840739350408, -7204.324865856751, 22957.7673027238, 15711.935247413547, 0.056, 0.978, 0.126, 192.0, 0.0, 0.0, 0.0, 0.0, 0.0, 0.0, 0.0, 0.0, 0.0, 1.6878030679745233E9, 0.0, 2023-06-26 13:11:07.974
212.0, 48699.80200526739, 52898.51014596345, 63272.982927916404, -685.6397611665442, -4454.456800753689, -7263.378174707673, 22939.170651336986, 15663.431961945531, 0.056, 0.978, 0.126, 192.0, 0.0, 0.0, 0.0, 0.0, 0.0, 0.0, 0.0, 0.0, 0.0, 1.6878030679785557E9, 0.0, 2023-06-26 13:11:07.978
213.0, 48686.7932899944, 52885.300264990365, 64096.28708318318, -712.9312411464741, -4465.677376470253, -7305.153585094641, 22914.650787669514, 15626.126900449623, 0.056, 0.978, 0.126, 192.0, 0.0, 0.0, 0.0, 0.0, 0.0, 0.0, 0.0, 0.0, 0.0, 1.6878030679825878E9, 0.0, 2023-06-26 13:11:07.982
214.0, 48680.490098058, 52876.918360819625, 64662.83674989185, -717.7592179488204, -4496.478080329666, -7305.265343816918, 22892.61196763658, 15616.359188122653, 0.056, 0.978, 0.126, 192.0, 0.0, 0.0, 0.0, 0.0, 0.0, 0.0, 0.0, 0.0, 0.0, 1.6878030679866436E9, 0.0, 2023-06-26 13:11:07.986
215.0, 48745.82424710086, 52939.72676273904, 62480.077145108844, -620.7973505016984, -4417.01762879105, -7207.252944380396, 22957.83435795717, 15707.308436311298, 0.056, 0.978, 0.126, 192.0, 0.0, 0.0, 0.0, 0.0, 0.0, 0.0, 0.0, 0.0, 0.0, 1.6878030679916253E9, 0.0, 2023-06-26 13:11:07.991
216.0, 48716.16348220867, 52919.40902702916, 63117.32537952965, -665.4337841789466, -4433.379105732334, -7242.456941897505, 22962.528224292782, 15688.24239829092, 0.056, 0.978, 0.126, 192.0, 0.0, 0.0, 0.0, 0.0, 0.0, 0.0, 0.0, 0.0, 0.0, 1.6878030679956453E9, 0.0, 2023-06-26 13:11:07.995
217.0, 48694.86226974276, 52894.30801800585, 63866.91348158282, -708.3938370220467, -4459.843571167418, -7296.3246460347955, 22921.02103483928, 15629.814938284748, 0.056, 0.978, 0.126, 192.0, 0.0, 0.0, 0.0, 0.0, 0.0, 0.0, 0.0, 0.0, 0.0, 1.6878030679996748E9, 0.0, 2023-06-26 13:11:07.999
218.0, 48679.841897468796, 52876.73954686398, 64840.86839447837, -718.8321016826751, -4491.203068638214, -7302.672541460102, 22897.842275839124, 15616.895629989582, 0.052000000000000005, 0.982, 0.126, 192.0, 1.0, 160.0, 30.0, 176.0, 3.0, 240.0, 0.0, 0.0, 0.0, 1.687803068003674E9, 0.0, 2023-06-26 13:11:08.003
219.0, 48751.34512798132, 52938.60917551627, 62682.98628127412, -624.1501121699944, -4422.225585249136, -7209.488118825927, 22946.25615432932, 15693.003319859901, 0.052000000000000005, 0.982, 0.126, 192.0, 0.0, 0.0, 0.0, 0.0, 0.0, 0.0, 0.0, 0.0, 0.0, 1.6878030680077105E9, 0.0, 2023-06-26 13:11:08.007
220.0, 48717.951621765096, 52918.62671597323, 62962.13721777645, -659.8905515540304, -4427.522948685044, -7234.566776104782, 22962.371762081595, 15690.410517503085, 0.052000000000000005, 0.982, 0.126, 192.0, 0.0, 0.0, 0.0, 0.0, 0.0, 0.0, 0.0, 0.0, 0.0, 1.6878030680117223E9, 0.0, 2023-06-26 13:11:08.011
221.0, 48694.63875229821, 52888.89889584767, 63719.52607864453, -721.9836976508734, -4462.54813224651, -7302.247858315452, 22911.34272949013, 15617.677941045516, 0.052000000000000005, 0.982, 0.126, 192.0, 0.0, 0.0, 0.0, 0.0, 0.0, 0.0, 0.0, 0.0, 0.0, 1.687803068015752E9, 0.0, 2023-06-26 13:11:08.015
222.0, 48663.122792616225, 52862.97087227951, 64937.91966890331, -738.9263199479961, -4493.5276500615655, -7323.414960314627, 22891.092049013623, 15605.22801938391, 0.052000000000000005, 0.982, 0.126, 192.0, 0.0, 0.0, 0.0, 0.0, 0.0, 0.0, 0.0, 0.0, 0.0, 1.687803068018738E9, 0.0, 2023-06-26 13:11:08.018
223.0, 48730.088619004324, 52919.56548924035, 63058.31677416764, -649.8993217825082, -4443.616204692866, -7241.093485485731, 22924.262037785298, 15668.416400959064, 0.052000000000000005, 0.982, 0.126, 192.0, 0.0, 0.0, 0.0, 0.0, 0.0, 0.0, 0.0, 0.0, 0.0, 1.6878030680217588E9, 0.0, 2023-06-26 13:11:08.021
224.0, 48717.30342117589, 52921.68890496361, 62774.04728818504, -647.4182781479691, -4425.1983672616925, -7223.86029051069, 22969.74783775185, 15707.353139800209, 0.052000000000000005, 0.982, 0.126, 192.0, 0.0, 0.0, 0.0, 0.0, 0.0, 0.0, 0.0, 0.0, 0.0, 1.687803068026784E9, 0.0, 2023-06-26 13:11:08.026
225.0, 48692.694150530595, 52892.028140071416, 63562.23685291253, -714.674677213988, -4472.204085851203, -7299.275076302895, 22918.942322604933, 15628.809109784259, 0.052000000000000005, 0.982, 0.126, 192.0, 0.0, 0.0, 0.0, 0.0, 0.0, 0.0, 0.0, 0.0, 0.0, 1.6878030680308073E9, 0.0, 2023-06-26 13:11:08.030
226.0, 48659.211237336545, 52861.47330540101, 64819.90245817929, -738.3228228477029, -4500.501394331622, -7316.865899189223, 22896.76939210527, 15613.274647387821, 0.052000000000000005, 0.982, 0.126, 192.0, 0.0, 0.0, 0.0, 0.0, 0.0, 0.0, 0.0, 0.0, 0.0, 1.6878030680348318E9, 0.0, 2023-06-26 13:11:08.034
227.0, 48714.48710137452, 52903.44988148807, 63463.39743893116, -669.9711883033739, -4468.001957893605, -7253.565758891793, 22907.81115386619, 15656.10058976419, 0.052000000000000005, 0.982, 0.126, 192.0, 0.0, 0.0, 0.0, 0.0, 0.0, 0.0, 0.0, 0.0, 0.0, 1.687803068038846E9, 0.0, 2023-06-26 13:11:08.038
228.0, 48720.946755522105, 52923.275878819935, 62583.45396321463, -634.8565977640865, -4422.963192816162, -7213.958467716989, 22965.903337705535, 15719.221916105977, 0.046, 0.982, 0.122, 192.0, 1.0, 112.0, 30.0, 176.0, 3.0, 208.0, 0.0, 0.0, 0.0, 1.6878030680428753E9, 0.0, 2023-06-26 13:11:08.042
229.0, 48701.61249656827, 52898.26427677444, 63480.1835990171, -703.2976392862367, -4461.721117701664, -7291.541372721359, 22922.63036044006, 15642.510729135363, 0.046, 0.982, 0.122, 192.0, 0.0, 0.0, 0.0, 0.0, 0.0, 0.0, 0.0, 0.0, 0.0, 1.6878030680458672E9, 0.0, 2023-06-26 13:11:08.045
230.0, 48676.46678405604, 52876.80660209735, 64621.57542962735, -724.8447209411528, -4478.999016165616, -7308.68516071858, 22909.86751435608, 15626.305714405265, 0.046, 0.982, 0.122, 192.0, 0.0, 0.0, 0.0, 0.0, 0.0, 0.0, 0.0, 0.0, 0.0, 1.6878030680499523E9, 0.0, 2023-06-26 13:11:08.049
231.0, 48705.18877568111, 52895.98439884, 63895.36725227443, -692.0547118252173, -4481.50241154461, -7276.029262069376, 22897.596406650115, 15636.520461621341, 0.046, 0.982, 0.122, 192.0, 0.0, 0.0, 0.0, 0.0, 0.0, 0.0, 0.0, 0.0, 0.0, 1.6878030680539436E9, 0.0, 2023-06-26 13:11:08.053
232.0, 48734.223691728555, 52930.02610564543, 62432.0879497633, -620.7973505016984, -4411.362637443857, -7200.189793132519, 22974.97814595439, 15724.92161094208, 0.046, 0.982, 0.122, 192.0, 0.0, 0.0, 0.0, 0.0, 0.0, 0.0, 0.0, 0.0, 0.0, 1.6878030680589466E9, 0.0, 2023-06-26 13:11:08.058
233.0, 48702.05953145737, 52898.66660817464, 63383.69111820354, -696.5027089718234, -4453.3168617864685, -7280.901942360633, 22938.991837381345, 15650.33383969472, 0.046, 0.982, 0.122, 192.0, 0.0, 0.0, 0.0, 0.0, 0.0, 0.0, 0.0, 0.0, 0.0, 1.6878030680629704E9, 0.0, 2023-06-26 13:11:08.062
234.0, 48678.724310246034, 52876.8289538418, 64373.47106617345, -722.2742703287925, -4472.606417251399, -7314.138986365675, 22912.57207543517, 15622.058882958758, 0.046, 0.982, 0.122, 192.0, 0.0, 0.0, 0.0, 0.0, 0.0, 0.0, 0.0, 0.0, 0.0, 1.687803068066991E9, 0.0, 2023-06-26 13:11:08.066
235.0, 48689.430795840126, 52879.75703236545, 64313.501335799854, -706.4939387433457, -4491.806565738508, -7292.726015177491, 22896.612929894083, 15622.103586447667, 0.046, 0.982, 0.122, 192.0, 0.0, 0.0, 0.0, 0.0, 0.0, 0.0, 0.0, 0.0, 0.0, 1.6878030680710084E9, 0.0, 2023-06-26 13:11:08.071
236.0, 48734.156636495194, 52930.22727134553, 62399.677920303104, -623.2336906473269, -4414.044846778494, -7205.598915290704, 22968.294974362252, 15713.522221269874, 0.046, 0.982, 0.122, 192.0, 0.0, 0.0, 0.0, 0.0, 0.0, 0.0, 0.0, 0.0, 0.0, 1.6878030680750349E9, 0.0, 2023-06-26 13:11:08.075
237.0, 48698.90793548917, 52901.63939018719, 63291.780745003314, -692.3899879920468, -4452.802771663996, -7273.056480056821, 22942.009322882812, 15658.469874676452, 0.046, 0.982, 0.122, 192.0, 0.0, 0.0, 0.0, 0.0, 0.0, 0.0, 0.0, 0.0, 0.0, 1.6878030680810504E9, 0.0, 2023-06-26 13:11:08.081
238.0, 48684.40165333768, 52885.47907894601, 64123.422100951924, -720.8437586836528, -4469.857152683396, -7308.5957537407585, 22915.947188847924, 15623.042359714791, 0.048, 0.984, 0.122, 192.0, 1.0, 128.0, 30.0, 192.0, 3.0, 208.0, 0.0, 0.0, 0.0, 1.6878030680840728E9, 0.0, 2023-06-26 13:11:08.084
239.0, 48677.472612556536, 52873.25267472895, 64657.829959133865, -727.5939855091555, -4501.283705387557, -7311.948515409054, 22889.505075157296, 15609.85483048616, 0.048, 0.984, 0.122, 192.0, 0.0, 0.0, 0.0, 0.0, 0.0, 0.0, 0.0, 0.0, 0.0, 1.6878030680880756E9, 0.0, 2023-06-26 13:11:08.088
240.0, 48733.41902892817, 52927.120378866246, 62494.31520632687, -635.7059640533881, -4425.958326573173, -7220.909860242589, 22949.385398553062, 15695.305549538798, 0.048, 0.984, 0.122, 192.0, 0.0, 0.0, 0.0, 0.0, 0.0, 0.0, 0.0, 0.0, 0.0, 1.68780306809211E9, 0.0, 2023-06-26 13:11:08.092
241.0, 48700.8972407457, 52904.99215185549, 63175.395211624535, -685.550354188723, -4444.68908842672, -7265.032203797366, 22950.41357879801, 15669.86926434866, 0.048, 0.984, 0.122, 192.0, 0.0, 0.0, 0.0, 0.0, 0.0, 0.0, 0.0, 0.0, 0.0, 1.687803068096212E9, 0.0, 2023-06-26 13:11:08.096
242.0, 48691.39774935219, 52890.24000051499, 63907.12426985792, -721.0225726392953, -4458.88244615584, -7309.154547352141, 22920.77516565027, 15623.690560303994, 0.048, 0.984, 0.122, 192.0, 0.0, 0.0, 0.0, 0.0, 0.0, 0.0, 0.0, 0.0, 0.0, 1.6878030681002083E9, 0.0, 2023-06-26 13:11:08.100
243.0, 48669.60479850826, 52866.05541301434, 64857.22987141966, -736.1547036355381, -4493.974684950672, -7316.821195700311, 22897.417592694474, 15611.754728764861, 0.048, 0.984, 0.122, 192.0, 0.0, 0.0, 0.0, 0.0, 0.0, 0.0, 0.0, 0.0, 0.0, 1.687803068103204E9, 0.0, 2023-06-26 13:11:08.103
244.0, 48729.954508537594, 52919.09610260679, 62698.74426111511, -644.7807723022428, -4431.881538853829, -7225.491967855927, 22940.824680426682, 15684.666119178071, 0.048, 0.984, 0.122, 192.0, 0.0, 0.0, 0.0, 0.0, 0.0, 0.0, 0.0, 0.0, 0.0, 1.687803068106214E9, 0.0, 2023-06-26 13:11:08.106
245.0, 48705.59110708131, 52908.3896170127, 62998.05647111613, -666.1713917459717, -4427.634707407321, -7240.981726763454, 22966.35037259464, 15693.115078582177, 0.048, 0.984, 0.122, 192.0, 0.0, 0.0, 0.0, 0.0, 0.0, 0.0, 0.0, 0.0, 0.0, 1.6878030681101985E9, 0.0, 2023-06-26 13:11:08.110
246.0, 48685.02750218243, 52880.762860865936, 63743.889480100814, -720.5531860057338, -4460.000033378606, -7312.507309020438, 22917.556514448705, 15622.751787036872, 0.048, 0.984, 0.122, 192.0, 0.0, 0.0, 0.0, 0.0, 0.0, 0.0, 0.0, 0.0, 0.0, 1.6878030681141987E9, 0.0, 2023-06-26 13:11:08.114
247.0, 48660.261769325945, 52856.6229768542, 64939.39488403736, -738.7028025034431, -4494.689940773242, -7326.723018494013, 22894.53421765974, 15607.351435107164, 0.048, 0.984, 0.122, 192.0, 0.0, 0.0, 0.0, 0.0, 0.0, 0.0, 0.0, 0.0, 0.0, 1.6878030681182547E9, 0.0, 2023-06-26 13:11:08.118
248.0, 48722.421970656156, 52908.25550654597, 63052.90765200945, -656.5377898857344, -4453.182751319737, -7250.7717908348795, 22917.198886537422, 15661.710877622472, 0.048, 0.982, 0.126, 192.0, 1.0, 128.0, 30.0, 176.0, 3.0, 240.0, 0.0, 0.0, 0.0, 1.687803068123278E9, 0.0, 2023-06-26 13:11:08.123
249.0, 48714.576508352344, 52914.871622904735, 62827.06562603303, -647.9100165259858, -4424.706628883676, -7232.219842936975, 22963.98108768238, 15699.284160051842, 0.048, 0.982, 0.126, 192.0, 0.0, 0.0, 0.0, 0.0, 0.0, 0.0, 0.0, 0.0, 0.0, 1.687803068126279E9, 0.0, 2023-06-26 13:11:08.126
250.0, 48696.80687151037, 52894.03979707239, 63604.705167377615, -706.5833457211669, -4456.64727171031, -7297.866916402211, 22920.752813905816, 15627.982095239413, 0.048, 0.982, 0.126, 192.0, 0.0, 0.0, 0.0, 0.0, 0.0, 0.0, 0.0, 0.0, 0.0, 1.6878030681302872E9, 0.0, 2023-06-26 13:11:08.130
251.0, 48664.6874147281, 52867.37416593721, 64859.241528420636, -731.5725960222002, -4486.464498813689, -7317.357637567239, 22900.61389215158, 15612.268818887333, 0.048, 0.982, 0.126, 192.0, 0.0, 0.0, 0.0, 0.0, 0.0, 0.0, 0.0, 0.0, 0.0, 1.6878030681343157E9, 0.0, 2023-06-26 13:11:08.134
252.0, 48722.466674145064, 52912.144710081186, 63453.428560904096, -659.9129032984857, -4458.703632200198, -7256.7620583489015, 22909.91221784499, 15652.278441462333, 0.048, 0.982, 0.126, 192.0, 0.0, 0.0, 0.0, 0.0, 0.0, 0.0, 0.0, 0.0, 0.0, 1.6878030681403553E9, 0.0, 2023-06-26 13:11:08.140
253.0, 48726.78056082494, 52929.78023645643, 62625.78816721299, -625.7370860263212, -4414.178957245226, -7213.802005505801, 22968.138512151065, 15713.701035225517, 0.048, 0.982, 0.126, 192.0, 0.0, 0.0, 0.0, 0.0, 0.0, 0.0, 0.0, 0.0, 0.0, 1.6878030681434011E9, 0.0, 2023-06-26 13:11:08.143
254.0, 48701.9477727351, 52901.50527972046, 63509.15145983118, -696.7485781608318, -4458.234245566636, -7288.121555819697, 22920.506944716806, 15636.38635115461, 0.048, 0.982, 0.126, 192.0, 0.0, 0.0, 0.0, 0.0, 0.0, 0.0, 0.0, 0.0, 0.0, 1.6878030681484022E9, 0.0, 2023-06-26 13:11:08.148
255.0, 48674.23160961051, 52878.12535502021, 64669.60932846181, -717.6027557376333, -4478.194353365226, -7303.700721705047, 22904.659557897994, 15621.634199814107, 0.048, 0.982, 0.126, 192.0, 0.0, 0.0, 0.0, 0.0, 0.0, 0.0, 0.0, 0.0, 0.0, 1.6878030681514132E9, 0.0, 2023-06-26 13:11:08.151
0.0, 48706.820453026354, 52900.61120994225, 63893.04267085108, -680.2753424972705, -4475.333330074946, -7270.217808510996, 22899.38454620654, 15633.972362753435, 0.048, 0.982, 0.126, 192.0, 0.0, 0.0, 0.0, 0.0, 0.0, 0.0, 0.0, 0.0, 0.0, 1.687803068156428E9, 0.0, 2023-06-26 13:11:08.156
1.0, 48732.92729055015, 52937.26807084896, 62460.429961732625, -618.7409900118101, -4407.026399019528, -7194.221877362952, 22973.54763430925, 15719.601895761716, 0.048, 0.982, 0.126, 192.0, 0.0, 0.0, 0.0, 0.0, 0.0, 0.0, 0.0, 0.0, 0.0, 1.6878030681594415E9, 0.0, 2023-06-26 13:11:08.159
2.0, 48697.052740699386, 52903.29341927689, 63403.89709519114, -694.0663688261949, -4454.590911220421, -7270.240160255452, 22928.59827620963, 15649.216252471955, 0.048, 0.982, 0.126, 192.0, 0.0, 0.0, 0.0, 0.0, 0.0, 0.0, 0.0, 0.0, 0.0, 1.6878030681634636E9, 0.0, 2023-06-26 13:11:08.163
3.0, 48671.4376415536, 52878.170058509124, 64420.543839996324, -719.8826336720746, -4475.489792286133, -7305.6006199837475, 22905.508924187296, 15624.003484726369, 0.048, 0.982, 0.128, 192.0, 1.0, 128.0, 30.0, 176.0, 4.0, 0.0, 0.0, 0.0, 0.0, 1.6878030681674883E9, 0.0, 2023-06-26 13:11:08.167
4.0, 48690.10134817378, 52888.40715746965, 64308.96393167543, -697.8214618946865, -4490.957199449205, -7286.623988941192, 22895.182418248944, 15625.769272538339, 0.048, 0.982, 0.128, 192.0, 0.0, 0.0, 0.0, 0.0, 0.0, 0.0, 0.0, 0.0, 0.0, 1.6878030681714947E9, 0.0, 2023-06-26 13:11:08.171
5.0, 48735.54244465142, 52939.257376105474, 62424.130728737204, -611.7225422528437, -4412.323762455436, -7193.014883162366, 22970.50779706333, 15722.082939396256, 0.048, 0.982, 0.128, 192.0, 0.0, 0.0, 0.0, 0.0, 0.0, 0.0, 0.0, 0.0, 0.0, 1.6878030681765401E9, 0.0, 2023-06-26 13:11:08.176
6.0, 48696.80687151037, 52906.355608267266, 63336.595992636205, -685.1033192996168, -4453.607434464388, -7264.562817163804, 22942.63517172756, 15664.124866023645, 0.048, 0.982, 0.128, 192.0, 0.0, 0.0, 0.0, 0.0, 0.0, 0.0, 0.0, 0.0, 0.0, 1.6878030681805289E9, 0.0, 2023-06-26 13:11:08.180
7.0, 48676.64559801169, 52884.69676789007, 64176.7980667112, -716.7757411927869, -4472.874638184862, -7305.354750794739, 22910.605121923105, 15624.718740548939, 0.048, 0.982, 0.128, 192.0, 0.0, 0.0, 0.0, 0.0, 0.0, 0.0, 0.0, 0.0, 0.0, 1.687803068183548E9, 0.0, 2023-06-26 13:11:08.183
8.0, 48675.080975899815, 52879.779384109905, 64644.44126420513, -716.9769068928847, -4501.12724317637, -7302.404320526639, 22882.91131054298, 15616.001560211369, 0.048, 0.982, 0.128, 192.0, 0.0, 0.0, 0.0, 0.0, 0.0, 0.0, 0.0, 0.0, 0.0, 1.6878030681866972E9, 0.0, 2023-06-26 13:11:08.186
9.0, 48736.28005221845, 52939.19032087211, 62470.421191504145, -619.612708045567, -4422.449102693689, -7203.341389100718, 22952.20171835443, 15708.448375278518, 0.048, 0.982, 0.128, 192.0, 0.0, 0.0, 0.0, 0.0, 0.0, 0.0, 0.0, 0.0, 0.0, 1.6878030681905947E9, 0.0, 2023-06-26 13:11:08.190
10.0, 48703.959429736075, 52917.039742116904, 63177.764496536794, -665.8137638346868, -4443.057411081482, -7244.267433198385, 22956.515605034307, 15682.72151741046, 0.048, 0.982, 0.128, 192.0, 0.0, 0.0, 0.0, 0.0, 0.0, 0.0, 0.0, 0.0, 0.0, 1.6878030681945972E9, 0.0, 2023-06-26 13:11:08.194
11.0, 48690.57073480734, 52899.02423608593, 63929.45366256877, -702.0906450856502, -4461.497600257111, -7293.553029722337, 22922.563305206695, 15632.184223197011, 0.048, 0.982, 0.128, 192.0, 0.0, 0.0, 0.0, 0.0, 0.0, 0.0, 0.0, 0.0, 0.0, 1.68780306819864E9, 0.0, 2023-06-26 13:11:08.198
12.0, 48671.01295840895, 52877.611264897736, 64860.98496448815, -712.7524271908317, -4497.148632663326, -7303.58896298277, 22897.52935141675, 15619.175507924023, 0.048, 0.982, 0.128, 192.0, 0.0, 0.0, 0.0, 0.0, 0.0, 0.0, 0.0, 0.0, 0.0, 1.6878030682026665E9, 0.0, 2023-06-26 13:11:08.202
13.0, 48734.089581261826, 52933.535329524915, 62684.08151675243, -619.098617923095, -4435.033134822027, -7212.3267903717515, 22944.088035117155, 15694.232665804944, 0.05, 0.984, 0.126, 192.0, 1.0, 144.0, 30.0, 192.0, 3.0, 240.0, 0.0, 0.0, 0.0, 1.6878030682066824E9, 0.0, 2023-06-26 13:11:08.206
14.0, 48715.40352289719, 52928.52853876693, 63003.80086944114, -643.484371123835, -4429.869881852851, -7222.183909676542, 22972.653564531036, 15706.459070021996, 0.05, 0.984, 0.126, 192.0, 0.0, 0.0, 0.0, 0.0, 0.0, 0.0, 0.0, 0.0, 0.0, 1.6878030682107036E9, 0.0, 2023-06-26 13:11:08.210
