%OpenBCI Raw EEG Data
%Number of channels = 8
%Sample Rate = 250 Hz
%Board = OpenBCI_GUI$BoardCytonSerial
Sample Index, EXG Channel 0, EXG Channel 1, EXG Channel 2, EXG Channel 3, EXG Channel 4, EXG Channel 5, EXG Channel 6, EXG Channel 7, Accel Channel 0, Accel Channel 1, Accel Channel 2, Other, Other, Other, Other, Other, Other, Other, Analog Channel 0, Analog Channel 1, Analog Channel 2, Timestamp, Other, Timestamp (Formatted)
233.0, 48558.58368379876, 52886.775480124415, 65067.53743499964, -456.46732526628085, -4366.279168877503, -7114.806129313247, 23144.761996836904, 15825.549164479873, 0.0, 0.0, 0.0, 192.0, 0.0, 0.0, 0.0, 0.0, 0.0, 0.0, 0.0, 0.0, 0.0, 1.687803117901878E9, 0.0, 2023-06-26 13:11:57.901
234.0, 48619.04515255036, 52948.68981226561, 62948.72617110326, -356.1303444064074, -4284.918819060185, -7010.267020495775, 23215.10293663775, 15924.366226716786, 0.0, 0.0, 0.0, 192.0, 0.0, 0.0, 0.0, 0.0, 0.0, 0.0, 0.0, 0.0, 0.0, 1.6878031179019184E9, 0.0, 2023-06-26 13:11:57.901
0.0, 0.0, 0.0, 0.0, 0.0, 0.0, 0.0, 0.0, 0.0, 0.0, 0.0, 0.0, 192.0, 0.0, 0.0, 0.0, 0.0, 0.0, 0.0, 0.0, 0.0, 0.0, 1.6878031179936943E9, 0.0, 2023-06-26 13:11:57.993
1.0, 48074.55665761908, 53892.201649213035, 65302.76719364729, 314.15376831934077, -3818.080284366642, -6825.373390361476, 22317.14395489025, 15299.232637790758, -0.058, 0.976, 0.1, 192.0, 254.0, 48.0, 30.0, 128.0, 3.0, 32.0, 0.0, 0.0, 0.0, 1.6878031180097706E9, 0.0, 2023-06-26 13:11:58.009
2.0, 48141.47778051827, 53964.129562870214, 63417.24108663096, 409.4616066767701, -3738.888053761489, -6724.455264145764, 22401.611197186852, 15394.942807548381, -0.058, 0.976, 0.1, 192.0, 0.0, 0.0, 0.0, 0.0, 0.0, 0.0, 0.0, 0.0, 0.0, 1.6878031180138063E9, 0.0, 2023-06-26 13:11:58.013
3.0, 48092.70627411679, 53918.59905941476, 64553.76023694995, 335.4326290407931, -3765.2854639632064, -6785.922561397858, 22382.209882999647, 15351.423961093898, -0.058, 0.976, 0.1, 192.0, 0.0, 0.0, 0.0, 0.0, 0.0, 0.0, 0.0, 0.0, 0.0, 1.6878031180168045E9, 0.0, 2023-06-26 13:11:58.016
4.0, 48074.80252680809, 53891.642855601654, 64935.5280322466, 304.36370424791625, -3772.549780911181, -6809.168375631378, 22356.214804198124, 15315.12472809848, -0.058, 0.976, 0.1, 192.0, 0.0, 0.0, 0.0, 0.0, 0.0, 0.0, 0.0, 0.0, 0.0, 1.687803118020806E9, 0.0, 2023-06-26 13:11:58.020
5.0, 48066.599436592995, 53884.28913167586, 65538.82396683979, 297.7028844002348, -3806.882060394533, -6823.227622893766, 22337.819318511407, 15308.441556506343, -0.058, 0.976, 0.1, 192.0, 0.0, 0.0, 0.0, 0.0, 0.0, 0.0, 0.0, 0.0, 0.0, 1.687803118025832E9, 0.0, 2023-06-26 13:11:58.025
6.0, 48129.027858856665, 53943.56595797133, 63542.45555906958, 380.02435922913065, -3746.6441090874805, -6743.789523099605, 22385.674403390218, 15382.984624264793, -0.058, 0.976, 0.1, 192.0, 0.0, 0.0, 0.0, 0.0, 0.0, 0.0, 0.0, 0.0, 0.0, 1.6878031180298724E9, 0.0, 2023-06-26 13:11:58.029
7.0, 48081.53040188914, 53909.747768610454, 64407.691586934525, 331.3422598054719, -3764.45844941836, -6775.350186270498, 22384.95914756765, 15358.643574552963, -0.058, 0.976, 0.1, 192.0, 0.0, 0.0, 0.0, 0.0, 0.0, 0.0, 0.0, 0.0, 0.0, 1.687803118033862E9, 0.0, 2023-06-26 13:11:58.033
8.0, 48062.75493654668, 53881.62927408568, 64853.87710975136, 288.9186488292991, -3792.398129987494, -6818.243183880232, 22343.22844066959, 15299.947893613327, -0.114, 0.976, 0.082, 192.0, 252.0, 112.0, 30.0, 128.0, 2.0, 144.0, 0.0, 0.0, 0.0, 1.687803118037905E9, 0.0, 2023-06-26 13:11:58.037
9.0, 48045.43233459382, 53866.31832913379, 65662.76438984447, 275.55230564502546, -3818.3261535556503, -6833.39766662093, 22325.95054220564, 15292.482410965255, -0.114, 0.976, 0.082, 192.0, 0.0, 0.0, 0.0, 0.0, 0.0, 0.0, 0.0, 0.0, 0.0, 1.687803118041924E9, 0.0, 2023-06-26 13:11:58.041
10.0, 48118.03080058465, 53934.33468751129, 63810.162402410795, 366.05451894456377, -3763.6090831290585, -6759.905130851881, 22361.3780571673, 15352.496844827754, -0.114, 0.976, 0.082, 192.0, 0.0, 0.0, 0.0, 0.0, 0.0, 0.0, 0.0, 0.0, 0.0, 1.6878031180479648E9, 0.0, 2023-06-26 13:11:58.047
11.0, 48102.94337307732, 53934.53585321139, 64150.93709837641, 361.0253764421197, -3745.6829840759024, -6746.941119067803, 22393.318699993935, 15379.52010387422, -0.114, 0.976, 0.082, 192.0, 0.0, 0.0, 0.0, 0.0, 0.0, 0.0, 0.0, 0.0, 0.0, 1.6878031180509725E9, 0.0, 2023-06-26 13:11:58.050
12.0, 48076.05422449759, 53897.40960567112, 64779.55755943747, 303.4919862141593, -3784.597371172592, -6815.985657690247, 22344.815414525918, 15309.805012918117, -0.114, 0.976, 0.082, 192.0, 0.0, 0.0, 0.0, 0.0, 0.0, 0.0, 0.0, 0.0, 0.0, 1.687803118054992E9, 0.0, 2023-06-26 13:11:58.054
13.0, 48053.54601783109, 53881.718681063496, 65628.45446210557, 293.6795703982795, -3804.423368504449, -6829.217890407788, 22330.555001563433, 15300.350225013523, -0.114, 0.976, 0.082, 192.0, 0.0, 0.0, 0.0, 0.0, 0.0, 0.0, 0.0, 0.0, 0.0, 1.6878031180579944E9, 0.0, 2023-06-26 13:11:58.057
14.0, 48105.871451600964, 53923.53879493938, 64183.45888655888, 359.70662351925654, -3785.4690892063486, -6773.003253102691, 22342.60259182484, 15337.297658598145, -0.114, 0.976, 0.082, 192.0, 0.0, 0.0, 0.0, 0.0, 0.0, 0.0, 0.0, 0.0, 0.0, 1.6878031180610275E9, 0.0, 2023-06-26 13:11:58.061
15.0, 48099.7023701313, 53931.94305085457, 63901.044595366075, 377.74448129468936, -3748.767524810735, -6742.448418432286, 22391.687022648697, 15382.671699842418, -0.114, 0.976, 0.082, 192.0, 0.0, 0.0, 0.0, 0.0, 0.0, 0.0, 0.0, 0.0, 0.0, 1.6878031180650463E9, 0.0, 2023-06-26 13:11:58.065
16.0, 48072.29913142909, 53892.268704446404, 64775.57894892442, 312.1644630628184, -3792.5098887097706, -6817.863204224492, 22341.037969712972, 15309.670902451386, -0.114, 0.976, 0.082, 192.0, 0.0, 0.0, 0.0, 0.0, 0.0, 0.0, 0.0, 0.0, 0.0, 1.687803118069054E9, 0.0, 2023-06-26 13:11:58.069
17.0, 48043.733602015214, 53866.31832913379, 65514.99700725044, 301.07799781298615, -3800.601220202592, -6832.838873009548, 22336.23234465508, 15303.837097148551, -0.114, 0.976, 0.082, 192.0, 0.0, 0.0, 0.0, 0.0, 0.0, 0.0, 0.0, 0.0, 0.0, 1.6878031180732577E9, 0.0, 2023-06-26 13:11:58.073
18.0, 48093.443881683816, 53910.015989543914, 64598.15080143819, 360.4218793418264, -3787.2795805072287, -6773.3161775250655, 22345.016580226016, 15330.815652706106, -0.138, 0.974, 0.076, 192.0, 251.0, 176.0, 30.0, 112.0, 2.0, 96.0, 0.0, 0.0, 0.0, 1.6878031180771348E9, 0.0, 2023-06-26 13:11:58.077
19.0, 48126.45740824431, 53955.188865088094, 63631.43785374616, 422.02328706065265, -3719.822015741112, -6702.595258068473, 22418.732633439617, 15412.220706012335, -0.138, 0.974, 0.076, 192.0, 0.0, 0.0, 0.0, 0.0, 0.0, 0.0, 0.0, 0.0, 0.0, 1.6878031180800998E9, 0.0, 2023-06-26 13:11:58.080
20.0, 48081.1504222334, 53905.769158097406, 64727.43329136769, 339.0536116425528, -3772.013339044254, -6779.90994213938, 22371.503397405555, 15338.79522547665, -0.138, 0.974, 0.076, 192.0, 0.0, 0.0, 0.0, 0.0, 0.0, 0.0, 0.0, 0.0, 0.0, 1.6878031180841925E9, 0.0, 2023-06-26 13:11:58.084
21.0, 48052.048450952585, 53874.47671585998, 65294.608806921104, 307.2917827715615, -3789.2241822748406, -6815.560974545596, 22347.117644204813, 15313.381292030967, -0.138, 0.974, 0.076, 192.0, 0.0, 0.0, 0.0, 0.0, 0.0, 0.0, 0.0, 0.0, 0.0, 1.6878031180881906E9, 0.0, 2023-06-26 13:11:58.088
22.0, 48073.88610528542, 53889.02770150038, 64998.068213232546, 330.4705417717149, -3795.683836422424, -6798.193669103822, 22331.85140274184, 15316.108204854514, -0.138, 0.974, 0.076, 192.0, 0.0, 0.0, 0.0, 0.0, 0.0, 0.0, 0.0, 0.0, 0.0, 1.6878031180921867E9, 0.0, 2023-06-26 13:11:58.092
23.0, 48115.68386741685, 53941.3307835258, 63488.54315144339, 407.49465316470304, -3721.207823897341, -6712.474729117719, 22406.10389782237, 15404.554057664163, -0.138, 0.974, 0.076, 192.0, 0.0, 0.0, 0.0, 0.0, 0.0, 0.0, 0.0, 0.0, 0.0, 1.6878031180971968E9, 0.0, 2023-06-26 13:11:58.097
24.0, 48062.79964003559, 53892.42516665759, 64698.46543055361, 322.4462655122597, -3776.371929213039, -6793.611561490484, 22368.03887701498, 15336.314181842112, -0.138, 0.974, 0.076, 192.0, 0.0, 0.0, 0.0, 0.0, 0.0, 0.0, 0.0, 0.0, 0.0, 1.6878031181011808E9, 0.0, 2023-06-26 13:11:58.101
25.0, 48048.44982009528, 53872.12978269217, 65100.752127260224, 300.0274658235867, -3779.456469947871, -6819.383122847453, 22354.404312897244, 15316.287018810157, -0.138, 0.974, 0.076, 192.0, 0.0, 0.0, 0.0, 0.0, 0.0, 0.0, 0.0, 0.0, 0.0, 1.68780311810522E9, 0.0, 2023-06-26 13:11:58.105
26.0, 48052.89781724189, 53872.8673902592, 65328.13642360407, 309.03521883907547, -3807.6420197060133, -6809.593058776029, 22330.778519007985, 15314.07419610908, -0.138, 0.974, 0.076, 192.0, 0.0, 0.0, 0.0, 0.0, 0.0, 0.0, 0.0, 0.0, 0.0, 1.6878031181092448E9, 0.0, 2023-06-26 13:11:58.109
27.0, 48113.87337611597, 53938.29094627988, 63435.61422057322, 399.8056530720774, -3734.663574059436, -6715.447511130275, 22390.27886274801, 15400.106060517557, -0.138, 0.974, 0.076, 192.0, 0.0, 0.0, 0.0, 0.0, 0.0, 0.0, 0.0, 0.0, 0.0, 1.6878031181132448E9, 0.0, 2023-06-26 13:11:58.113
28.0, 48068.0970034715, 53898.39308242716, 64572.960385437065, 331.20814933874004, -3761.731536594813, -6776.0207386041575, 22382.500455677564, 15358.218891408313, -0.138, 0.974, 0.076, 192.0, 0.0, 0.0, 0.0, 0.0, 0.0, 0.0, 0.0, 0.0, 0.0, 1.6878031181182888E9, 0.0, 2023-06-26 13:11:58.118
29.0, 48042.14662815889, 53861.84798024273, 64950.79427370957, 285.52118367209243, -3793.336903254617, -6823.004105449213, 22342.893164502762, 15308.463908250798, -0.14400000000000002, 0.974, 0.07, 192.0, 251.0, 128.0, 30.0, 112.0, 2.0, 48.0, 0.0, 0.0, 0.0, 1.6878031181222944E9, 0.0, 2023-06-26 13:11:58.122
30.0, 48037.05043042308, 53857.42233484058, 65570.00465035494, 285.7670528611008, -3810.8383191631224, -6821.126558914967, 22337.03700745547, 15304.954684371316, -0.14400000000000002, 0.974, 0.07, 192.0, 0.0, 0.0, 0.0, 0.0, 0.0, 0.0, 0.0, 0.0, 0.0, 1.6878031181263878E9, 0.0, 2023-06-26 13:11:58.126
31.0, 48103.59157366653, 53921.705951894044, 63580.76644906598, 384.1817836978178, -3742.240815429785, -6724.097636234479, 22394.2351215166, 15383.766935320727, -0.14400000000000002, 0.974, 0.07, 192.0, 0.0, 0.0, 0.0, 0.0, 0.0, 0.0, 0.0, 0.0, 0.0, 1.6878031181303537E9, 0.0, 2023-06-26 13:11:58.130
32.0, 48065.124221458944, 53897.70017834904, 64376.80147609729, 339.6571087428461, -3754.2884056911953, -6753.579587171029, 22394.52569419452, 15371.384068892488, -0.14400000000000002, 0.974, 0.07, 192.0, 0.0, 0.0, 0.0, 0.0, 0.0, 0.0, 0.0, 0.0, 0.0, 1.6878031181343632E9, 0.0, 2023-06-26 13:11:58.134
33.0, 48043.17480840383, 53868.017061712395, 64830.02779841755, 290.99736106364264, -3788.0171880742537, -6815.382160589953, 22348.302286660946, 15307.748652428229, -0.14400000000000002, 0.974, 0.07, 192.0, 0.0, 0.0, 0.0, 0.0, 0.0, 0.0, 0.0, 0.0, 0.0, 1.6878031181373708E9, 0.0, 2023-06-26 13:11:58.137
34.0, 48021.89594768238, 53847.78873298034, 65659.36692468726, 278.61449463540254, -3813.587583731125, -6830.44723635283, 22329.3703591073, 15296.393966244934, -0.14400000000000002, 0.974, 0.07, 192.0, 0.0, 0.0, 0.0, 0.0, 0.0, 0.0, 0.0, 0.0, 0.0, 1.6878031181414032E9, 0.0, 2023-06-26 13:11:58.141
35.0, 48092.32629446105, 53910.95476281104, 63840.15844346982, 365.94276022228723, -3769.0852605206087, -6749.109238279968, 22361.109836233838, 15357.682449541386, -0.14400000000000002, 0.974, 0.07, 192.0, 0.0, 0.0, 0.0, 0.0, 0.0, 0.0, 0.0, 0.0, 0.0, 1.687803118144421E9, 0.0, 2023-06-26 13:11:58.144
36.0, 48074.26608494116, 53909.971286055006, 64122.25981024025, 358.74549850767835, -3743.7830857972012, -6744.683592877816, 22395.79974362847, 15381.889388786483, -0.14400000000000002, 0.974, 0.07, 192.0, 0.0, 0.0, 0.0, 0.0, 0.0, 0.0, 0.0, 0.0, 0.0, 1.6878031181484375E9, 0.0, 2023-06-26 13:11:58.148
37.0, 48050.729698029725, 53876.6671868166, 64779.44580071519, 300.4745007126928, -3785.7149583953574, -6812.96817218878, 22344.05545521444, 15306.899286138927, -0.14400000000000002, 0.974, 0.07, 192.0, 0.0, 0.0, 0.0, 0.0, 0.0, 0.0, 0.0, 0.0, 0.0, 1.6878031181534526E9, 0.0, 2023-06-26 13:11:58.153
38.0, 48020.75600871516, 53851.11914290419, 65624.76642427045, 282.3472359594388, -3807.664371450469, -6830.335477630553, 22322.4189665817, 15295.097565066526, -0.14400000000000002, 0.974, 0.07, 192.0, 0.0, 0.0, 0.0, 0.0, 0.0, 0.0, 0.0, 0.0, 0.0, 1.6878031181574779E9, 0.0, 2023-06-26 13:11:58.157
39.0, 48076.27774194214, 53897.61077137122, 64223.066177733686, 348.597806524969, -3779.2553042477734, -6763.10143030899, 22345.41891162621, 15337.454120809332, -0.152, 0.972, 0.066, 192.0, 251.0, 64.0, 30.0, 96.0, 2.0, 16.0, 0.0, 0.0, 0.0, 1.6878031181614802E9, 0.0, 2023-06-26 13:11:58.161
40.0, 48085.66547461337, 53919.80605361534, 63866.71231588272, 377.31979815003854, -3725.4993588327598, -6723.8964705343815, 22416.3409967829, 15401.648330884975, -0.152, 0.972, 0.066, 192.0, 0.0, 0.0, 0.0, 0.0, 0.0, 0.0, 0.0, 0.0, 0.0, 1.6878031181644967E9, 0.0, 2023-06-26 13:11:58.164
41.0, 48048.82979975102, 53874.54377109335, 64758.94925104967, 303.06730306950845, -3779.8364496036115, -6805.770910474171, 22359.23228969959, 15319.192745589346, -0.152, 0.972, 0.066, 192.0, 0.0, 0.0, 0.0, 0.0, 0.0, 0.0, 0.0, 0.0, 0.0, 1.687803118168515E9, 0.0, 2023-06-26 13:11:58.168
42.0, 48018.1855581028, 53845.151227134615, 65463.54329151432, 283.017788293098, -3790.6099904310695, -6822.735884515749, 22348.70461806114, 15307.83805940605, -0.152, 0.972, 0.066, 192.0, 0.0, 0.0, 0.0, 0.0, 0.0, 0.0, 0.0, 0.0, 0.0, 1.6878031181725502E9, 0.0, 2023-06-26 13:11:58.172
43.0, 48053.9930527202, 53875.32608214928, 64634.45003443361, 324.9943643801647, -3790.788804386712, -6783.732090441238, 22347.117644204813, 15324.445405536344, -0.152, 0.972, 0.066, 192.0, 0.0, 0.0, 0.0, 0.0, 0.0, 0.0, 0.0, 0.0, 0.0, 1.6878031181765656E9, 0.0, 2023-06-26 13:11:58.176
44.0, 48076.41185240887, 53913.949896568054, 63633.33775202486, 375.8222312715329, -3727.622774556014, -6724.90229903487, 22414.35169152638, 15398.206162238857, -0.152, 0.972, 0.066, 192.0, 0.0, 0.0, 0.0, 0.0, 0.0, 0.0, 0.0, 0.0, 0.0, 1.6878031181805823E9, 0.0, 2023-06-26 13:11:58.180
45.0, 48034.927014699824, 53869.559332079814, 64758.72573360512, 298.1722710337962, -3781.646940904491, -6802.351093572509, 22369.178815982203, 15326.233545092768, -0.152, 0.972, 0.066, 192.0, 0.0, 0.0, 0.0, 0.0, 0.0, 0.0, 0.0, 0.0, 0.0, 1.6878031181855867E9, 0.0, 2023-06-26 13:11:58.185
46.0, 48015.12336911242, 53847.34169809124, 65295.72639414387, 282.39193944834943, -3787.525449696237, -6817.304410613109, 22355.90187977575, 15316.331722299066, -0.152, 0.972, 0.066, 192.0, 0.0, 0.0, 0.0, 0.0, 0.0, 0.0, 0.0, 0.0, 0.0, 1.6878031181895995E9, 0.0, 2023-06-26 13:11:58.189
47.0, 48031.82012222053, 53857.601148796224, 65057.92618488386, 300.29568675705036, -3803.685760937424, -6814.6445530229275, 22335.628847554788, 15315.705873454319, -0.152, 0.972, 0.066, 192.0, 0.0, 0.0, 0.0, 0.0, 0.0, 0.0, 0.0, 0.0, 0.0, 1.6878031181936424E9, 0.0, 2023-06-26 13:11:58.193
48.0, 48084.056149012584, 53916.743864624965, 63497.01446259195, 396.98933327070876, -3728.248623400763, -6710.261906416644, 22415.446927004687, 15410.253752500268, -0.152, 0.972, 0.066, 192.0, 0.0, 0.0, 0.0, 0.0, 0.0, 0.0, 0.0, 0.0, 0.0, 1.68780311819767E9, 0.0, 2023-06-26 13:11:58.197
49.0, 48046.30405262757, 53880.042300229354, 64681.83573267886, 327.40835278133784, -3769.8675715765444, -6775.0819653370345, 22379.885301576294, 15349.747580259751, -0.152, 0.97, 0.062, 192.0, 251.0, 64.0, 30.0, 80.0, 1.0, 240.0, 0.0, 0.0, 0.0, 1.687803118201685E9, 0.0, 2023-06-26 13:11:58.201
50.0, 48030.233148364205, 53858.584625552256, 65081.99901366222, 299.58043093448055, -3781.2893129932063, -6811.738826243738, 22352.593821596365, 15319.08098686707, -0.152, 0.97, 0.062, 192.0, 0.0, 0.0, 0.0, 0.0, 0.0, 0.0, 0.0, 0.0, 0.0, 1.6878031182057028E9, 0.0, 2023-06-26 13:11:58.205
51.0, 48037.34100310099, 53864.53018957737, 65380.7300783074, 313.10323632994135, -3805.786824916223, -6789.9905788887245, 22331.829050997385, 15313.917733897893, -0.152, 0.97, 0.062, 192.0, 0.0, 0.0, 0.0, 0.0, 0.0, 0.0, 0.0, 0.0, 0.0, 1.6878031182097187E9, 0.0, 2023-06-26 13:11:58.209
52.0, 48098.964762564276, 53928.836158375285, 63455.95430802755, 409.68512412132316, -3731.8696060025227, -6706.842089514982, 22398.325490751922, 15401.223647740324, -0.152, 0.97, 0.062, 192.0, 0.0, 0.0, 0.0, 0.0, 0.0, 0.0, 0.0, 0.0, 0.0, 1.6878031182147572E9, 0.0, 2023-06-26 13:11:58.214
53.0, 48053.43425910881, 53891.374634668195, 64555.615431739745, 344.1721611228181, -3761.0386325166983, -6755.077154049534, 22390.10004879237, 15366.71255430133, -0.152, 0.97, 0.062, 192.0, 0.0, 0.0, 0.0, 0.0, 0.0, 0.0, 0.0, 0.0, 0.0, 1.687803118217765E9, 0.0, 2023-06-26 13:11:58.217
54.0, 48036.87161646743, 53865.491314588944, 64915.567924448005, 307.47059672720394, -3781.55753392667, -6792.449270778808, 22354.627830341797, 15321.204402590323, -0.152, 0.97, 0.062, 192.0, 0.0, 0.0, 0.0, 0.0, 0.0, 0.0, 0.0, 0.0, 0.0, 1.6878031182207732E9, 0.0, 2023-06-26 13:11:58.220
55.0, 48028.154436129866, 53856.37180285118, 65578.56536848133, 305.3024775150392, -3815.6439442210135, -6810.353018087509, 22328.23042014008, 15306.564009972099, -0.152, 0.97, 0.062, 192.0, 0.0, 0.0, 0.0, 0.0, 0.0, 0.0, 0.0, 0.0, 0.0, 1.6878031182247841E9, 0.0, 2023-06-26 13:11:58.224
56.0, 48102.07165504356, 53925.46104496253, 63584.096858989826, 400.9455920392981, -3761.1280394945193, -6730.713752593249, 22384.75798186755, 15381.531760875198, -0.152, 0.97, 0.062, 192.0, 0.0, 0.0, 0.0, 0.0, 0.0, 0.0, 0.0, 0.0, 0.0, 1.6878031182288167E9, 0.0, 2023-06-26 13:11:58.228
57.0, 48063.13491620242, 53899.84594581675, 64343.47502511442, 353.29167286058345, -3753.975481268821, -6765.224846032244, 22393.542217438488, 15368.56774909112, -0.152, 0.97, 0.062, 192.0, 0.0, 0.0, 0.0, 0.0, 0.0, 0.0, 0.0, 0.0, 0.0, 1.6878031182328267E9, 0.0, 2023-06-26 13:11:58.232
58.0, 48044.0912299265, 53867.525323334376, 64799.182391069226, 306.6435821823576, -3772.013339044254, -6814.510442556196, 22347.788196538473, 15310.252047807224, -0.152, 0.97, 0.062, 192.0, 0.0, 0.0, 0.0, 0.0, 0.0, 0.0, 0.0, 0.0, 0.0, 1.6878031182368507E9, 0.0, 2023-06-26 13:11:58.236
59.0, 48020.800712204065, 53844.19010212304, 65652.48258739503, 292.0925965419527, -3803.685760937424, -6823.786416505149, 22328.297475373445, 15296.50572496721, -0.154, 0.974, 0.064, 192.0, 251.0, 48.0, 30.0, 112.0, 2.0, 0.0, 0.0, 0.0, 0.0, 1.687803118240864E9, 0.0, 2023-06-26 13:11:58.240
60.0, 48093.82386133956, 53911.58061165579, 63870.422705462304, 381.9689609967424, -3757.4176499149385, -6735.608784628962, 22366.00486826955, 15359.18001641989, -0.154, 0.974, 0.064, 192.0, 0.0, 0.0, 0.0, 0.0, 0.0, 0.0, 0.0, 0.0, 0.0, 1.687803118243895E9, 0.0, 2023-06-26 13:11:58.243
61.0, 48072.969683762756, 53907.28907672037, 64093.023728492706, 379.5549725955692, -3736.496417104771, -6729.931441537314, 22407.601464700874, 15391.657101113451, -0.154, 0.974, 0.064, 192.0, 0.0, 0.0, 0.0, 0.0, 0.0, 0.0, 0.0, 0.0, 0.0, 1.6878031182479043E9, 0.0, 2023-06-26 13:11:58.247
62.0, 48039.97850894672, 53866.94417797854, 64770.52745467752, 314.5560997195363, -3779.657635647969, -6802.127576127956, 22355.4771966311, 15316.041149621147, -0.154, 0.974, 0.064, 192.0, 0.0, 0.0, 0.0, 0.0, 0.0, 0.0, 0.0, 0.0, 0.0, 1.6878031182539527E9, 0.0, 2023-06-26 13:11:58.253
63.0, 48014.1845958453, 53844.950061434516, 65607.71204325104, 300.69801815724594, -3793.113385810064, -6810.934163443347, 22346.782368037984, 15312.196649574835, -0.154, 0.974, 0.064, 192.0, 0.0, 0.0, 0.0, 0.0, 0.0, 0.0, 0.0, 0.0, 0.0, 1.6878031182569463E9, 0.0, 2023-06-26 13:11:58.256
64.0, 48063.023157480144, 53883.395061897645, 64265.57919568768, 357.2032281402622, -3771.655711132969, -6759.547502940596, 22359.65697284424, 15347.981792447781, -0.154, 0.974, 0.064, 192.0, 0.0, 0.0, 0.0, 0.0, 0.0, 0.0, 0.0, 0.0, 0.0, 1.6878031182609613E9, 0.0, 2023-06-26 13:11:58.260
65.0, 48064.25250342518, 53899.86829756121, 63838.906745780325, 382.9524377527759, -3729.8132455126342, -6725.99753451318, 22410.06015659096, 15399.211990739346, -0.154, 0.974, 0.064, 192.0, 0.0, 0.0, 0.0, 0.0, 0.0, 0.0, 0.0, 0.0, 0.0, 1.6878031182649937E9, 0.0, 2023-06-26 13:11:58.264
66.0, 48036.42458157833, 53861.91503547609, 64757.786960337995, 315.74074217566755, -3780.1493740259857, -6800.562954016084, 22366.586013625387, 15324.266591580701, -0.154, 0.974, 0.064, 192.0, 0.0, 0.0, 0.0, 0.0, 0.0, 0.0, 0.0, 0.0, 0.0, 1.6878031182690196E9, 0.0, 2023-06-26 13:11:58.269
67.0, 48011.79295918858, 53840.03267765435, 65471.0534776513, 295.5794686769806, -3792.08520556512, -6821.774759504171, 22353.3761326523, 15313.090719353047, -0.154, 0.974, 0.064, 192.0, 0.0, 0.0, 0.0, 0.0, 0.0, 0.0, 0.0, 0.0, 0.0, 1.6878031182730227E9, 0.0, 2023-06-26 13:11:58.273
68.0, 48053.724831786734, 53874.94610249354, 64705.506230057035, 349.44717281427063, -3786.9666560848545, -6765.917750110359, 22351.498586118054, 15331.910888184417, -0.154, 0.974, 0.064, 192.0, 0.0, 0.0, 0.0, 0.0, 0.0, 0.0, 0.0, 0.0, 0.0, 1.687803118277054E9, 0.0, 2023-06-26 13:11:58.277
69.0, 48077.37297742045, 53912.25116398945, 63638.188080571665, 410.5121386661695, -3718.9726494518104, -6705.791557525583, 22420.073738106938, 15408.19739201038, -0.154, 0.974, 0.064, 192.0, 0.0, 0.0, 0.0, 0.0, 0.0, 0.0, 0.0, 0.0, 0.0, 1.6878031182820623E9, 0.0, 2023-06-26 13:11:58.282
70.0, 48033.74237224369, 53864.15020992163, 64778.37291698133, 326.5366347475809, -3778.696510636391, -6785.67669220885, 22370.76578983853, 15334.257821352223, -0.15, 0.972, 0.056, 192.0, 251.0, 80.0, 30.0, 96.0, 1.0, 192.0, 0.0, 0.0, 0.0, 1.6878031182860992E9, 0.0, 2023-06-26 13:11:58.286
71.0, 48019.616069747935, 53848.168712636085, 65311.50672572932, 313.8855473858771, -3780.2611327482623, -6796.852564436504, 22361.91449903423, 15326.993504404249, -0.15, 0.972, 0.056, 192.0, 0.0, 0.0, 0.0, 0.0, 0.0, 0.0, 0.0, 0.0, 0.0, 1.6878031182901099E9, 0.0, 2023-06-26 13:11:58.290
72.0, 48041.85605548097, 53865.223093655484, 65126.81426129511, 340.4617715432372, -3792.688702665413, -6777.786526416126, 22353.443187885667, 15332.492033540253, -0.15, 0.972, 0.056, 192.0, 0.0, 0.0, 0.0, 0.0, 0.0, 0.0, 0.0, 0.0, 0.0, 1.6878031182942035E9, 0.0, 2023-06-26 13:11:58.294
73.0, 48084.771404835155, 53915.000428557454, 63508.95029413108, 415.80950210207726, -3723.5771088096035, -6702.975237724214, 22414.642264204296, 15413.494755446287, -0.15, 0.972, 0.056, 192.0, 0.0, 0.0, 0.0, 0.0, 0.0, 0.0, 0.0, 0.0, 0.0, 1.6878031182981937E9, 0.0, 2023-06-26 13:11:58.298
74.0, 48038.346831601484, 53869.38051812417, 64707.20496263564, 334.5609110070361, -3769.264074476251, -6778.278264794143, 22365.736647336085, 15348.786455248173, -0.15, 0.972, 0.056, 192.0, 0.0, 0.0, 0.0, 0.0, 0.0, 0.0, 0.0, 0.0, 0.0, 1.6878031183022096E9, 0.0, 2023-06-26 13:11:58.302
75.0, 48020.26427033714, 53844.90535794561, 65093.21958937879, 310.4880822286704, -3782.9656938273542, -6806.910849441391, 22346.223574426604, 15316.912867654904, -0.15, 0.972, 0.056, 192.0, 0.0, 0.0, 0.0, 0.0, 0.0, 0.0, 0.0, 0.0, 0.0, 1.6878031183051956E9, 0.0, 2023-06-26 13:11:58.305
76.0, 48024.64521225038, 53846.760552735395, 65438.95637261348, 322.1109893454301, -3803.775167915245, -6796.137308613934, 22339.69686504565, 15313.02366411968, -0.15, 0.972, 0.056, 192.0, 0.0, 0.0, 0.0, 0.0, 0.0, 0.0, 0.0, 0.0, 0.0, 1.687803118308226E9, 0.0, 2023-06-26 13:11:58.308
77.0, 48089.06293977058, 53911.29003897787, 63495.583950946806, 413.6413828899125, -3736.6752310604134, -6710.060740716546, 22393.452810460665, 15396.19450523788, -0.15, 0.972, 0.056, 192.0, 0.0, 0.0, 0.0, 0.0, 0.0, 0.0, 0.0, 0.0, 0.0, 1.6878031183122115E9, 0.0, 2023-06-26 13:11:58.312
78.0, 48044.87354098244, 53873.895570504144, 64560.80103645338, 349.7600972366449, -3766.0007197857763, -6760.352165740987, 22379.304156220456, 15362.04103971017, -0.15, 0.972, 0.056, 192.0, 0.0, 0.0, 0.0, 0.0, 0.0, 0.0, 0.0, 0.0, 0.0, 1.6878031183162634E9, 0.0, 2023-06-26 13:11:58.316
79.0, 48027.93091868531, 53847.20758762451, 64927.950790876246, 311.00217235114246, -3785.916124095455, -6806.150890129911, 22349.956315750638, 15316.152908343425, -0.15, 0.972, 0.056, 192.0, 0.0, 0.0, 0.0, 0.0, 0.0, 0.0, 0.0, 0.0, 0.0, 1.6878031183202758E9, 0.0, 2023-06-26 13:11:58.320
80.0, 48017.380895302405, 53840.971450921475, 65645.82176754734, 313.43851249677095, -3812.0229616192537, -6812.498785555218, 22331.583181808375, 15310.006178618216, -0.138, 0.976, 0.052000000000000005, 192.0, 251.0, 176.0, 30.0, 128.0, 1.0, 160.0, 0.0, 0.0, 0.0, 1.6878031183252861E9, 0.0, 2023-06-26 13:11:58.325
81.0, 48088.615904881466, 53908.40666394313, 63666.865368707826, 409.238089232217, -3753.751963824268, -6725.349333923976, 22383.57333941142, 15386.024461510715, -0.138, 0.976, 0.052000000000000005, 192.0, 0.0, 0.0, 0.0, 0.0, 0.0, 0.0, 0.0, 0.0, 0.0, 1.6878031183283072E9, 0.0, 2023-06-26 13:11:58.328
82.0, 48052.62959630843, 53882.92567526409, 64376.91323481956, 371.5753998250246, -3761.4186121724383, -6750.271528991643, 22391.4858569486, 15377.262577684234, -0.138, 0.976, 0.052000000000000005, 192.0, 0.0, 0.0, 0.0, 0.0, 0.0, 0.0, 0.0, 0.0, 0.0, 1.6878031183323395E9, 0.0, 2023-06-26 13:11:58.332
83.0, 48033.317689099036, 53850.73916324844, 64842.96945845717, 323.27328005710604, -3789.4476997193933, -6802.954590672803, 22350.962144251127, 15318.70100721133, -0.138, 0.976, 0.052000000000000005, 192.0, 0.0, 0.0, 0.0, 0.0, 0.0, 0.0, 0.0, 0.0, 0.0, 1.6878031183363354E9, 0.0, 2023-06-26 13:11:58.336
84.0, 48009.334267298495, 53830.622593238666, 65722.42119579569, 309.4822537281816, -3813.922859897955, -6821.081855426056, 22335.85236499934, 15308.061576850603, -0.138, 0.976, 0.052000000000000005, 192.0, 0.0, 0.0, 0.0, 0.0, 0.0, 0.0, 0.0, 0.0, 0.0, 1.6878031183403635E9, 0.0, 2023-06-26 13:11:58.340
85.0, 48082.75974783418, 53895.86733530371, 63958.1980059383, 397.63753385991265, -3769.3534814540726, -6730.37847642642, 22372.263356717034, 15372.076972970603, -0.138, 0.976, 0.052000000000000005, 192.0, 0.0, 0.0, 0.0, 0.0, 0.0, 0.0, 0.0, 0.0, 0.0, 1.6878031183443785E9, 0.0, 2023-06-26 13:11:58.344
86.0, 48064.61013133647, 53889.966474767505, 64127.84774635408, 391.9601907682646, -3753.0590597461537, -6722.912993778347, 22407.400299000776, 15399.591970395086, -0.138, 0.976, 0.052000000000000005, 192.0, 0.0, 0.0, 0.0, 0.0, 0.0, 0.0, 0.0, 0.0, 0.0, 1.68780311834841E9, 0.0, 2023-06-26 13:11:58.348
87.0, 48038.615052534944, 53850.7615149929, 64812.97341739815, 328.88356791538814, -3790.051196819687, -6795.600866747006, 22363.14384497927, 15328.424016049388, -0.138, 0.976, 0.052000000000000005, 192.0, 0.0, 0.0, 0.0, 0.0, 0.0, 0.0, 0.0, 0.0, 0.0, 1.6878031183524387E9, 0.0, 2023-06-26 13:11:58.352
88.0, 48010.518909754624, 53826.286354814336, 65627.493337094, 316.791274165067, -3789.850031119589, -6815.516271056685, 22354.33725766388, 15321.204402590323, -0.138, 0.976, 0.052000000000000005, 192.0, 0.0, 0.0, 0.0, 0.0, 0.0, 0.0, 0.0, 0.0, 0.0, 1.6878031183574567E9, 0.0, 2023-06-26 13:11:58.357
89.0, 48062.50906735767, 53870.00636696892, 64336.61303956665, 377.8338882725106, -3775.522562923737, -6754.875988349437, 22368.932946793193, 15352.429789594387, -0.138, 0.976, 0.052000000000000005, 192.0, 0.0, 0.0, 0.0, 0.0, 0.0, 0.0, 0.0, 0.0, 0.0, 1.6878031183614907E9, 0.0, 2023-06-26 13:11:58.361
90.0, 48067.448802882296, 53889.43003290058, 63882.313833512526, 406.7346938532226, -3732.0260682137096, -6694.392167853376, 22429.170898100245, 15411.661912400952, -0.14400000000000002, 0.986, 0.048, 192.0, 251.0, 128.0, 30.0, 208.0, 1.0, 128.0, 0.0, 0.0, 0.0, 1.687803118365487E9, 0.0, 2023-06-26 13:11:58.365
91.0, 48036.178712389315, 53849.08513415875, 64803.026891115536, 334.4491522847596, -3778.204772258374, -6786.39194803142, 22378.94652830917, 15334.861318452517, -0.14400000000000002, 0.986, 0.048, 192.0, 0.0, 0.0, 0.0, 0.0, 0.0, 0.0, 0.0, 0.0, 0.0, 1.6878031183695335E9, 0.0, 2023-06-26 13:11:58.369
92.0, 48008.5296044981, 53818.999686121904, 65440.297477280794, 313.9973061081536, -3785.4020339729827, -6807.514346541685, 22365.289612446977, 15324.199536347334, -0.14400000000000002, 0.986, 0.048, 192.0, 0.0, 0.0, 0.0, 0.0, 0.0, 0.0, 0.0, 0.0, 0.0, 1.6878031183735294E9, 0.0, 2023-06-26 13:11:58.373
93.0, 48048.60628230647, 53850.22507312597, 64761.67616387322, 355.32568160601636, -3788.6653886634576, -6771.1480583129005, 22358.539385621476, 15340.449254566343, -0.14400000000000002, 0.986, 0.048, 192.0, 0.0, 0.0, 0.0, 0.0, 0.0, 0.0, 0.0, 0.0, 0.0, 1.6878031183785908E9, 0.0, 2023-06-26 13:11:58.378
94.0, 48081.70921584478, 53894.81680331431, 63706.18208720471, 415.13894976841806, -3721.8783762310004, -6703.154051679856, 22426.756909699074, 15418.14391829299, -0.14400000000000002, 0.986, 0.048, 192.0, 0.0, 0.0, 0.0, 0.0, 0.0, 0.0, 0.0, 0.0, 0.0, 1.6878031183825736E9, 0.0, 2023-06-26 13:11:58.382
95.0, 48039.10679091296, 53844.61478526769, 64849.78674051604, 329.1294371043965, -3774.9861210568097, -6793.522154512662, 22385.5849964124, 15341.008048177726, -0.14400000000000002, 0.986, 0.048, 192.0, 0.0, 0.0, 0.0, 0.0, 0.0, 0.0, 0.0, 0.0, 0.0, 1.687803118385576E9, 0.0, 2023-06-26 13:11:58.385
96.0, 48033.07181991003, 53834.534148518345, 65204.374814555034, 325.888434158377, -3773.1309262670193, -6799.2665528376765, 22382.366345210834, 15332.2685160957, -0.14400000000000002, 0.986, 0.048, 192.0, 0.0, 0.0, 0.0, 0.0, 0.0, 0.0, 0.0, 0.0, 0.0, 1.687803118388615E9, 0.0, 2023-06-26 13:11:58.388
97.0, 48046.99695670569, 53843.85482595621, 65111.391557620955, 342.7192977332232, -3798.075473079142, -6781.988654373724, 22363.881452546295, 15332.4696817958, -0.14400000000000002, 0.986, 0.048, 192.0, 0.0, 0.0, 0.0, 0.0, 0.0, 0.0, 0.0, 0.0, 0.0, 1.6878031183926268E9, 0.0, 2023-06-26 13:11:58.392
98.0, 48087.006579280685, 53892.693387591054, 63604.839277844345, 415.8542055909879, -3735.624699071014, -6697.879039988404, 22429.10384286688, 15416.199316525379, -0.14400000000000002, 0.986, 0.048, 192.0, 0.0, 0.0, 0.0, 0.0, 0.0, 0.0, 0.0, 0.0, 0.0, 1.6878031183966532E9, 0.0, 2023-06-26 13:11:58.396
99.0, 48042.817180492544, 53849.643927770136, 64926.632037953386, 339.79121920957795, -3772.7509466112792, -6771.751555413193, 22390.05534530346, 15351.870995983005, -0.14400000000000002, 0.986, 0.048, 192.0, 0.0, 0.0, 0.0, 0.0, 0.0, 0.0, 0.0, 0.0, 0.0, 1.687803118400682E9, 0.0, 2023-06-26 13:11:58.400
100.0, 48027.32742158502, 53826.53222400334, 65043.95634459929, 318.7358759326787, -3781.4681269488487, -6814.242221622732, 22362.115664734327, 15318.052806622125, -0.158, 0.996, 0.052000000000000005, 192.0, 251.0, 16.0, 31.0, 32.0, 1.0, 160.0, 0.0, 0.0, 0.0, 1.6878031184046843E9, 0.0, 2023-06-26 13:11:58.404
101.0, 48025.9863169177, 53824.02882862435, 65423.399558472585, 320.8369399114776, -3805.138624327019, -6798.461890037285, 22346.067112215416, 15314.655341464919, -0.158, 0.996, 0.052000000000000005, 192.0, 0.0, 0.0, 0.0, 0.0, 0.0, 0.0, 0.0, 0.0, 0.0, 1.6878031184076965E9, 0.0, 2023-06-26 13:11:58.407
102.0, 48089.442919426314, 53889.5194398784, 63582.93456827815, 416.4353509468259, -3732.8083792696452, -6713.145281451379, 22407.869685634338, 15400.150764006468, -0.158, 0.996, 0.052000000000000005, 192.0, 0.0, 0.0, 0.0, 0.0, 0.0, 0.0, 0.0, 0.0, 0.0, 1.6878031184117126E9, 0.0, 2023-06-26 13:11:58.411
103.0, 48033.876482710424, 53841.262023599396, 64865.32120291248, 342.8310564554997, -3767.945321553388, -6781.34045378452, 22393.5869209274, 15352.675658783397, -0.158, 0.996, 0.052000000000000005, 192.0, 0.0, 0.0, 0.0, 0.0, 0.0, 0.0, 0.0, 0.0, 0.0, 1.68780311841573E9, 0.0, 2023-06-26 13:11:58.415
104.0, 48027.28271809611, 53821.14545358962, 64958.505625546655, 314.533747975081, -3782.1386792825083, -6816.365637345986, 22362.249775201057, 15309.514440240198, -0.158, 0.996, 0.052000000000000005, 192.0, 0.0, 0.0, 0.0, 0.0, 0.0, 0.0, 0.0, 0.0, 0.0, 1.6878031184207678E9, 0.0, 2023-06-26 13:11:58.420
105.0, 48023.684087238806, 53820.832529167245, 65595.86561868973, 321.39573352286027, -3802.210545803374, -6806.821442463571, 22353.3761326523, 15313.761271686706, -0.158, 0.996, 0.052000000000000005, 192.0, 0.0, 0.0, 0.0, 0.0, 0.0, 0.0, 0.0, 0.0, 0.0, 1.687803118424774E9, 0.0, 2023-06-26 13:11:58.424
106.0, 48080.88220129993, 53876.44366937205, 63707.52319187203, 400.5209088946473, -3755.0260132582207, -6731.876043304926, 22387.976633069116, 15371.51817935922, -0.158, 0.996, 0.052000000000000005, 192.0, 0.0, 0.0, 0.0, 0.0, 0.0, 0.0, 0.0, 0.0, 0.0, 1.6878031184287977E9, 0.0, 2023-06-26 13:11:58.428
107.0, 48045.40998284936, 53855.365974350694, 64643.68130489365, 362.3888328538934, -3761.105687750064, -6753.579587171029, 22398.012566329548, 15366.600795579052, -0.158, 0.996, 0.052000000000000005, 192.0, 0.0, 0.0, 0.0, 0.0, 0.0, 0.0, 0.0, 0.0, 0.0, 1.6878031184328213E9, 0.0, 2023-06-26 13:11:58.432
108.0, 48031.95423268727, 53827.31453505928, 64900.32403472949, 317.57358522100276, -3786.0278828177316, -6802.976942417257, 22362.89797579026, 15314.208306575812, -0.158, 0.996, 0.052000000000000005, 192.0, 0.0, 0.0, 0.0, 0.0, 0.0, 0.0, 0.0, 0.0, 0.0, 1.6878031184368525E9, 0.0, 2023-06-26 13:11:58.436
109.0, 48009.915412654336, 53810.21545055097, 65642.73722681252, 305.7718641486006, -3799.550688213192, -6812.0070471772015, 22347.028237226994, 15307.234562305757, -0.158, 0.996, 0.052000000000000005, 192.0, 0.0, 0.0, 0.0, 0.0, 0.0, 0.0, 0.0, 0.0, 0.0, 1.6878031184408562E9, 0.0, 2023-06-26 13:11:58.440
110.0, 48079.675207099346, 53875.28137866037, 63962.53424436263, 389.43444364481496, -3759.563417382648, -6737.3969241853865, 22375.996098041072, 15366.04200196767, -0.158, 0.996, 0.052000000000000005, 192.0, 0.0, 0.0, 0.0, 0.0, 0.0, 0.0, 0.0, 0.0, 0.0, 1.687803118444894E9, 0.0, 2023-06-26 13:11:58.444
111.0, 48060.36329988996, 53871.034547213865, 64309.187449119985, 386.7075308212675, -3734.6188705705254, -6736.033467773613, 22418.06208110596, 15400.106060517557, -0.166, 0.978, 0.06, 192.0, 250.0, 208.0, 30.0, 144.0, 1.0, 224.0, 0.0, 0.0, 0.0, 1.687803118449907E9, 0.0, 2023-06-26 13:11:58.449
112.0, 48033.250633865675, 53827.538052503834, 64885.52717990008, 323.4520940127485, -3772.3933186999943, -6801.255858094199, 22369.558795637942, 15326.07708288158, -0.166, 0.978, 0.06, 192.0, 0.0, 0.0, 0.0, 0.0, 0.0, 0.0, 0.0, 0.0, 0.0, 1.687803118453925E9, 0.0, 2023-06-26 13:11:58.453
113.0, 48005.86974690792, 53800.96182834647, 65520.24966719743, 302.32969550248333, -3791.5040602092818, -6811.939991943836, 22356.505376876044, 15315.482356009765, -0.166, 0.978, 0.06, 192.0, 0.0, 0.0, 0.0, 0.0, 0.0, 0.0, 0.0, 0.0, 0.0, 1.6878031184579413E9, 0.0, 2023-06-26 13:11:58.457
114.0, 48061.011500479166, 53849.73333474795, 64323.649027782565, 367.37327186742687, -3782.27278974924, -6745.801180100582, 22363.076789745905, 15349.993449448759, -0.166, 0.978, 0.06, 192.0, 0.0, 0.0, 0.0, 0.0, 0.0, 0.0, 0.0, 0.0, 0.0, 1.687803118461975E9, 0.0, 2023-06-26 13:11:58.461
115.0, 48065.03481448112, 53872.643872814646, 63996.77711686816, 394.9776762697311, -3736.0046787267543, -6709.345484893976, 22424.879363164826, 15411.773671123228, -0.166, 0.978, 0.06, 192.0, 0.0, 0.0, 0.0, 0.0, 0.0, 0.0, 0.0, 0.0, 0.0, 1.6878031184659903E9, 0.0, 2023-06-26 13:11:58.465
116.0, 48030.74723848668, 53827.6051077372, 64910.78465113457, 316.92538463179886, -3773.17562975593, -6791.711663211783, 22374.163254995736, 15324.333646814066, -0.166, 0.978, 0.06, 192.0, 0.0, 0.0, 0.0, 0.0, 0.0, 0.0, 0.0, 0.0, 0.0, 1.687803118469006E9, 0.0, 2023-06-26 13:11:58.469
117.0, 48013.08936036699, 53809.991933106416, 65341.54747027725, 309.1246258168967, -3770.0016820432766, -6802.485204039241, 22363.09914149036, 15318.633951977963, -0.166, 0.978, 0.06, 192.0, 0.0, 0.0, 0.0, 0.0, 0.0, 0.0, 0.0, 0.0, 0.0, 1.6878031184720166E9, 0.0, 2023-06-26 13:11:58.472
118.0, 48049.187427662306, 53839.94327067653, 64715.96684646211, 346.2285216127064, -3777.2436472467957, -6771.662148435373, 22358.919365277216, 15332.55908877362, -0.166, 0.978, 0.06, 192.0, 0.0, 0.0, 0.0, 0.0, 0.0, 0.0, 0.0, 0.0, 0.0, 1.6878031184760213E9, 0.0, 2023-06-26 13:11:58.476
119.0, 48080.12224198845, 53883.328006664284, 63704.17043020373, 413.46256893427005, -3711.7753877372015, -6701.455319101253, 22432.948342913194, 15415.28289500271, -0.166, 0.978, 0.06, 192.0, 0.0, 0.0, 0.0, 0.0, 0.0, 0.0, 0.0, 0.0, 0.0, 1.6878031184800472E9, 0.0, 2023-06-26 13:11:58.480
120.0, 48032.31186059855, 53828.61093623769, 64906.068433054505, 324.36851553541607, -3768.302949464673, -6792.426919034353, 22381.04759228797, 15333.408455062921, -0.166, 0.978, 0.06, 192.0, 0.0, 0.0, 0.0, 0.0, 0.0, 0.0, 0.0, 0.0, 0.0, 1.6878031184840562E9, 0.0, 2023-06-26 13:11:58.484
121.0, 48018.40907554735, 53813.67997094154, 65115.81720302311, 311.98564910717596, -3777.2883507357064, -6810.621239020973, 22362.629754856796, 15319.706835711819, -0.162, 0.966, 0.062, 192.0, 250.0, 240.0, 30.0, 48.0, 1.0, 240.0, 0.0, 0.0, 0.0, 1.6878031184891083E9, 0.0, 2023-06-26 13:11:58.489
122.0, 48034.81525597755, 53827.113369359184, 65083.921263685384, 330.53759700508084, -3801.495289980804, -6794.77385220216, 22354.158443708235, 15325.227716592279, -0.162, 0.966, 0.062, 192.0, 0.0, 0.0, 0.0, 0.0, 0.0, 0.0, 0.0, 0.0, 0.0, 1.687803118492097E9, 0.0, 2023-06-26 13:11:58.492
123.0, 48081.86567805597, 53881.20459094103, 63543.86371897027, 414.3119352235717, -3726.639297799981, -6703.1764034243115, 22425.23699107611, 15412.377168223522, -0.162, 0.966, 0.062, 192.0, 0.0, 0.0, 0.0, 0.0, 0.0, 0.0, 0.0, 0.0, 0.0, 1.6878031184962013E9, 0.0, 2023-06-26 13:11:58.496
124.0, 48034.21175887725, 53836.99284040843, 64883.1131914989, 335.96907090772044, -3762.178571483919, -6781.027529362146, 22379.460618431644, 15345.053713924137, -0.162, 0.966, 0.062, 192.0, 0.0, 0.0, 0.0, 0.0, 0.0, 0.0, 0.0, 0.0, 0.0, 1.6878031185002105E9, 0.0, 2023-06-26 13:11:58.500
125.0, 48025.427523306316, 53820.050218111304, 64958.32681159101, 316.94773637625417, -3770.4040134434717, -6809.883631453948, 22361.400408911755, 15318.231620577768, -0.162, 0.966, 0.062, 192.0, 0.0, 0.0, 0.0, 0.0, 0.0, 0.0, 0.0, 0.0, 0.0, 1.6878031185042E9, 0.0, 2023-06-26 13:11:58.504
126.0, 48015.72686621271, 53809.09786332821, 65400.35490993916, 314.69021018626813, -3804.5351272267258, -6804.474509295763, 22338.176946422693, 15308.50861173971, -0.162, 0.966, 0.062, 192.0, 0.0, 0.0, 0.0, 0.0, 0.0, 0.0, 0.0, 0.0, 0.0, 1.687803118508206E9, 0.0, 2023-06-26 13:11:58.508
127.0, 48082.670340856355, 53876.980111238976, 63538.655762512186, 412.3449817115047, -3731.7801990247012, -6716.274525675121, 22400.538313453, 15394.674586614918, -0.162, 0.966, 0.062, 192.0, 0.0, 0.0, 0.0, 0.0, 0.0, 0.0, 0.0, 0.0, 0.0, 1.68780311851221E9, 0.0, 2023-06-26 13:11:58.512
128.0, 48038.68210776831, 53843.43014281156, 64743.90652703125, 350.4082978258488, -3760.2786732052177, -6775.059613592579, 22391.2846912485, 15364.790304278173, -0.162, 0.966, 0.062, 192.0, 0.0, 0.0, 0.0, 0.0, 0.0, 0.0, 0.0, 0.0, 0.0, 1.6878031185172284E9, 0.0, 2023-06-26 13:11:58.517
129.0, 48024.53345352811, 53818.172671577064, 64828.194955372215, 317.19360556526254, -3783.1668595274523, -6807.044959908124, 22353.778464052495, 15316.354074043522, -0.162, 0.966, 0.062, 192.0, 0.0, 0.0, 0.0, 0.0, 0.0, 0.0, 0.0, 0.0, 0.0, 1.687803118521244E9, 0.0, 2023-06-26 13:11:58.521
130.0, 48011.50238651066, 53805.63334293763, 65542.78022560838, 312.8350153964777, -3814.213432575874, -6800.048863893612, 22343.764882536518, 15312.50957399721, -0.162, 0.966, 0.062, 192.0, 0.0, 0.0, 0.0, 0.0, 0.0, 0.0, 0.0, 0.0, 0.0, 1.6878031185252635E9, 0.0, 2023-06-26 13:11:58.525
131.0, 48073.12614597394, 53865.96070122251, 63679.51645606953, 395.5811733700244, -3755.2271789583183, -6728.232708958711, 22392.312871493446, 15381.040022497182, -0.158, 0.968, 0.078, 192.0, 251.0, 16.0, 30.0, 64.0, 2.0, 112.0, 0.0, 0.0, 0.0, 1.6878031185292933E9, 0.0, 2023-06-26 13:11:58.529
132.0, 48033.809427477056, 53842.33490733325, 64555.92835616212, 356.42091708432645, -3754.2213504578294, -6759.659261662872, 22402.684080920706, 15376.748487561761, -0.158, 0.968, 0.078, 192.0, 0.0, 0.0, 0.0, 0.0, 0.0, 0.0, 0.0, 0.0, 0.0, 1.687803118533321E9, 0.0, 2023-06-26 13:11:58.533
133.0, 48021.02422964862, 53810.975409862454, 64828.91021119479, 309.63871593936875, -3785.7373101398125, -6810.44242506533, 22354.04668498596, 15311.190821074346, -0.158, 0.968, 0.078, 192.0, 0.0, 0.0, 0.0, 0.0, 0.0, 0.0, 0.0, 0.0, 0.0, 1.687803118537344E9, 0.0, 2023-06-26 13:11:58.537
134.0, 48002.069950350524, 53796.82675562224, 65555.40896122564, 299.0886925564638, -3802.9928568593095, -6821.506538570708, 22344.681304059184, 15307.905114639416, -0.158, 0.968, 0.078, 192.0, 0.0, 0.0, 0.0, 0.0, 0.0, 0.0, 0.0, 0.0, 0.0, 1.6878031185423577E9, 0.0, 2023-06-26 13:11:58.542
135.0, 48067.67232032685, 53855.32127086178, 63951.22426166824, 379.5326208511139, -3766.067775019142, -6739.632098630917, 22375.839635829885, 15362.08574319908, -0.158, 0.968, 0.078, 192.0, 0.0, 0.0, 0.0, 0.0, 0.0, 0.0, 0.0, 0.0, 0.0, 1.687803118546377E9, 0.0, 2023-06-26 13:11:58.546
136.0, 48055.84824750999, 53860.8645034867, 64263.00874507532, 384.91939126484294, -3736.9211002494217, -6719.0237902431245, 22421.95128464118, 15403.771746608229, -0.158, 0.968, 0.078, 192.0, 0.0, 0.0, 0.0, 0.0, 0.0, 0.0, 0.0, 0.0, 0.0, 1.687803118549394E9, 0.0, 2023-06-26 13:11:58.549
137.0, 48031.12721814242, 53823.134758846136, 64839.12495841086, 321.7757131786005, -3785.491440950804, -6791.48814576723, 22363.456769401644, 15325.160661358914, -0.158, 0.968, 0.078, 192.0, 0.0, 0.0, 0.0, 0.0, 0.0, 0.0, 0.0, 0.0, 0.0, 1.6878031185524113E9, 0.0, 2023-06-26 13:11:58.552
138.0, 48012.30704931105, 53807.42148249406, 65439.0457795913, 315.2490037976508, -3791.727577653835, -6805.234468607244, 22361.981554267593, 15324.22188809179, -0.158, 0.968, 0.078, 192.0, 0.0, 0.0, 0.0, 0.0, 0.0, 0.0, 0.0, 0.0, 0.0, 1.687803118556537E9, 0.0, 2023-06-26 13:11:58.556
139.0, 48063.581951091524, 53852.4602475715, 64315.334178845194, 375.1516789378737, -3776.6177984020474, -6758.564026184563, 22375.794932340974, 15358.934147230882, -0.158, 0.968, 0.078, 192.0, 0.0, 0.0, 0.0, 0.0, 0.0, 0.0, 0.0, 0.0, 0.0, 1.68780311856044E9, 0.0, 2023-06-26 13:11:58.560
140.0, 48069.460459883274, 53873.00150072593, 63961.55076760659, 406.48882466421423, -3727.2874983891847, -6728.143301980889, 22428.5450492555, 15420.893182860993, -0.158, 0.968, 0.078, 192.0, 0.0, 0.0, 0.0, 0.0, 0.0, 0.0, 0.0, 0.0, 0.0, 1.687803118564464E9, 0.0, 2023-06-26 13:11:58.564
141.0, 48029.42848556382, 53823.24651756841, 64923.122814073904, 328.2130155817289, -3785.1338130395193, -6796.539640014129, 22379.550025409466, 15336.627106264486, -0.148, 0.972, 0.082, 192.0, 251.0, 96.0, 30.0, 96.0, 2.0, 144.0, 0.0, 0.0, 0.0, 1.6878031185684972E9, 0.0, 2023-06-26 13:11:58.568
142.0, 48013.044656878075, 53810.88600288463, 65294.54175168774, 323.34033529047196, -3786.65373166248, -6798.417186548375, 22376.219615485625, 15334.660152752418, -0.148, 0.972, 0.082, 192.0, 0.0, 0.0, 0.0, 0.0, 0.0, 0.0, 0.0, 0.0, 0.0, 1.6878031185725029E9, 0.0, 2023-06-26 13:11:58.572
143.0, 48051.0426224521, 53844.92770969006, 64721.06304419793, 367.2168096562397, -3789.112423552564, -6761.089773308012, 22373.090371261882, 15351.80394074964, -0.148, 0.972, 0.082, 192.0, 0.0, 0.0, 0.0, 0.0, 0.0, 0.0, 0.0, 0.0, 0.0, 1.6878031185765512E9, 0.0, 2023-06-26 13:11:58.576
144.0, 48074.51195413017, 53881.67397757459, 63700.191819690684, 424.86195860647666, -3720.8725477305115, -6701.500022590163, 22430.042616134004, 15424.201241040379, -0.148, 0.972, 0.082, 192.0, 0.0, 0.0, 0.0, 0.0, 0.0, 0.0, 0.0, 0.0, 0.0, 1.6878031185795653E9, 0.0, 2023-06-26 13:11:58.579
145.0, 48033.36239258795, 53834.26592758488, 64943.23938408368, 338.9865564091869, -3780.4846501928155, -6783.173296829856, 22378.723010864618, 15342.818539478605, -0.148, 0.972, 0.082, 192.0, 0.0, 0.0, 0.0, 0.0, 0.0, 0.0, 0.0, 0.0, 0.0, 1.6878031185835786E9, 0.0, 2023-06-26 13:11:58.583
146.0, 48020.01840114813, 53815.64692445361, 65074.9582141588, 327.3412975479719, -3778.361234469561, -6805.390930818431, 22372.442170672675, 15330.055693394626, -0.148, 0.972, 0.082, 192.0, 0.0, 0.0, 0.0, 0.0, 0.0, 0.0, 0.0, 0.0, 0.0, 1.6878031185885775E9, 0.0, 2023-06-26 13:11:58.588
147.0, 48036.0893054115, 53831.29314557232, 65114.386691377964, 345.66972800132373, -3800.9588481138767, -6785.967264886769, 22355.70071407565, 15330.301562583634, -0.148, 0.972, 0.082, 192.0, 0.0, 0.0, 0.0, 0.0, 0.0, 0.0, 0.0, 0.0, 0.0, 1.6878031185926201E9, 0.0, 2023-06-26 13:11:58.592
148.0, 48084.41377692387, 53886.34549216575, 63573.47978037355, 427.09713305200734, -3732.473103102816, -6710.887755261392, 22421.414842774255, 15411.840726356593, -0.148, 0.972, 0.082, 192.0, 0.0, 0.0, 0.0, 0.0, 0.0, 0.0, 0.0, 0.0, 0.0, 1.6878031185966177E9, 0.0, 2023-06-26 13:11:58.596
149.0, 48041.297261869586, 53845.39709632363, 64936.980895636196, 351.7494024931672, -3776.8636675910557, -6783.910904396881, 22390.882359848307, 15352.340382616567, -0.148, 0.972, 0.082, 192.0, 0.0, 0.0, 0.0, 0.0, 0.0, 0.0, 0.0, 0.0, 0.0, 1.6878031186006331E9, 0.0, 2023-06-26 13:11:58.600
150.0, 48041.96781420324, 53835.6070322522, 64925.87207864191, 338.15954186434055, -3781.4457752043936, -6809.570707031573, 22367.61419387033, 15323.573687502587, -0.148, 0.972, 0.082, 192.0, 0.0, 0.0, 0.0, 0.0, 0.0, 0.0, 0.0, 0.0, 0.0, 1.687803118604677E9, 0.0, 2023-06-26 13:11:58.604
151.0, 48037.25159612318, 53832.23191883945, 65381.668851574526, 338.74068722017853, -3811.017133118765, -6809.861279709492, 22342.334370891378, 15315.46000426531, -0.146, 0.976, 0.082, 192.0, 251.0, 112.0, 30.0, 128.0, 2.0, 144.0, 0.0, 0.0, 0.0, 1.6878031186086771E9, 0.0, 2023-06-26 13:11:58.608
152.0, 48084.32436994605, 53882.23277118597, 63553.43026559714, 420.03398180413035, -3754.243702202285, -6725.751665324172, 22397.833752373906, 15391.657101113451, -0.146, 0.976, 0.082, 192.0, 0.0, 0.0, 0.0, 0.0, 0.0, 0.0, 0.0, 0.0, 0.0, 1.687803118613704E9, 0.0, 2023-06-26 13:11:58.613
153.0, 48037.00572693416, 53846.60409052421, 64798.37772826883, 358.9243124633208, -3772.013339044254, -6769.069346078557, 22399.219560530135, 15364.007993222236, -0.146, 0.976, 0.082, 192.0, 0.0, 0.0, 0.0, 0.0, 0.0, 0.0, 0.0, 0.0, 0.0, 1.6878031186177208E9, 0.0, 2023-06-26 13:11:58.617
154.0, 48027.95327042977, 53824.27469781336, 64847.618621303875, 329.6882307157792, -3787.9948363297985, -6812.96817218878, 22369.245871215568, 15319.84094617855, -0.146, 0.976, 0.082, 192.0, 0.0, 0.0, 0.0, 0.0, 0.0, 0.0, 0.0, 0.0, 0.0, 1.6878031186217647E9, 0.0, 2023-06-26 13:11:58.621
155.0, 48008.37314228692, 53807.28737202733, 65548.25640299993, 319.13820733287423, -3809.8995458959994, -6830.894271241936, 22349.084597716883, 15312.196649574835, -0.146, 0.976, 0.082, 192.0, 0.0, 0.0, 0.0, 0.0, 0.0, 0.0, 0.0, 0.0, 0.0, 1.6878031186257682E9, 0.0, 2023-06-26 13:11:58.625
156.0, 48073.26025644068, 53866.87712274517, 63669.34641234236, 409.66277237686785, -3762.782068584212, -6720.633115843906, 22401.164162297748, 15389.824258068116, -0.146, 0.976, 0.082, 192.0, 0.0, 0.0, 0.0, 0.0, 0.0, 0.0, 0.0, 0.0, 0.0, 1.6878031186287937E9, 0.0, 2023-06-26 13:11:58.628
157.0, 48040.514950813646, 53847.878139958164, 64477.384326146166, 377.09628070548547, -3762.424440672927, -6737.083999763013, 22416.296293293988, 15390.919493546427, -0.146, 0.976, 0.082, 192.0, 0.0, 0.0, 0.0, 0.0, 0.0, 0.0, 0.0, 0.0, 0.0, 1.6878031186328151E9, 0.0, 2023-06-26 13:11:58.632
158.0, 48027.12625588492, 53821.391322778625, 64807.005501628584, 328.86121617093283, -3781.065795548653, -6808.229602364255, 22364.350839179857, 15323.551335758131, -0.146, 0.976, 0.082, 192.0, 0.0, 0.0, 0.0, 0.0, 0.0, 0.0, 0.0, 0.0, 0.0, 1.6878031186358175E9, 0.0, 2023-06-26 13:11:58.635
159.0, 47997.71136018173, 53796.82675562224, 65592.42345004361, 315.2490037976508, -3802.0317318477314, -6820.500710070219, 22347.34116164937, 15313.917733897893, -0.146, 0.976, 0.082, 192.0, 0.0, 0.0, 0.0, 0.0, 0.0, 0.0, 0.0, 0.0, 0.0, 1.6878031186398413E9, 0.0, 2023-06-26 13:11:58.639
160.0, 48066.01829123715, 53855.768305750884, 64002.29799774862, 397.4587199042702, -3762.7373650953014, -6734.446493917286, 22381.338164965888, 15369.75239154725, -0.146, 0.976, 0.082, 192.0, 0.0, 0.0, 0.0, 0.0, 0.0, 0.0, 0.0, 0.0, 0.0, 1.6878031186438737E9, 0.0, 2023-06-26 13:11:58.643
161.0, 48050.55088407408, 53858.092887174236, 64170.87485443054, 401.41497867285955, -3732.9871932252877, -6719.113197220945, 22433.931819669226, 15408.733833877306, -0.146, 0.976, 0.082, 192.0, 0.0, 0.0, 0.0, 0.0, 0.0, 0.0, 0.0, 0.0, 0.0, 1.6878031186478784E9, 0.0, 2023-06-26 13:11:58.647
162.0, 48024.10877038346, 53819.17850007755, 64837.694446765716, 333.73389646218976, -3774.561437912159, -6797.053730136601, 22381.315813221434, 15331.374446317488, -0.156, 0.97, 0.084, 192.0, 251.0, 32.0, 30.0, 80.0, 2.0, 160.0, 0.0, 0.0, 0.0, 1.6878031186529236E9, 0.0, 2023-06-26 13:11:58.652
163.0, 48001.06412185003, 53799.93364810153, 65472.551044529806, 323.31798354601665, -3781.2446095042956, -6802.954590672803, 22379.23710098709, 15329.541603272153, -0.156, 0.97, 0.084, 192.0, 0.0, 0.0, 0.0, 0.0, 0.0, 0.0, 0.0, 0.0, 0.0, 1.6878031186559324E9, 0.0, 2023-06-26 13:11:58.655
164.0, 48053.83659050901, 53846.13470389065, 64379.75190636539, 384.8299842870217, -3769.308777965162, -6753.065497048557, 22384.37800221181, 15360.94580423186, -0.156, 0.97, 0.084, 192.0, 0.0, 0.0, 0.0, 0.0, 0.0, 0.0, 0.0, 0.0, 0.0, 1.6878031186599486E9, 0.0, 2023-06-26 13:11:58.659
165.0, 48057.54698008859, 53865.44661110004, 63857.05636227803, 414.37899045693763, -3725.1864344103856, -6707.132662192901, 22431.853107434883, 15418.300380504177, -0.156, 0.97, 0.084, 192.0, 0.0, 0.0, 0.0, 0.0, 0.0, 0.0, 0.0, 0.0, 0.0, 1.687803118663947E9, 0.0, 2023-06-26 13:11:58.663
166.0, 48020.89011918189, 53817.03273260984, 64848.199766659716, 326.8942626588658, -3780.8869815930107, -6793.432747534842, 22379.32650796491, 15331.93323992887, -0.156, 0.97, 0.084, 192.0, 0.0, 0.0, 0.0, 0.0, 0.0, 0.0, 0.0, 0.0, 0.0, 1.6878031186679716E9, 0.0, 2023-06-26 13:11:58.667
167.0, 48005.31095329654, 53801.78884289132, 65272.27941421026, 320.8369399114776, -3780.9987403152873, -6805.927372685358, 22372.66568811723, 15327.2170218488, -0.156, 0.97, 0.084, 192.0, 0.0, 0.0, 0.0, 0.0, 0.0, 0.0, 0.0, 0.0, 0.0, 1.6878031186720004E9, 0.0, 2023-06-26 13:11:58.672
168.0, 48032.17775013182, 53822.732427445946, 64797.86363814636, 354.34220484998286, -3790.9899700868095, -6777.205381060288, 22371.704563105654, 15338.728170243285, -0.156, 0.97, 0.084, 192.0, 0.0, 0.0, 0.0, 0.0, 0.0, 0.0, 0.0, 0.0, 0.0, 1.6878031186760232E9, 0.0, 2023-06-26 13:11:58.676
169.0, 48066.77825054863, 53868.24057915695, 63587.851952058314, 419.0728567925521, -3716.0445709281653, -6703.265810402133, 22442.96192442917, 15421.094348561091, -0.156, 0.97, 0.084, 192.0, 0.0, 0.0, 0.0, 0.0, 0.0, 0.0, 0.0, 0.0, 0.0, 1.6878031186800327E9, 0.0, 2023-06-26 13:11:58.680
170.0, 48028.7355814857, 53826.44281702553, 64819.90245817929, 339.9476814207651, -3764.659615118458, -6783.083889852034, 22395.755040139564, 15352.385086105478, -0.156, 0.97, 0.084, 192.0, 0.0, 0.0, 0.0, 0.0, 0.0, 0.0, 0.0, 0.0, 0.0, 1.687803118685063E9, 0.0, 2023-06-26 13:11:58.685
171.0, 48012.5305667556, 53807.041502838314, 65096.17001964689, 327.564814992525, -3779.009435058765, -6808.877802953459, 22374.61028988484, 15333.296696340645, -0.156, 0.97, 0.084, 192.0, 0.0, 0.0, 0.0, 0.0, 0.0, 0.0, 0.0, 0.0, 0.0, 1.68780311868908E9, 0.0, 2023-06-26 13:11:58.689
172.0, 48021.67243023783, 53814.61874420867, 65190.29321554819, 343.0098704111422, -3799.8412608911112, -6795.064424880079, 22362.830920556895, 15333.69902774084, -0.16, 0.972, 0.082, 192.0, 251.0, 0.0, 30.0, 96.0, 2.0, 144.0, 0.0, 0.0, 0.0, 1.687803118693096E9, 0.0, 2023-06-26 13:11:58.693
173.0, 48078.78113732114, 53877.33773915026, 63456.69191559457, 431.58983368752405, -3721.6101552975365, -6689.407728839842, 22436.68108423723, 15426.123491063536, -0.16, 0.972, 0.082, 192.0, 0.0, 0.0, 0.0, 0.0, 0.0, 0.0, 0.0, 0.0, 0.0, 1.6878031186972096E9, 0.0, 2023-06-26 13:11:58.697
174.0, 48027.14860762937, 53828.90150891561, 64703.91925620071, 352.28584436009464, -3762.178571483919, -6771.43863099082, 22403.309929765455, 15367.80778977964, -0.16, 0.972, 0.082, 192.0, 0.0, 0.0, 0.0, 0.0, 0.0, 0.0, 0.0, 0.0, 0.0, 1.6878031187012095E9, 0.0, 2023-06-26 13:11:58.701
175.0, 48010.00481963215, 53803.912258614575, 64920.08297682798, 325.6649167138239, -3768.660577375958, -6807.357884330498, 22370.81049332744, 15328.692236982852, -0.16, 0.972, 0.082, 192.0, 0.0, 0.0, 0.0, 0.0, 0.0, 0.0, 0.0, 0.0, 0.0, 1.6878031187052164E9, 0.0, 2023-06-26 13:11:58.705
176.0, 48001.64526720587, 53796.156203288585, 65453.68617220953, 318.93704163277647, -3802.0987870810973, -6807.983733175246, 22346.670609315708, 15317.963399644304, -0.16, 0.972, 0.082, 192.0, 0.0, 0.0, 0.0, 0.0, 0.0, 0.0, 0.0, 0.0, 0.0, 1.687803118710204E9, 0.0, 2023-06-26 13:11:58.710
177.0, 48067.8958377714, 53862.18325640956, 63492.65587242316, 416.8153306025661, -3732.6072135695476, -6710.016037227636, 22405.634511188808, 15402.654159385464, -0.16, 0.972, 0.082, 192.0, 0.0, 0.0, 0.0, 0.0, 0.0, 0.0, 0.0, 0.0, 0.0, 1.687803118713202E9, 0.0, 2023-06-26 13:11:58.713
178.0, 48036.71515425625, 53840.546767776825, 64511.493088184965, 369.78726026860005, -3745.9065015204555, -6746.114104522956, 22410.775412413528, 15385.242150454778, -0.16, 0.972, 0.082, 192.0, 0.0, 0.0, 0.0, 0.0, 0.0, 0.0, 0.0, 0.0, 0.0, 1.687803118716229E9, 0.0, 2023-06-26 13:11:58.716
179.0, 48028.489712296694, 53821.659543712085, 64774.77428612403, 336.1702366078182, -3762.424440672927, -6796.137308613934, 22378.76771435353, 15335.487167297266, -0.16, 0.972, 0.082, 192.0, 0.0, 0.0, 0.0, 0.0, 0.0, 0.0, 0.0, 0.0, 0.0, 1.687803118719228E9, 0.0, 2023-06-26 13:11:58.719
180.0, 48000.68414219429, 53798.681950412036, 65564.17084505211, 323.04976261255297, -3793.9627520993654, -6808.296657597621, 22354.56077510843, 15323.79720494714, -0.16, 0.972, 0.082, 192.0, 0.0, 0.0, 0.0, 0.0, 0.0, 0.0, 0.0, 0.0, 0.0, 1.6878031187242353E9, 0.0, 2023-06-26 13:11:58.724
181.0, 48066.107698214975, 53859.210474397005, 63674.956700200644, 408.38872294291536, -3748.0299172437094, -6730.534938637607, 22389.09422029188, 15385.018633010226, -0.16, 0.972, 0.082, 192.0, 0.0, 0.0, 0.0, 0.0, 0.0, 0.0, 0.0, 0.0, 0.0, 1.6878031187282536E9, 0.0, 2023-06-26 13:11:58.728
182.0, 48038.771514746135, 53846.492331801936, 64249.28477397976, 381.5666295965469, -3738.5527775946593, -6741.509645165163, 22416.452755505175, 15399.100232017068, -0.16, 0.968, 0.08600000000000001, 192.0, 251.0, 0.0, 30.0, 64.0, 2.0, 176.0, 0.0, 0.0, 0.0, 1.687803118732292E9, 0.0, 2023-06-26 13:11:58.732
183.0, 48014.81044469005, 53810.57307846226, 64741.04550374097, 327.5424632480697, -3771.9686355553436, -6799.892401682425, 22374.61028988484, 15334.391931818955, -0.16, 0.968, 0.08600000000000001, 192.0, 0.0, 0.0, 0.0, 0.0, 0.0, 0.0, 0.0, 0.0, 0.0, 1.6878031187363012E9, 0.0, 2023-06-26 13:11:58.736
184.0, 47984.56853444201, 53782.387528704116, 65573.87150214572, 310.1081025729302, -3800.5118132247703, -6811.761177988194, 22350.17983319519, 15318.835117678062, -0.16, 0.968, 0.08600000000000001, 192.0, 0.0, 0.0, 0.0, 0.0, 0.0, 0.0, 0.0, 0.0, 0.0, 1.6878031187393184E9, 0.0, 2023-06-26 13:11:58.739
185.0, 48047.95808171727, 53835.98701190794, 64037.367884798994, 384.7405773092005, -3767.0289000307207, -6743.275432977132, 22368.95529853765, 15361.504597843243, -0.16, 0.968, 0.08600000000000001, 192.0, 0.0, 0.0, 0.0, 0.0, 0.0, 0.0, 0.0, 0.0, 0.0, 1.6878031187433324E9, 0.0, 2023-06-26 13:11:58.743
186.0, 48037.47511356773, 53842.625480011164, 63978.26987245916, 394.0165512581529, -3735.1553124374527, -6727.3609909249535, 22417.25741830557, 15402.877676830016, -0.16, 0.968, 0.08600000000000001, 192.0, 0.0, 0.0, 0.0, 0.0, 0.0, 0.0, 0.0, 0.0, 0.0, 1.687803118747366E9, 0.0, 2023-06-26 13:11:58.747
187.0, 48016.084494124, 53811.802424407295, 64741.492538630075, 328.54829174855854, -3773.5109059227593, -6800.227677849255, 22374.967917796126, 15332.089702140058, -0.16, 0.968, 0.08600000000000001, 192.0, 0.0, 0.0, 0.0, 0.0, 0.0, 0.0, 0.0, 0.0, 0.0, 1.6878031187513804E9, 0.0, 2023-06-26 13:11:58.751
188.0, 47992.346941512464, 53790.25534275238, 65475.32266084226, 317.0371433540754, -3782.2280862603293, -6809.9506866873135, 22367.681249103698, 15325.428882292377, -0.16, 0.968, 0.08600000000000001, 192.0, 0.0, 0.0, 0.0, 0.0, 0.0, 0.0, 0.0, 0.0, 0.0, 1.6878031187564795E9, 0.0, 2023-06-26 13:11:58.756
189.0, 48036.826912978526, 53823.782959435346, 64455.770189257884, 367.32856837851625, -3778.137717025008, -6761.939139597313, 22369.022353771015, 15352.742714016762, -0.16, 0.968, 0.08600000000000001, 192.0, 0.0, 0.0, 0.0, 0.0, 0.0, 0.0, 0.0, 0.0, 0.0, 1.6878031187604325E9, 0.0, 2023-06-26 13:11:58.760
190.0, 48054.1942184203, 53852.99668943843, 63700.0353574795, 410.109807265974, -3723.331239620595, -6709.300781405066, 22428.90267716678, 15418.680360159919, -0.16, 0.968, 0.08600000000000001, 192.0, 0.0, 0.0, 0.0, 0.0, 0.0, 0.0, 0.0, 0.0, 0.0, 1.6878031187644472E9, 0.0, 2023-06-26 13:11:58.764
191.0, 48019.750180214665, 53812.40592150759, 64723.678198299196, 333.6221377399132, -3773.108574522564, -6791.018759133668, 22376.554891652453, 15338.07996965408, -0.16, 0.968, 0.08600000000000001, 192.0, 0.0, 0.0, 0.0, 0.0, 0.0, 0.0, 0.0, 0.0, 0.0, 1.6878031187684708E9, 0.0, 2023-06-26 13:11:58.768
192.0, 47995.25266829165, 53788.71307238496, 65308.35512976112, 316.2548322981396, -3779.3223594811393, -6811.962343688291, 22363.90380429075, 15323.171356102392, -0.164, 0.974, 0.078, 192.0, 250.0, 224.0, 30.0, 112.0, 2.0, 112.0, 0.0, 0.0, 0.0, 1.6878031187724884E9, 0.0, 2023-06-26 13:11:58.772
193.0, 48023.70643898326, 53808.382607505635, 64911.18698253477, 346.9661291797315, -3796.4437957339046, -6784.045014863613, 22356.058341986936, 15334.70485624133, -0.164, 0.974, 0.078, 192.0, 0.0, 0.0, 0.0, 0.0, 0.0, 0.0, 0.0, 0.0, 0.0, 1.6878031187775152E9, 0.0, 2023-06-26 13:11:58.777
194.0, 48063.53724760262, 53855.45538132851, 63502.44593649459, 415.72009512425603, -3727.756885022746, -6709.814871527537, 22421.72776719663, 15414.612342669052, -0.164, 0.974, 0.078, 192.0, 0.0, 0.0, 0.0, 0.0, 0.0, 0.0, 0.0, 0.0, 0.0, 1.687803118781544E9, 0.0, 2023-06-26 13:11:58.781
195.0, 48021.87359593792, 53812.852956396695, 64677.20892157662, 338.628928497902, -3774.472030934338, -6781.273398551154, 22386.81434235744, 15345.65721102443, -0.164, 0.974, 0.078, 192.0, 0.0, 0.0, 0.0, 0.0, 0.0, 0.0, 0.0, 0.0, 0.0, 1.6878031187855473E9, 0.0, 2023-06-26 13:11:58.785
196.0, 48003.612220717936, 53790.30004624129, 65128.870621785005, 314.10906483043016, -3782.563362427159, -6808.319009342076, 22370.966955538628, 15320.600905490031, -0.164, 0.974, 0.078, 192.0, 0.0, 0.0, 0.0, 0.0, 0.0, 0.0, 0.0, 0.0, 0.0, 1.6878031187895813E9, 0.0, 2023-06-26 13:11:58.789
197.0, 48017.246784835675, 53801.118290557664, 65296.35224298862, 328.10125685945235, -3813.140548842019, -6799.981808660246, 22354.627830341797, 15319.908001411915, -0.164, 0.974, 0.078, 192.0, 0.0, 0.0, 0.0, 0.0, 0.0, 0.0, 0.0, 0.0, 0.0, 1.6878031187936015E9, 0.0, 2023-06-26 13:11:58.793
198.0, 48076.81418380907, 53865.357204122214, 63454.65790684914, 422.31385973857164, -3733.2777659032067, -6713.927592507314, 22419.894924151293, 15408.107985032557, -0.164, 0.974, 0.078, 192.0, 0.0, 0.0, 0.0, 0.0, 0.0, 0.0, 0.0, 0.0, 0.0, 1.6878031187976255E9, 0.0, 2023-06-26 13:11:58.797
199.0, 48036.87161646743, 53831.248442083415, 64581.07406867434, 354.56572229453593, -3758.8705133045332, -6771.0362995906235, 22400.493609964087, 15362.711592043828, -0.164, 0.974, 0.078, 192.0, 0.0, 0.0, 0.0, 0.0, 0.0, 0.0, 0.0, 0.0, 0.0, 1.6878031188006208E9, 0.0, 2023-06-26 13:11:58.800
200.0, 48013.08936036699, 53800.470089968454, 64973.14601816488, 319.20526256624015, -3782.4069002159717, -6809.883631453948, 22369.53644389349, 15320.980885145771, -0.164, 0.974, 0.078, 192.0, 0.0, 0.0, 0.0, 0.0, 0.0, 0.0, 0.0, 0.0, 0.0, 1.6878031188036425E9, 0.0, 2023-06-26 13:11:58.803
201.0, 48010.6306684769, 53795.06096781027, 65573.8267986568, 323.36268703492726, -3802.791691159212, -6811.805881477104, 22351.766807051517, 15315.951742643327, -0.164, 0.974, 0.078, 192.0, 0.0, 0.0, 0.0, 0.0, 0.0, 0.0, 0.0, 0.0, 0.0, 1.6878031188076675E9, 0.0, 2023-06-26 13:11:58.807
202.0, 48082.849154812, 53863.546712821335, 63552.89382373021, 419.92222308185376, -3721.1854721528857, -6714.106406462956, 22420.76664218505, 15404.62111289753, -0.164, 0.974, 0.078, 192.0, 0.0, 0.0, 0.0, 0.0, 0.0, 0.0, 0.0, 0.0, 0.0, 1.6878031188116896E9, 0.0, 2023-06-26 13:11:58.811
203.0, 48043.375974103925, 53835.159997363095, 64409.010339857385, 372.31300739204977, -3736.9658037383324, -6747.1422847679005, 22427.650979477286, 15391.47828715781, -0.17, 0.978, 0.07200000000000001, 192.0, 250.0, 176.0, 30.0, 144.0, 2.0, 64.0, 0.0, 0.0, 0.0, 1.6878031188166943E9, 0.0, 2023-06-26 13:11:58.816
204.0, 48022.29827908257, 53803.8004998923, 64844.757598013595, 329.64352722686857, -3768.1911907423964, -6795.131480113445, 22385.316775478936, 15333.520213785197, -0.17, 0.978, 0.07200000000000001, 192.0, 0.0, 0.0, 0.0, 0.0, 0.0, 0.0, 0.0, 0.0, 0.0, 1.6878031188207133E9, 0.0, 2023-06-26 13:11:58.820
205.0, 48002.1817090728, 53787.03669155082, 65694.36975650427, 318.53471023258095, -3794.722711410846, -6802.619314505972, 22362.450940901155, 15320.287981067657, -0.17, 0.978, 0.07200000000000001, 192.0, 0.0, 0.0, 0.0, 0.0, 0.0, 0.0, 0.0, 0.0, 0.0, 1.687803118823728E9, 0.0, 2023-06-26 13:11:58.823
206.0, 48071.695634328804, 53851.70028826002, 63787.87771318886, 407.20408048678405, -3745.9065015204555, -6726.601031613473, 22401.76765939804, 15385.71153708834, -0.17, 0.978, 0.07200000000000001, 192.0, 0.0, 0.0, 0.0, 0.0, 0.0, 0.0, 0.0, 0.0, 0.0, 1.687803118827747E9, 0.0, 2023-06-26 13:11:58.827
207.0, 48052.540189330604, 53844.36891607868, 64156.07799960113, 392.58603961301327, -3728.919175734422, -6723.672953089828, 22434.021226647048, 15408.175040265924, -0.17, 0.978, 0.07200000000000001, 192.0, 0.0, 0.0, 0.0, 0.0, 0.0, 0.0, 0.0, 0.0, 0.0, 1.687803118831778E9, 0.0, 2023-06-26 13:11:58.831
208.0, 48029.339078585996, 53807.66735168306, 64783.58087343942, 331.4763702722037, -3765.419574429938, -6786.034320120135, 22384.08742953389, 15339.331667343578, -0.17, 0.978, 0.07200000000000001, 192.0, 0.0, 0.0, 0.0, 0.0, 0.0, 0.0, 0.0, 0.0, 0.0, 1.6878031188357906E9, 0.0, 2023-06-26 13:11:58.835
209.0, 47998.717188682225, 53780.53233391432, 65697.1637245612, 305.2801257705839, -3791.012321831265, -6808.050788408612, 22362.94267927917, 15322.970190402293, -0.17, 0.978, 0.07200000000000001, 192.0, 0.0, 0.0, 0.0, 0.0, 0.0, 0.0, 0.0, 0.0, 0.0, 1.687803118839815E9, 0.0, 2023-06-26 13:11:58.839
210.0, 48061.30207315709, 53835.62938399665, 64167.209168339876, 377.05157721657486, -3760.1892662273967, -6741.710810865261, 22381.829903343907, 15368.210121179834, -0.17, 0.978, 0.07200000000000001, 192.0, 0.0, 0.0, 0.0, 0.0, 0.0, 0.0, 0.0, 0.0, 0.0, 1.6878031188438225E9, 0.0, 2023-06-26 13:11:58.843
211.0, 48059.379823133924, 53845.53120679036, 63898.608255220446, 396.27407744813894, -3716.178681394897, -6708.652580815862, 22431.115499867858, 15417.451014214876, -0.17, 0.978, 0.07200000000000001, 192.0, 0.0, 0.0, 0.0, 0.0, 0.0, 0.0, 0.0, 0.0, 0.0, 1.6878031188488574E9, 0.0, 2023-06-26 13:11:58.848
212.0, 48019.92899417031, 53794.88215385463, 64756.40115218177, 310.91276537332124, -3773.332091967117, -6795.243238835721, 22368.754132837552, 15326.926449170882, -0.17, 0.978, 0.07200000000000001, 192.0, 0.0, 0.0, 0.0, 0.0, 0.0, 0.0, 0.0, 0.0, 0.0, 1.6878031188528724E9, 0.0, 2023-06-26 13:11:58.852
213.0, 47996.01262760313, 53775.525543156335, 65577.06780160283, 298.7534163896342, -3786.0278828177316, -6815.516271056685, 22360.215766455625, 15318.70100721133, -0.17, 0.972, 0.068, 192.0, 250.0, 176.0, 30.0, 96.0, 2.0, 32.0, 0.0, 0.0, 0.0, 1.6878031188568957E9, 0.0, 2023-06-26 13:11:58.856
214.0, 48043.0406979371, 53813.74702617491, 64605.88450501973, 351.6152920264354, -3767.8559145755667, -6762.9896715867135, 22362.76386532353, 15349.054676181637, -0.17, 0.972, 0.068, 192.0, 0.0, 0.0, 0.0, 0.0, 0.0, 0.0, 0.0, 0.0, 0.0, 1.6878031188609257E9, 0.0, 2023-06-26 13:11:58.860
215.0, 48063.64900632489, 53848.19106438054, 63686.11022068384, 399.60448737197964, -3703.438187055372, -6704.629266813907, 22433.283619080023, 15423.933020106915, -0.17, 0.972, 0.068, 192.0, 0.0, 0.0, 0.0, 0.0, 0.0, 0.0, 0.0, 0.0, 0.0, 1.68780311886494E9, 0.0, 2023-06-26 13:11:58.864
216.0, 48020.44308429278, 53801.43121498004, 64744.018285753526, 317.6406404543687, -3760.368080183039, -6779.1946863168105, 22378.14186550878, 15340.650420266442, -0.17, 0.972, 0.068, 192.0, 0.0, 0.0, 0.0, 0.0, 0.0, 0.0, 0.0, 0.0, 0.0, 1.6878031188699648E9, 0.0, 2023-06-26 13:11:58.869
217.0, 47993.196307801765, 53773.290368710805, 65389.08963073369, 292.6513901533354, -3769.889923321, -6799.199497604311, 22363.635583357285, 15322.143175857447, -0.17, 0.972, 0.068, 192.0, 0.0, 0.0, 0.0, 0.0, 0.0, 0.0, 0.0, 0.0, 0.0, 1.6878031188739896E9, 0.0, 2023-06-26 13:11:58.873
218.0, 48024.376991316916, 53798.391377734115, 65035.037998561624, 322.7368381901787, -3782.339844982606, -6776.065442093068, 22359.075827488403, 15333.60962076302, -0.17, 0.972, 0.068, 192.0, 0.0, 0.0, 0.0, 0.0, 0.0, 0.0, 0.0, 0.0, 0.0, 1.6878031188770156E9, 0.0, 2023-06-26 13:11:58.877
219.0, 48057.77049753314, 53840.27854684336, 63543.66255327017, 392.3848739129155, -3719.2855738741846, -6711.46890061723, 22420.386662529312, 15411.706615889861, -0.17, 0.972, 0.068, 192.0, 0.0, 0.0, 0.0, 0.0, 0.0, 0.0, 0.0, 0.0, 0.0, 1.687803118880014E9, 0.0, 2023-06-26 13:11:58.880
220.0, 48015.413941790335, 53796.04444456631, 64706.534410301974, 314.6231549529022, -3759.0940307490864, -6786.548410242607, 22385.00385105656, 15346.216004635813, -0.17, 0.972, 0.068, 192.0, 0.0, 0.0, 0.0, 0.0, 0.0, 0.0, 0.0, 0.0, 0.0, 1.6878031188840296E9, 0.0, 2023-06-26 13:11:58.884
221.0, 47998.51602298213, 53775.525543156335, 65197.75869819626, 290.70678838572366, -3771.3874901995055, -6815.449215823319, 22357.108873976336, 15312.978960630771, -0.17, 0.972, 0.068, 192.0, 0.0, 0.0, 0.0, 0.0, 0.0, 0.0, 0.0, 0.0, 0.0, 1.6878031188910801E9, 0.0, 2023-06-26 13:11:58.891
222.0, 48012.10588361095, 53783.907447327074, 65404.53468615231, 307.47059672720394, -3793.2251445323404, -6798.484241781741, 22334.198335909645, 15310.184992573857, -0.17, 0.972, 0.068, 192.0, 0.0, 0.0, 0.0, 0.0, 0.0, 0.0, 0.0, 0.0, 0.0, 1.6878031188940809E9, 0.0, 2023-06-26 13:11:58.894
223.0, 48074.489602385715, 53851.253253370916, 63492.87938986772, 408.32166770954944, -3713.719989504813, -6702.215278412733, 22411.825944402928, 15404.732871619806, -0.17, 0.97, 0.078, 192.0, 250.0, 176.0, 30.0, 80.0, 2.0, 112.0, 0.0, 0.0, 0.0, 1.6878031188970916E9, 0.0, 2023-06-26 13:11:58.897
224.0, 48027.81915996304, 53812.27181104086, 64575.50848430497, 338.2713005866171, -3750.019222500232, -6759.569854685052, 22394.883322105805, 15361.638708309974, -0.17, 0.97, 0.078, 192.0, 0.0, 0.0, 0.0, 0.0, 0.0, 0.0, 0.0, 0.0, 0.0, 1.6878031189011903E9, 0.0, 2023-06-26 13:11:58.901
225.0, 48007.16614808633, 53785.516772927855, 64999.610483599965, 298.59695417844705, -3771.6780628774245, -6807.000256419213, 22362.31683043442, 15313.917733897893, -0.17, 0.97, 0.078, 192.0, 0.0, 0.0, 0.0, 0.0, 0.0, 0.0, 0.0, 0.0, 0.0, 1.6878031189042144E9, 0.0, 2023-06-26 13:11:58.904
226.0, 47997.532546226095, 53773.17860998853, 65655.00833451848, 293.88073609837727, -3798.0307695902316, -6817.259707124199, 22331.71729227511, 15301.065480836092, -0.17, 0.97, 0.078, 192.0, 0.0, 0.0, 0.0, 0.0, 0.0, 0.0, 0.0, 0.0, 0.0, 1.6878031189072132E9, 0.0, 2023-06-26 13:11:58.907
227.0, 48071.09213722851, 53843.8101224673, 63621.53603095246, 397.4587199042702, -3724.1806059098967, -6715.7380838081945, 22399.66659541924, 15390.874790057516, -0.17, 0.97, 0.078, 192.0, 0.0, 0.0, 0.0, 0.0, 0.0, 0.0, 0.0, 0.0, 0.0, 1.687803118911219E9, 0.0, 2023-06-26 13:11:58.911
228.0, 48037.05043042308, 53822.26304081238, 64412.20663931449, 356.01858568413087, -3731.243757157774, -6741.0402585316015, 22408.428479245722, 15381.174132963914, -0.17, 0.97, 0.078, 192.0, 0.0, 0.0, 0.0, 0.0, 0.0, 0.0, 0.0, 0.0, 0.0, 1.6878031189161897E9, 0.0, 2023-06-26 13:11:58.916
229.0, 48012.754084200154, 53787.08139503973, 64879.000470519124, 305.16836704830735, -3757.7082225928575, -6799.2665528376765, 22367.077752003403, 15320.377388045477, -0.17, 0.97, 0.078, 192.0, 0.0, 0.0, 0.0, 0.0, 0.0, 0.0, 0.0, 0.0, 0.0, 1.687803118920206E9, 0.0, 2023-06-26 13:11:58.920
230.0, 47987.74248215467, 53764.126153484125, 65747.61161179682, 290.97500931918734, -3793.2921997657063, -6808.877802953459, 22345.955353493136, 15309.782661173662, -0.17, 0.97, 0.078, 192.0, 0.0, 0.0, 0.0, 0.0, 0.0, 0.0, 0.0, 0.0, 0.0, 1.6878031189242249E9, 0.0, 2023-06-26 13:11:58.924
231.0, 48054.73066028723, 53825.54874724731, 63889.801667905056, 376.40337662737096, -3752.008527756754, -6728.076246747523, 22377.873644575317, 15373.887464271482, -0.17, 0.97, 0.078, 192.0, 0.0, 0.0, 0.0, 0.0, 0.0, 0.0, 0.0, 0.0, 0.0, 1.6878031189282436E9, 0.0, 2023-06-26 13:11:58.928
232.0, 48035.64227052239, 53820.67606695605, 64187.14692439401, 366.99329221168665, -3725.5217105772153, -6720.320191421532, 22408.361424012357, 15400.150764006468, -0.17, 0.97, 0.078, 192.0, 0.0, 0.0, 0.0, 0.0, 0.0, 0.0, 0.0, 0.0, 0.0, 1.6878031189322886E9, 0.0, 2023-06-26 13:11:58.932
233.0, 48012.01647663313, 53784.332130471725, 64815.54386801051, 309.5493089615475, -3760.5468941386816, -6787.263666065177, 22371.23517647209, 15336.045960908648, -0.164, 0.97, 0.082, 192.0, 250.0, 224.0, 30.0, 80.0, 2.0, 144.0, 0.0, 0.0, 0.0, 1.687803118936282E9, 0.0, 2023-06-26 13:11:58.936
234.0, 47977.43832796077, 53751.72093531143, 65716.14035560374, 286.4599569392153, -3786.7431386403014, -6808.386064575442, 22353.979629752594, 15323.149004357936, -0.164, 0.97, 0.082, 192.0, 0.0, 0.0, 0.0, 0.0, 0.0, 0.0, 0.0, 0.0, 0.0, 1.6878031189413126E9, 0.0, 2023-06-26 13:11:58.941
235.0, 48032.468322809735, 53798.36902598966, 64252.50342518133, 352.5093618046477, -3763.8773040625224, -6742.671935876839, 22369.67055436022, 15363.628013566497, -0.164, 0.97, 0.082, 192.0, 0.0, 0.0, 0.0, 0.0, 0.0, 0.0, 0.0, 0.0, 0.0, 1.6878031189453266E9, 0.0, 2023-06-26 13:11:58.945
236.0, 48035.64227052239, 53818.28443029934, 63935.734502760715, 377.63272257241283, -3719.240870385274, -6700.583601067496, 22427.24864807709, 15417.830993870617, -0.164, 0.97, 0.082, 192.0, 0.0, 0.0, 0.0, 0.0, 0.0, 0.0, 0.0, 0.0, 0.0, 1.687803118949358E9, 0.0, 2023-06-26 13:11:58.949
237.0, 47997.241973548174, 53769.870551809145, 64810.67118771925, 296.5405936885588, -3769.2864262207063, -6791.376387044953, 22373.492702662075, 15334.727207985785, -0.164, 0.97, 0.082, 192.0, 0.0, 0.0, 0.0, 0.0, 0.0, 0.0, 0.0, 0.0, 0.0, 1.687803118953366E9, 0.0, 2023-06-26 13:11:58.953
238.0, 47967.15652551133, 53744.05428696326, 65588.19897034156, 277.5192591570925, -3784.8655921060554, -6808.006084919702, 22354.426664641698, 15319.528021756176, -0.164, 0.97, 0.082, 192.0, 0.0, 0.0, 0.0, 0.0, 0.0, 0.0, 0.0, 0.0, 0.0, 1.6878031189573956E9, 0.0, 2023-06-26 13:11:58.957
239.0, 48017.20208134676, 53785.40501420558, 64678.32650879938, 336.9748994082093, -3773.332091967117, -6753.512531937663, 22358.13705422128, 15348.719400014807, -0.164, 0.97, 0.082, 192.0, 0.0, 0.0, 0.0, 0.0, 0.0, 0.0, 0.0, 0.0, 0.0, 1.6878031189614031E9, 0.0, 2023-06-26 13:11:58.961
240.0, 48032.893005954385, 53812.07064534076, 63738.88268934283, 385.0535017315748, -3718.145634906964, -6706.439758114786, 22415.91631363825, 15414.187659524401, -0.164, 0.97, 0.082, 192.0, 0.0, 0.0, 0.0, 0.0, 0.0, 0.0, 0.0, 0.0, 0.0, 1.687803118964409E9, 0.0, 2023-06-26 13:11:58.964
241.0, 47990.51409846712, 53765.40020291808, 64838.36499909938, 303.5366897030699, -3772.0580425331646, -6790.415262033375, 22369.223519471114, 15331.977943417782, -0.164, 0.97, 0.082, 192.0, 0.0, 0.0, 0.0, 0.0, 0.0, 0.0, 0.0, 0.0, 0.0, 1.6878031189684436E9, 0.0, 2023-06-26 13:11:58.968
242.0, 47969.39169995686, 53745.77537128632, 65431.155613798575, 285.23061099417345, -3781.7810513712234, -6814.957477445302, 22356.75124606505, 15313.627161219974, -0.164, 0.97, 0.082, 192.0, 0.0, 0.0, 0.0, 0.0, 0.0, 0.0, 0.0, 0.0, 0.0, 1.687803118971474E9, 0.0, 2023-06-26 13:11:58.971
243.0, 48002.628743961905, 53772.28454021031, 65113.67143555539, 323.02741086809766, -3788.4418712189045, -6778.859410149981, 22349.643391328264, 15329.295734083145, -0.164, 0.97, 0.082, 192.0, 0.0, 0.0, 0.0, 0.0, 0.0, 0.0, 0.0, 0.0, 0.0, 1.6878031189754725E9, 0.0, 2023-06-26 13:11:58.975
244.0, 48046.8404944945, 53824.520567002364, 63567.95889949309, 402.17493798434, -3712.982381937788, -6695.08507193149, 22421.258380563067, 15417.138089792501, -0.16, 0.968, 0.082, 192.0, 251.0, 0.0, 30.0, 64.0, 2.0, 144.0, 0.0, 0.0, 0.0, 1.6878031189794817E9, 0.0, 2023-06-26 13:11:58.979
245.0, 48003.07577885101, 53783.996854304896, 64753.3836666803, 324.81555042452226, -3755.3165859361397, -6766.118915810456, 22383.66274638924, 15353.435618094876, -0.16, 0.968, 0.082, 192.0, 0.0, 0.0, 0.0, 0.0, 0.0, 0.0, 0.0, 0.0, 0.0, 1.6878031189835157E9, 0.0, 2023-06-26 13:11:58.983
246.0, 47981.796918129556, 53756.90654002506, 65175.89869211897, 299.8039483790336, -3772.616836144547, -6797.232544092244, 22358.85231004385, 15324.154832858425, -0.16, 0.968, 0.082, 192.0, 0.0, 0.0, 0.0, 0.0, 0.0, 0.0, 0.0, 0.0, 0.0, 1.6878031189875429E9, 0.0, 2023-06-26 13:11:58.987
247.0, 47985.59671468696, 53756.995947002884, 65452.63564022013, 304.2295937811844, -3797.2484585342954, -6796.561991758585, 22337.84167025586, 15316.376425787977, -0.16, 0.968, 0.082, 192.0, 0.0, 0.0, 0.0, 0.0, 0.0, 0.0, 0.0, 0.0, 0.0, 1.687803118991564E9, 0.0, 2023-06-26 13:11:58.991
248.0, 48044.96294796025, 53820.832529167245, 63565.09787620281, 398.7774728271333, -3720.0231814412095, -6705.433929614298, 22402.169990798237, 15402.452993685365, -0.16, 0.968, 0.082, 192.0, 0.0, 0.0, 0.0, 0.0, 0.0, 0.0, 0.0, 0.0, 0.0, 1.687803118996582E9, 0.0, 2023-06-26 13:11:58.996
249.0, 48006.205023074755, 53790.210639263474, 64664.08844758135, 338.87479768691037, -3749.6168911000364, -6759.0557645625795, 22389.205979014157, 15365.349097889555, -0.16, 0.968, 0.082, 192.0, 0.0, 0.0, 0.0, 0.0, 0.0, 0.0, 0.0, 0.0, 0.0, 1.687803119000574E9, 0.0, 2023-06-26 13:11:59.000
250.0, 47992.16812755682, 53765.176685473525, 65009.758175582676, 303.67080016980174, -3772.0356907887094, -6808.453119808808, 22356.304211175946, 15318.812765933606, -0.16, 0.968, 0.082, 192.0, 0.0, 0.0, 0.0, 0.0, 0.0, 0.0, 0.0, 0.0, 0.0, 1.687803119004603E9, 0.0, 2023-06-26 13:11:59.004
251.0, 47979.762909384124, 53754.3360894127, 65675.750753373, 297.1664425333074, -3799.7071504243795, -6818.667867024883, 22339.13807143427, 15308.441556506343, -0.16, 0.968, 0.082, 192.0, 0.0, 0.0, 0.0, 0.0, 0.0, 0.0, 0.0, 0.0, 0.0, 1.6878031190086372E9, 0.0, 2023-06-26 13:11:59.008
252.0, 48054.440087609306, 53827.068665870276, 63649.16278709922, 392.54133612410266, -3728.5168443342263, -6726.489272891196, 22395.553874439465, 15391.612397624542, -0.16, 0.968, 0.082, 192.0, 0.0, 0.0, 0.0, 0.0, 0.0, 0.0, 0.0, 0.0, 0.0, 1.6878031190126686E9, 0.0, 2023-06-26 13:11:59.012
253.0, 48022.32063082703, 53807.488537727426, 64467.169578930094, 356.8679519734326, -3734.887091503989, -6734.178272983822, 22406.90856062276, 15383.185789964891, -0.16, 0.968, 0.082, 192.0, 0.0, 0.0, 0.0, 0.0, 0.0, 0.0, 0.0, 0.0, 0.0, 1.6878031190166705E9, 0.0, 2023-06-26 13:11:59.016
254.0, 47999.65596194935, 53772.239836721405, 64895.92074107179, 306.19654729325146, -3764.8384290741005, -6790.705834711294, 22365.982516525095, 15322.634914235463, -0.16, 0.968, 0.074, 192.0, 251.0, 0.0, 30.0, 64.0, 2.0, 80.0, 0.0, 0.0, 0.0, 1.6878031190216813E9, 0.0, 2023-06-26 13:11:59.021
255.0, 47979.98642682868, 53756.6383190916, 65751.45611184313, 295.6465239103465, -3793.985103843821, -6805.34622732952, 22347.788196538473, 15315.974094387782, -0.16, 0.968, 0.074, 192.0, 0.0, 0.0, 0.0, 0.0, 0.0, 0.0, 0.0, 0.0, 0.0, 1.6878031190257227E9, 0.0, 2023-06-26 13:11:59.025
0.0, 48046.75108751668, 53818.530299488346, 63931.35356084747, 387.3780831549267, -3747.6722893324245, -6717.369761153432, 22380.891130076783, 15382.962272520337, -0.16, 0.968, 0.074, 192.0, 0.0, 0.0, 0.0, 0.0, 0.0, 0.0, 0.0, 0.0, 0.0, 1.687803119028743E9, 0.0, 2023-06-26 13:11:59.028
1.0, 48020.82306394853, 53805.47688072645, 64263.90281485353, 368.982597468209, -3736.362306638039, -6727.338639180499, 22412.362386269855, 15402.162421007446, -0.16, 0.968, 0.074, 192.0, 0.0, 0.0, 0.0, 0.0, 0.0, 0.0, 0.0, 0.0, 0.0, 1.687803119032748E9, 0.0, 2023-06-26 13:11:59.032
2.0, 47995.52088922512, 53767.05423200777, 64866.68465932425, 305.79421589305593, -3781.4457752043936, -6800.048863893612, 22360.61809785582, 15329.340437572057, -0.16, 0.968, 0.074, 192.0, 0.0, 0.0, 0.0, 0.0, 0.0, 0.0, 0.0, 0.0, 0.0, 1.6878031190357585E9, 0.0, 2023-06-26 13:11:59.035
3.0, 47977.28186574959, 53753.0396882343, 65694.54857045991, 299.58043093448055, -3790.2300107753294, -6804.072177895568, 22355.164272208724, 15328.066388138102, -0.16, 0.968, 0.074, 192.0, 0.0, 0.0, 0.0, 0.0, 0.0, 0.0, 0.0, 0.0, 0.0, 1.6878031190398548E9, 0.0, 2023-06-26 13:11:59.039
4.0, 48037.00572693416, 53804.8510318817, 64275.905701626034, 370.2789986466168, -3761.686833105902, -6738.425104430331, 22371.034010771993, 15369.75239154725, -0.16, 0.968, 0.074, 192.0, 0.0, 0.0, 0.0, 0.0, 0.0, 0.0, 0.0, 0.0, 0.0, 1.687803119043795E9, 0.0, 2023-06-26 13:11:59.043
5.0, 48034.88231121091, 53820.58665997823, 63963.674183329844, 394.77651056963333, -3722.951259964855, -6706.730330792705, 22414.128174081823, 15417.3392554926, -0.16, 0.968, 0.074, 192.0, 0.0, 0.0, 0.0, 0.0, 0.0, 0.0, 0.0, 0.0, 0.0, 1.6878031190478501E9, 0.0, 2023-06-26 13:11:59.047
6.0, 48002.24876430616, 53778.520676913344, 64845.98694395864, 316.791274165067, -3771.8345250886114, -6790.325855055554, 22366.60836536984, 15334.011952163215, -0.16, 0.968, 0.074, 192.0, 0.0, 0.0, 0.0, 0.0, 0.0, 0.0, 0.0, 0.0, 0.0, 1.6878031190518336E9, 0.0, 2023-06-26 13:11:59.051
7.0, 47974.800822115045, 53750.715106810945, 65557.28650775987, 297.7252361446901, -3788.3748159855386, -6814.957477445302, 22351.878565773794, 15317.02462637718, -0.16, 0.968, 0.074, 192.0, 0.0, 0.0, 0.0, 0.0, 0.0, 0.0, 0.0, 0.0, 0.0, 1.6878031190558443E9, 0.0, 2023-06-26 13:11:59.055
8.0, 48017.939688913786, 53785.15914501657, 64739.279715929, 347.2567018576505, -3785.536144439715, -6770.701023423794, 22351.364475651324, 15338.169376631902, -0.162, 0.974, 0.07, 192.0, 250.0, 240.0, 30.0, 112.0, 2.0, 48.0, 0.0, 0.0, 0.0, 1.6878031190588665E9, 0.0, 2023-06-26 13:11:59.058
9.0, 48041.632538036414, 53825.436988525034, 63749.65623017028, 405.9970862861975, -3721.3195826196174, -6703.109348190946, 22416.989197372102, 15414.880563602515, -0.162, 0.974, 0.07, 192.0, 0.0, 0.0, 0.0, 0.0, 0.0, 0.0, 0.0, 0.0, 0.0, 1.6878031190628896E9, 0.0, 2023-06-26 13:11:59.062
10.0, 47999.11952008242, 53778.23010423543, 64832.82176647446, 323.1615213348295, -3775.36610071255, -6787.241314320721, 22364.23908045758, 15335.107187641524, -0.162, 0.974, 0.07, 192.0, 0.0, 0.0, 0.0, 0.0, 0.0, 0.0, 0.0, 0.0, 0.0, 1.6878031190678957E9, 0.0, 2023-06-26 13:11:59.067
11.0, 47975.76194712662, 53754.626662090624, 65356.94782220696, 303.78255889207827, -3787.525449696237, -6808.8330994645485, 22348.57050759441, 15316.018797876693, -0.162, 0.974, 0.07, 192.0, 0.0, 0.0, 0.0, 0.0, 0.0, 0.0, 0.0, 0.0, 0.0, 1.6878031190719445E9, 0.0, 2023-06-26 13:11:59.071
12.0, 48000.2818107941, 53775.14556350059, 65138.03483701168, 333.6221377399132, -3800.578868458136, -6776.62423570445, 22334.220687654102, 15324.512460769709, -0.162, 0.974, 0.07, 192.0, 0.0, 0.0, 0.0, 0.0, 0.0, 0.0, 0.0, 0.0, 0.0, 1.687803119075954E9, 0.0, 2023-06-26 13:11:59.075
13.0, 48044.918244471344, 53828.27566007086, 63595.272731217476, 409.8415863325103, -3724.02414369871, -6696.984970210192, 22408.16025831226, 15410.164345522446, -0.162, 0.974, 0.07, 192.0, 0.0, 0.0, 0.0, 0.0, 0.0, 0.0, 0.0, 0.0, 0.0, 1.6878031190799677E9, 0.0, 2023-06-26 13:11:59.079
14.0, 48001.80172941706, 53786.276732239334, 64811.744071453104, 330.0905621159747, -3768.302949464673, -6772.332700769031, 22373.939737551183, 15347.959440703326, -0.162, 0.974, 0.07, 192.0, 0.0, 0.0, 0.0, 0.0, 0.0, 0.0, 0.0, 0.0, 0.0, 1.6878031190839782E9, 0.0, 2023-06-26 13:11:59.083
15.0, 47982.10984255193, 53759.67815633752, 65159.40310471095, 303.8049106365336, -3783.3903769720055, -6805.793262218626, 22346.33533314888, 15316.443481021344, -0.162, 0.974, 0.07, 192.0, 0.0, 0.0, 0.0, 0.0, 0.0, 0.0, 0.0, 0.0, 0.0, 1.6878031190890133E9, 0.0, 2023-06-26 13:11:59.089
16.0, 47984.05444431954, 53759.47699063743, 65477.222559120964, 310.0857508284749, -3806.1221010830527, -6796.092605125023, 22328.543344562455, 15314.387120531455, -0.162, 0.974, 0.07, 192.0, 0.0, 0.0, 0.0, 0.0, 0.0, 0.0, 0.0, 0.0, 0.0, 1.6878031190930374E9, 0.0, 2023-06-26 13:11:59.093
17.0, 48044.7394305157, 53822.866537912676, 63573.36802165127, 404.20894672977295, -3728.4721408453156, -6705.724502292216, 22398.48195296311, 15405.962217564847, -0.162, 0.974, 0.07, 192.0, 0.0, 0.0, 0.0, 0.0, 0.0, 0.0, 0.0, 0.0, 0.0, 1.6878031190970795E9, 0.0, 2023-06-26 13:11:59.097
18.0, 48002.069950350524, 53788.55661017378, 64717.71028252963, 341.91463493283214, -3760.9268737944217, -6758.139343039911, 22385.29442373448, 15367.763086290728, -0.156, 0.978, 0.07200000000000001, 192.0, 251.0, 32.0, 30.0, 144.0, 2.0, 64.0, 0.0, 0.0, 0.0, 1.6878031191011033E9, 0.0, 2023-06-26 13:11:59.101
19.0, 47994.4256537468, 53770.65286286508, 64985.126553192924, 318.7135241882234, -3774.4496791898823, -6787.822459676559, 22365.557833380444, 15334.883670196972, -0.156, 0.978, 0.07200000000000001, 192.0, 0.0, 0.0, 0.0, 0.0, 0.0, 0.0, 0.0, 0.0, 0.0, 1.6878031191051164E9, 0.0, 2023-06-26 13:11:59.105
20.0, 47981.21577277372, 53756.97359525843, 65667.1006282688, 310.2198612952067, -3799.8636126355664, -6798.238372592732, 22346.46944361561, 15326.390007303955, -0.156, 0.978, 0.07200000000000001, 192.0, 0.0, 0.0, 0.0, 0.0, 0.0, 0.0, 0.0, 0.0, 0.0, 1.6878031191092153E9, 0.0, 2023-06-26 13:11:59.109
21.0, 48051.17673291883, 53823.44768326851, 63692.83809576489, 404.9689060412534, -3735.5129403487376, -6710.261906416644, 22387.171970268726, 15394.987511037292, -0.156, 0.978, 0.07200000000000001, 192.0, 0.0, 0.0, 0.0, 0.0, 0.0, 0.0, 0.0, 0.0, 0.0, 1.6878031191132023E9, 0.0, 2023-06-26 13:11:59.113
22.0, 48012.84349117798, 53797.698473656, 64512.58832366328, 362.7911642540889, -3750.2650916892403, -6733.708886350261, 22395.598577928376, 15384.437487654388, -0.156, 0.978, 0.07200000000000001, 192.0, 0.0, 0.0, 0.0, 0.0, 0.0, 0.0, 0.0, 0.0, 0.0, 1.6878031191162033E9, 0.0, 2023-06-26 13:11:59.116
23.0, 48000.460624749736, 53772.239836721405, 64897.30654922802, 317.1265503318966, -3776.46133619086, -6788.872991665959, 22365.066095002425, 15326.859393937517, -0.156, 0.978, 0.07200000000000001, 192.0, 0.0, 0.0, 0.0, 0.0, 0.0, 0.0, 0.0, 0.0, 0.0, 1.687803119119208E9, 0.0, 2023-06-26 13:11:59.119
24.0, 47982.73569139668, 53757.46533363645, 65747.14222516325, 304.1848902922738, -3801.294124280706, -6803.558087773095, 22348.19052793867, 15320.153870600925, -0.156, 0.978, 0.07200000000000001, 192.0, 0.0, 0.0, 0.0, 0.0, 0.0, 0.0, 0.0, 0.0, 0.0, 1.6878031191233125E9, 0.0, 2023-06-26 13:11:59.123
25.0, 48054.95417773178, 53824.542918746825, 63941.92593597483, 396.8328710595216, -3751.3826789120058, -6719.582583854507, 22388.647185402773, 15387.365566178032, -0.156, 0.978, 0.07200000000000001, 192.0, 0.0, 0.0, 0.0, 0.0, 0.0, 0.0, 0.0, 0.0, 0.0, 1.6878031191282096E9, 0.0, 2023-06-26 13:11:59.128
26.0, 48028.17678787432, 53815.04342735332, 64216.3606543971, 381.3207604075385, -3736.9211002494217, -6719.403769898864, 22429.461470778166, 15409.270275744233, -0.156, 0.978, 0.07200000000000001, 192.0, 0.0, 0.0, 0.0, 0.0, 0.0, 0.0, 0.0, 0.0, 0.0, 1.6878031191322367E9, 0.0, 2023-06-26 13:11:59.132
27.0, 48002.78520617309, 53777.268979223845, 64839.48258632214, 315.36076251992733, -3785.245571761796, -6793.4550992792965, 22377.314850963932, 15333.207289362825, -0.156, 0.978, 0.07200000000000001, 192.0, 0.0, 0.0, 0.0, 0.0, 0.0, 0.0, 0.0, 0.0, 0.0, 1.6878031191362622E9, 0.0, 2023-06-26 13:11:59.136
28.0, 47973.39266221436, 53750.37983064412, 65671.59332890432, 297.5240704445923, -3797.0919963231086, -6807.514346541685, 22363.61323161283, 15322.858431680017, -0.156, 0.978, 0.07200000000000001, 192.0, 0.0, 0.0, 0.0, 0.0, 0.0, 0.0, 0.0, 0.0, 0.0, 1.687803119139264E9, 0.0, 2023-06-26 13:11:59.139
29.0, 48025.53928202859, 53793.11636604266, 64351.52165311833, 360.466582830737, -3778.718862380846, -6750.360935969465, 22374.297365462466, 15358.285946641678, -0.15, 0.98, 0.068, 192.0, 251.0, 80.0, 30.0, 160.0, 2.0, 32.0, 0.0, 0.0, 0.0, 1.6878031191432886E9, 0.0, 2023-06-26 13:11:59.143
30.0, 48030.88134895341, 53811.64596219611, 63964.121218218956, 389.1662227113513, -3728.1145129340307, -6712.340618650987, 22430.891982423305, 15415.171136280434, -0.15, 0.98, 0.068, 192.0, 0.0, 0.0, 0.0, 0.0, 0.0, 0.0, 0.0, 0.0, 0.0, 1.6878031191472888E9, 0.0, 2023-06-26 13:11:59.147
31.0, 47998.225450304206, 53768.194170974995, 64855.44173186323, 308.565832205514, -3784.172688027941, -6799.53477377114, 22368.061228759438, 15329.318085827601, -0.15, 0.98, 0.068, 192.0, 0.0, 0.0, 0.0, 0.0, 0.0, 0.0, 0.0, 0.0, 0.0, 1.6878031191513329E9, 0.0, 2023-06-26 13:11:59.151
32.0, 47972.94562732526, 53745.90948175305, 65520.78610906436, 290.5950296634471, -3797.606086445581, -6815.87389896797, 22348.235231427578, 15314.253010064724, -0.15, 0.98, 0.068, 192.0, 0.0, 0.0, 0.0, 0.0, 0.0, 0.0, 0.0, 0.0, 0.0, 1.687803119155363E9, 0.0, 2023-06-26 13:11:59.155
33.0, 48012.26234582214, 53778.319511213245, 64772.136780278306, 335.03029764059755, -3799.0365980907204, -6771.662148435373, 22343.18373718068, 15331.374446317488, -0.15, 0.98, 0.068, 192.0, 0.0, 0.0, 0.0, 0.0, 0.0, 0.0, 0.0, 0.0, 0.0, 1.6878031191603723E9, 0.0, 2023-06-26 13:11:59.160
34.0, 48034.859959466456, 53813.25528779689, 63745.11882604585, 392.07194949054116, -3736.8093415271455, -6706.663275559339, 22405.92508386673, 15407.236266998802, -0.15, 0.98, 0.068, 192.0, 0.0, 0.0, 0.0, 0.0, 0.0, 0.0, 0.0, 0.0, 0.0, 1.6878031191643848E9, 0.0, 2023-06-26 13:11:59.164
35.0, 47995.140909569374, 53768.440040164, 64870.55151111502, 310.3763235063939, -3788.3748159855386, -6787.353073042998, 22363.90380429075, 15329.251030594234, -0.15, 0.98, 0.068, 192.0, 0.0, 0.0, 0.0, 0.0, 0.0, 0.0, 0.0, 0.0, 0.0, 1.687803119168502E9, 0.0, 2023-06-26 13:11:59.168
36.0, 47981.48399370718, 53751.67623182252, 65331.69035097246, 297.792291378056, -3789.5371066972148, -6808.25195410871, 22361.646278100765, 15315.16943158739, -0.15, 0.98, 0.068, 192.0, 0.0, 0.0, 0.0, 0.0, 0.0, 0.0, 0.0, 0.0, 0.0, 1.687803119172418E9, 0.0, 2023-06-26 13:11:59.172
37.0, 48004.12631084041, 53768.752964586376, 65189.60031147007, 327.9671463927205, -3802.1211388255524, -6780.736956684227, 22352.03502798498, 15322.433748535366, -0.15, 0.98, 0.068, 192.0, 0.0, 0.0, 0.0, 0.0, 0.0, 0.0, 0.0, 0.0, 0.0, 1.687803119176467E9, 0.0, 2023-06-26 13:11:59.176
38.0, 48057.65873881087, 53830.71200021649, 63585.72853633506, 418.6705253923566, -3717.2515651287517, -6684.780917737594, 22427.360406799366, 15420.937886349904, -0.15, 0.98, 0.068, 192.0, 0.0, 0.0, 0.0, 0.0, 0.0, 0.0, 0.0, 0.0, 0.0, 1.6878031191804588E9, 0.0, 2023-06-26 13:11:59.180
39.0, 48003.813386418034, 53778.386566446614, 64807.83251617343, 334.8738354294104, -3763.854952318067, -6764.95662509878, 22395.41976397273, 15355.55903381813, -0.154, 0.98, 0.066, 192.0, 251.0, 48.0, 30.0, 160.0, 2.0, 16.0, 0.0, 0.0, 0.0, 1.6878031191854775E9, 0.0, 2023-06-26 13:11:59.185
40.0, 47989.485918222184, 53758.42645864803, 65111.056281454126, 316.41129450932675, -3769.3758331985277, -6793.186878345833, 22380.064115531935, 15328.446367793844, -0.154, 0.98, 0.066, 192.0, 0.0, 0.0, 0.0, 0.0, 0.0, 0.0, 0.0, 0.0, 0.0, 1.6878031191895072E9, 0.0, 2023-06-26 13:11:59.189
41.0, 47995.431482247295, 53763.61206336166, 65489.69483252703, 322.8709486569105, -3796.3767405005387, -6786.034320120135, 22358.584089110387, 15324.043074136147, -0.154, 0.98, 0.066, 192.0, 0.0, 0.0, 0.0, 0.0, 0.0, 0.0, 0.0, 0.0, 0.0, 1.6878031191925478E9, 0.0, 2023-06-26 13:11:59.192
42.0, 48053.50131434218, 53822.933593146045, 63580.90055953271, 411.8979468223985, -3729.1873966678854, -6698.795461511071, 22417.927970639226, 15406.521011176232, -0.154, 0.98, 0.066, 192.0, 0.0, 0.0, 0.0, 0.0, 0.0, 0.0, 0.0, 0.0, 0.0, 1.6878031191965508E9, 0.0, 2023-06-26 13:11:59.196
43.0, 48010.34009579899, 53784.80151710529, 64697.75017473104, 347.3014053465611, -3760.591597627592, -6754.048973804591, 22400.62772043082, 15368.85832176904, -0.154, 0.98, 0.066, 192.0, 0.0, 0.0, 0.0, 0.0, 0.0, 0.0, 0.0, 0.0, 0.0, 1.687803119199564E9, 0.0, 2023-06-26 13:11:59.199
44.0, 47999.052464849054, 53764.93081628452, 64985.75240203767, 313.9302508747877, -3779.344711225595, -6796.673750480861, 22361.26629844502, 15321.405568290422, -0.154, 0.98, 0.066, 192.0, 0.0, 0.0, 0.0, 0.0, 0.0, 0.0, 0.0, 0.0, 0.0, 1.6878031192035687E9, 0.0, 2023-06-26 13:11:59.203
45.0, 47985.9766943427, 53753.62083359013, 65701.81288740788, 311.7621316626229, -3801.7411591698124, -6800.741767971727, 22354.96310650863, 15319.460966522809, -0.154, 0.98, 0.066, 192.0, 0.0, 0.0, 0.0, 0.0, 0.0, 0.0, 0.0, 0.0, 0.0, 1.687803119207598E9, 0.0, 2023-06-26 13:11:59.207
46.0, 48052.7413550307, 53814.663447697574, 63729.0926252714, 405.0359612746193, -3740.3185654066287, -6709.703112805261, 22408.316720523446, 15399.90489481746, -0.154, 0.98, 0.066, 192.0, 0.0, 0.0, 0.0, 0.0, 0.0, 0.0, 0.0, 0.0, 0.0, 1.6878031192116137E9, 0.0, 2023-06-26 13:11:59.211
47.0, 48021.583023260006, 53794.83745036572, 64487.934349529074, 365.7862980111001, -3743.3136991636397, -6732.367781682942, 22414.754022926572, 15395.054566270659, -0.154, 0.98, 0.066, 192.0, 0.0, 0.0, 0.0, 0.0, 0.0, 0.0, 0.0, 0.0, 0.0, 1.6878031192156336E9, 0.0, 2023-06-26 13:11:59.215
48.0, 48001.68997069478, 53763.88028429512, 64878.82165656349, 314.9584311197318, -3775.2990454791843, -6795.086776624535, 22374.67734511821, 15332.044998651148, -0.154, 0.98, 0.066, 192.0, 0.0, 0.0, 0.0, 0.0, 0.0, 0.0, 0.0, 0.0, 0.0, 1.6878031192196624E9, 0.0, 2023-06-26 13:11:59.219
49.0, 47976.074871549, 53743.60725207416, 65739.18500413717, 300.921535601799, -3800.489461480315, -6802.999294161713, 22361.89214728977, 15321.494975268242, -0.158, 0.978, 0.07200000000000001, 192.0, 251.0, 16.0, 30.0, 144.0, 2.0, 64.0, 0.0, 0.0, 0.0, 1.6878031192226803E9, 0.0, 2023-06-26 13:11:59.222
50.0, 48046.08053518302, 53805.56628770427, 64003.43793671584, 385.724054065234, -3759.0269755157206, -6728.322115936532, 22389.518903436532, 15377.843723040072, -0.158, 0.978, 0.07200000000000001, 192.0, 0.0, 0.0, 0.0, 0.0, 0.0, 0.0, 0.0, 0.0, 0.0, 1.687803119226707E9, 0.0, 2023-06-26 13:11:59.226
51.0, 48030.948404186776, 53804.62751443715, 64222.68619807794, 379.95730399576473, -3735.021201970721, -6722.041275744591, 22424.00764513107, 15406.833935598605, -0.158, 0.978, 0.07200000000000001, 192.0, 0.0, 0.0, 0.0, 0.0, 0.0, 0.0, 0.0, 0.0, 0.0, 1.6878031192317288E9, 0.0, 2023-06-26 13:11:59.231
52.0, 48004.34982828496, 53764.193208717494, 64860.51557785459, 310.4210269953045, -3780.0599670481647, -6798.551297015107, 22373.157426495247, 15327.015856148704, -0.158, 0.978, 0.07200000000000001, 192.0, 0.0, 0.0, 0.0, 0.0, 0.0, 0.0, 0.0, 0.0, 0.0, 1.6878031192357428E9, 0.0, 2023-06-26 13:11:59.235
53.0, 47984.41207223083, 53748.34582189868, 65627.47098534954, 303.11200655841907, -3789.4476997193933, -6806.799090719115, 22371.481045661098, 15323.596039247042, -0.158, 0.978, 0.07200000000000001, 192.0, 0.0, 0.0, 0.0, 0.0, 0.0, 0.0, 0.0, 0.0, 0.0, 1.687803119239846E9, 0.0, 2023-06-26 13:11:59.239
54.0, 48042.14662815889, 53799.017226578864, 64336.166004677536, 370.83779225799947, -3767.4535831753715, -6743.029563788124, 22385.227368501113, 15362.622185066008, -0.158, 0.978, 0.07200000000000001, 192.0, 0.0, 0.0, 0.0, 0.0, 0.0, 0.0, 0.0, 0.0, 0.0, 1.68780311924378E9, 0.0, 2023-06-26 13:11:59.243
55.0, 48039.37501184643, 53811.73536917393, 63936.628572538924, 391.2225832012395, -3731.556681580148, -6712.1841564398, 22426.68985446571, 15411.550153678674, -0.158, 0.978, 0.07200000000000001, 192.0, 0.0, 0.0, 0.0, 0.0, 0.0, 0.0, 0.0, 0.0, 0.0, 1.6878031192478147E9, 0.0, 2023-06-26 13:11:59.247
56.0, 48001.019418361124, 53766.60719711867, 64870.81973204848, 308.92346011679894, -3784.753833383779, -6797.925448170358, 22373.872682317815, 15325.160661358914, -0.158, 0.978, 0.07200000000000001, 192.0, 0.0, 0.0, 0.0, 0.0, 0.0, 0.0, 0.0, 0.0, 0.0, 1.6878031192528276E9, 0.0, 2023-06-26 13:11:59.252
57.0, 47977.41597621632, 53744.52367359682, 65478.898939955114, 297.59112567795825, -3787.145470040497, -6808.475471553264, 22367.94947003716, 15319.684483967363, -0.158, 0.978, 0.07200000000000001, 192.0, 0.0, 0.0, 0.0, 0.0, 0.0, 0.0, 0.0, 0.0, 0.0, 1.6878031192568383E9, 0.0, 2023-06-26 13:11:59.256
58.0, 48013.75991270065, 53773.75975534436, 64786.665414174255, 339.41123955383773, -3789.8723828640445, -6766.543598955107, 22361.311001933933, 15337.431769064877, -0.158, 0.978, 0.07200000000000001, 192.0, 0.0, 0.0, 0.0, 0.0, 0.0, 0.0, 0.0, 0.0, 0.0, 1.687803119260878E9, 0.0, 2023-06-26 13:11:59.260
59.0, 48036.7375060007, 53809.7013604285, 63727.72916885962, 394.5976966139909, -3731.2214054133187, -6703.80225226906, 22418.754985184074, 15410.43256645591, -0.162, 0.974, 0.068, 192.0, 250.0, 240.0, 30.0, 112.0, 2.0, 32.0, 0.0, 0.0, 0.0, 1.6878031192648933E9, 0.0, 2023-06-26 13:11:59.264
60.0, 47998.31485728203, 53766.40603141857, 64881.257996709115, 315.2043003087402, -3777.757737369268, -6784.670863708361, 22375.370249196323, 15337.677638253885, -0.162, 0.974, 0.068, 192.0, 0.0, 0.0, 0.0, 0.0, 0.0, 0.0, 0.0, 0.0, 0.0, 1.6878031192688956E9, 0.0, 2023-06-26 13:11:59.268
61.0, 47981.70751115173, 53744.903653252564, 65278.49319916883, 296.697055899746, -3780.9316850819214, -6805.5473930296175, 22374.319717206923, 15320.019760134193, -0.162, 0.974, 0.068, 192.0, 0.0, 0.0, 0.0, 0.0, 0.0, 0.0, 0.0, 0.0, 0.0, 1.6878031192729025E9, 0.0, 2023-06-26 13:11:59.272
62.0, 47993.196307801765, 53750.9386242555, 65203.52544826573, 311.24804154015084, -3807.329095283639, -6790.862296922482, 22346.93883024917, 15317.292847310646, -0.162, 0.974, 0.068, 192.0, 0.0, 0.0, 0.0, 0.0, 0.0, 0.0, 0.0, 0.0, 0.0, 1.6878031192769525E9, 0.0, 2023-06-26 13:11:59.276
63.0, 48043.30891887056, 53810.21545055097, 63606.35919646731, 401.05735076157464, -3728.650954800958, -6699.175441166812, 22418.777336928528, 15413.405348468466, -0.162, 0.974, 0.068, 192.0, 0.0, 0.0, 0.0, 0.0, 0.0, 0.0, 0.0, 0.0, 0.0, 1.6878031192799647E9, 0.0, 2023-06-26 13:11:59.279
64.0, 48005.08743585199, 53774.07267976674, 64846.27751663655, 329.3753062934049, -3766.1348302525084, -6765.895398365903, 22390.032993559005, 15357.3248216301, -0.162, 0.974, 0.068, 192.0, 0.0, 0.0, 0.0, 0.0, 0.0, 0.0, 0.0, 0.0, 0.0, 1.687803119282976E9, 0.0, 2023-06-26 13:11:59.282
65.0, 47988.41303448833, 53749.932795755005, 65070.17494084537, 305.436587981771, -3769.3758331985277, -6797.836041192537, 22378.58890039789, 15327.46289103781, -0.162, 0.974, 0.068, 192.0, 0.0, 0.0, 0.0, 0.0, 0.0, 0.0, 0.0, 0.0, 0.0, 1.6878031192869935E9, 0.0, 2023-06-26 13:11:59.286
66.0, 47990.15647055584, 53749.55281609927, 65493.941663973535, 313.81849215251117, -3794.0298073327313, -6791.845773678515, 22366.206033969647, 15327.015856148704, -0.162, 0.974, 0.068, 192.0, 0.0, 0.0, 0.0, 0.0, 0.0, 0.0, 0.0, 0.0, 0.0, 1.6878031192920043E9, 0.0, 2023-06-26 13:11:59.292
67.0, 48056.69761379929, 53817.122139587664, 63582.196960711124, 411.29444972210524, -3717.4527308288493, -6694.973313209214, 22434.69177898071, 15419.663836915952, -0.162, 0.974, 0.068, 192.0, 0.0, 0.0, 0.0, 0.0, 0.0, 0.0, 0.0, 0.0, 0.0, 1.687803119296038E9, 0.0, 2023-06-26 13:11:59.296
68.0, 48009.40132253186, 53781.02407229234, 64750.34382943438, 344.99917566766453, -3749.5945393555808, -6751.09854353649, 22416.899790394284, 15379.542455618675, -0.162, 0.974, 0.068, 192.0, 0.0, 0.0, 0.0, 0.0, 0.0, 0.0, 0.0, 0.0, 0.0, 1.687803119300068E9, 0.0, 2023-06-26 13:11:59.300
69.0, 47988.725958910705, 53749.64222307709, 64926.36381701992, 308.09644557195253, -3770.1581442544634, -6796.4502330363075, 22382.791028355485, 15331.396798061944, -0.162, 0.974, 0.068, 192.0, 0.0, 0.0, 0.0, 0.0, 0.0, 0.0, 0.0, 0.0, 0.0, 1.687803119303068E9, 0.0, 2023-06-26 13:11:59.303
70.0, 47982.288656507575, 53743.786066029796, 65637.14929069868, 306.44241648225983, -3790.498231708793, -6798.417186548375, 22371.011659027536, 15330.569783517098, -0.154, 0.972, 0.07200000000000001, 192.0, 251.0, 48.0, 30.0, 96.0, 2.0, 64.0, 0.0, 0.0, 0.0, 1.6878031193070838E9, 0.0, 2023-06-26 13:11:59.307
71.0, 48053.76953527565, 53809.94722961751, 63705.243313937586, 401.12440599494056, -3734.238890914785, -6713.435854129298, 22413.05529034797, 15405.179906508913, -0.154, 0.972, 0.07200000000000001, 192.0, 0.0, 0.0, 0.0, 0.0, 0.0, 0.0, 0.0, 0.0, 0.0, 1.6878031193111105E9, 0.0, 2023-06-26 13:11:59.311
72.0, 48021.65007849337, 53790.702377641486, 64556.71066721805, 369.09435619048554, -3737.301079905162, -6726.824549058027, 22432.903639424283, 15404.151726263968, -0.154, 0.972, 0.07200000000000001, 192.0, 0.0, 0.0, 0.0, 0.0, 0.0, 0.0, 0.0, 0.0, 0.0, 1.6878031193152027E9, 0.0, 2023-06-26 13:11:59.315
73.0, 48004.14866258486, 53759.387583659605, 64873.12196172738, 318.6911724437681, -3765.956016296866, -6783.1509450854, 22387.484894691097, 15339.085798154569, -0.154, 0.972, 0.07200000000000001, 192.0, 0.0, 0.0, 0.0, 0.0, 0.0, 0.0, 0.0, 0.0, 0.0, 1.6878031193191893E9, 0.0, 2023-06-26 13:11:59.319
74.0, 47980.00877857313, 53735.94060372598, 65674.81198010588, 300.5639076905141, -3792.9122201099663, -6801.4346720498415, 22371.39163868328, 15327.284077082168, -0.154, 0.972, 0.07200000000000001, 192.0, 0.0, 0.0, 0.0, 0.0, 0.0, 0.0, 0.0, 0.0, 0.0, 1.6878031193232267E9, 0.0, 2023-06-26 13:11:59.323
75.0, 48046.885197983414, 53792.91520034256, 64004.510820449694, 380.9854842407089, -3748.40989689945, -6724.388208912398, 22397.163200040246, 15383.833990554094, -0.154, 0.972, 0.07200000000000001, 192.0, 0.0, 0.0, 0.0, 0.0, 0.0, 0.0, 0.0, 0.0, 0.0, 1.6878031193282063E9, 0.0, 2023-06-26 13:11:59.328
76.0, 48028.95909893025, 53792.40111022009, 64337.6859233005, 376.2469144161838, -3728.4721408453156, -6717.861499531448, 22434.06593013596, 15414.634694413508, -0.154, 0.972, 0.07200000000000001, 192.0, 0.0, 0.0, 0.0, 0.0, 0.0, 0.0, 0.0, 0.0, 0.0, 1.68780311933222E9, 0.0, 2023-06-26 13:11:59.332
77.0, 48005.37800852991, 53756.68302258051, 64895.25018873814, 313.1702915633073, -3771.6110076440586, -6784.402642774898, 22380.645260887773, 15336.828271964583, -0.154, 0.972, 0.07200000000000001, 192.0, 0.0, 0.0, 0.0, 0.0, 0.0, 0.0, 0.0, 0.0, 0.0, 1.6878031193362424E9, 0.0, 2023-06-26 13:11:59.336
78.0, 47988.03305483259, 53742.02027821783, 65533.21367898151, 306.3753612488939, -3776.371929213039, -6794.952666157802, 22374.05149627346, 15334.101359141036, -0.154, 0.972, 0.07200000000000001, 192.0, 0.0, 0.0, 0.0, 0.0, 0.0, 0.0, 0.0, 0.0, 0.0, 1.687803119340254E9, 0.0, 2023-06-26 13:11:59.340
79.0, 48041.38666884741, 53787.327264228734, 64345.57608909322, 366.30038813357214, -3764.6149116295474, -6743.051915532579, 22380.935833565694, 15366.243167667768, -0.154, 0.972, 0.07200000000000001, 192.0, 0.0, 0.0, 0.0, 0.0, 0.0, 0.0, 0.0, 0.0, 0.0, 1.687803119344282E9, 0.0, 2023-06-26 13:11:59.344
80.0, 48040.716116513744, 53804.8510318817, 64063.60883278953, 398.3751414269378, -3720.760789008235, -6702.215278412733, 22435.25057259209, 15424.357703251566, -0.146, 0.976, 0.07200000000000001, 192.0, 251.0, 112.0, 30.0, 128.0, 2.0, 64.0, 0.0, 0.0, 0.0, 1.6878031193492932E9, 0.0, 2023-06-26 13:11:59.349
81.0, 48009.043694620574, 53764.50613313987, 64979.896244990385, 324.6143847244245, -3775.7013768793795, -6782.458041007286, 22384.10978127835, 15342.907946456427, -0.146, 0.976, 0.07200000000000001, 192.0, 0.0, 0.0, 0.0, 0.0, 0.0, 0.0, 0.0, 0.0, 0.0, 1.6878031193533251E9, 0.0, 2023-06-26 13:11:59.353
82.0, 47985.48495596468, 53743.18256892951, 65359.138293163574, 310.3763235063939, -3776.237818746307, -6795.757328958193, 22378.119513764326, 15334.883670196972, -0.146, 0.976, 0.07200000000000001, 192.0, 0.0, 0.0, 0.0, 0.0, 0.0, 0.0, 0.0, 0.0, 0.0, 1.6878031193583565E9, 0.0, 2023-06-26 13:11:59.358
83.0, 48019.83958719249, 53771.09989775418, 64749.785035823, 348.82132396952204, -3779.36706297005, -6756.753534883683, 22375.392600940777, 15352.541548316663, -0.146, 0.976, 0.07200000000000001, 192.0, 0.0, 0.0, 0.0, 0.0, 0.0, 0.0, 0.0, 0.0, 0.0, 1.6878031193633924E9, 0.0, 2023-06-26 13:11:59.363
84.0, 48035.776380989126, 53800.0454068238, 63846.21576621721, 399.91741179435394, -3717.564489551126, -6696.627342298907, 22439.02801740504, 15427.844575386594, -0.146, 0.976, 0.07200000000000001, 192.0, 0.0, 0.0, 0.0, 0.0, 0.0, 0.0, 0.0, 0.0, 0.0, 1.6878031193663943E9, 0.0, 2023-06-26 13:11:59.366
85.0, 47989.7764909001, 53747.47410386492, 65120.39931063644, 312.00800085163127, -3776.528391424226, -6783.530924741141, 22387.19432201318, 15346.12659765799, -0.146, 0.976, 0.07200000000000001, 192.0, 0.0, 0.0, 0.0, 0.0, 0.0, 0.0, 0.0, 0.0, 0.0, 1.6878031193693914E9, 0.0, 2023-06-26 13:11:59.369
86.0, 47984.099147808454, 53738.17577817151, 65179.45261948736, 310.7563031621341, -3768.370004698039, -6786.637817220428, 22383.52863592251, 15345.41134183542, -0.146, 0.976, 0.07200000000000001, 192.0, 0.0, 0.0, 0.0, 0.0, 0.0, 0.0, 0.0, 0.0, 0.0, 1.6878031193734064E9, 0.0, 2023-06-26 13:11:59.373
87.0, 48000.50532823865, 53750.9386242555, 65135.91142128842, 333.1303993618965, -3781.4904786933043, -6760.642738418906, 22380.712316121142, 15353.480321583787, -0.146, 0.976, 0.07200000000000001, 192.0, 0.0, 0.0, 0.0, 0.0, 0.0, 0.0, 0.0, 0.0, 0.0, 1.68780311937644E9, 0.0, 2023-06-26 13:11:59.376
88.0, 48044.13593341541, 53803.57698244775, 63684.344432871876, 414.13312126792925, -3707.886184201978, -6675.147315877356, 22454.62953503484, 15443.021409871748, -0.146, 0.976, 0.07200000000000001, 192.0, 0.0, 0.0, 0.0, 0.0, 0.0, 0.0, 0.0, 0.0, 0.0, 1.6878031193794367E9, 0.0, 2023-06-26 13:11:59.379
89.0, 47989.82119438901, 53750.82686553322, 65225.072529920646, 320.8145881670223, -3768.2135424868516, -6761.849732619493, 22405.47804897762, 15369.797095036161, -0.146, 0.976, 0.07200000000000001, 192.0, 0.0, 0.0, 0.0, 0.0, 0.0, 0.0, 0.0, 0.0, 0.0, 1.6878031193844652E9, 0.0, 2023-06-26 13:11:59.384
90.0, 47979.6735024063, 53731.47025483492, 65087.29637709813, 305.0342565815755, -3773.108574522564, -6785.497878253207, 22381.449923688167, 15344.360809846023, -0.148, 0.972, 0.08, 192.0, 251.0, 96.0, 30.0, 96.0, 2.0, 128.0, 0.0, 0.0, 0.0, 1.6878031193874676E9, 0.0, 2023-06-26 13:11:59.387
91.0, 47978.91354309482, 53730.91146122354, 65475.36736433118, 307.51530021611455, -3796.264981778262, -6781.049881106602, 22359.52286237751, 15340.404551077432, -0.148, 0.972, 0.08, 192.0, 0.0, 0.0, 0.0, 0.0, 0.0, 0.0, 0.0, 0.0, 0.0, 1.6878031193905003E9, 0.0, 2023-06-26 13:11:59.390
92.0, 48047.60045380598, 53803.08524406973, 63652.76141795653, 408.94751655429803, -3714.524652305204, -6679.863533957427, 22433.596543502397, 15434.058360345169, -0.148, 0.972, 0.08, 192.0, 0.0, 0.0, 0.0, 0.0, 0.0, 0.0, 0.0, 0.0, 0.0, 1.6878031193955133E9, 0.0, 2023-06-26 13:11:59.395
93.0, 47992.97279035721, 53757.0406504918, 65174.155256051454, 333.5550825065473, -3753.7743155687235, -6743.901281821881, 22419.62670321783, 15388.036118511693, -0.148, 0.972, 0.08, 192.0, 0.0, 0.0, 0.0, 0.0, 0.0, 0.0, 0.0, 0.0, 0.0, 1.6878031193995605E9, 0.0, 2023-06-26 13:11:59.399
94.0, 47988.100110065956, 53737.37111537113, 65059.13317908445, 302.9108408583213, -3772.013339044254, -6788.5824189880395, 22379.52767366501, 15338.459949309821, -0.148, 0.972, 0.08, 192.0, 0.0, 0.0, 0.0, 0.0, 0.0, 0.0, 0.0, 0.0, 0.0, 1.687803119403563E9, 0.0, 2023-06-26 13:11:59.403
95.0, 47972.565647669515, 53724.429455331505, 65656.43884616361, 295.73593088816773, -3790.6993974088905, -6796.897267925414, 22375.750228852063, 15337.498824298244, -0.148, 0.972, 0.08, 192.0, 0.0, 0.0, 0.0, 0.0, 0.0, 0.0, 0.0, 0.0, 0.0, 1.687803119407575E9, 0.0, 2023-06-26 13:11:59.407
96.0, 48046.1922939053, 53794.70333989899, 63800.97583543967, 390.35086516748254, -3730.8414257575782, -6709.904278505359, 22425.23699107611, 15411.147822278479, -0.148, 0.972, 0.08, 192.0, 0.0, 0.0, 0.0, 0.0, 0.0, 0.0, 0.0, 0.0, 0.0, 1.6878031194115973E9, 0.0, 2023-06-26 13:11:59.411
97.0, 48003.52281374011, 53769.31175819776, 65008.50647789318, 342.5181320331254, -3744.78891429769, -6746.561139412062, 22432.166031857258, 15396.686243615895, -0.148, 0.972, 0.08, 192.0, 0.0, 0.0, 0.0, 0.0, 0.0, 0.0, 0.0, 0.0, 0.0, 1.6878031194156125E9, 0.0, 2023-06-26 13:11:59.415
98.0, 47997.1302148259, 53745.328336397215, 65126.635447339475, 302.37439899139395, -3775.6343216460136, -6800.406491804897, 22381.561682410444, 15332.112053884513, -0.148, 0.972, 0.08, 192.0, 0.0, 0.0, 0.0, 0.0, 0.0, 0.0, 0.0, 0.0, 0.0, 1.68780311942067E9, 0.0, 2023-06-26 13:11:59.420
99.0, 47981.95338034075, 53735.7841415148, 65643.34072391281, 302.66497166931293, -3782.4069002159717, -6800.2053261047995, 22384.71327837864, 15337.185899875869, -0.148, 0.972, 0.08, 192.0, 0.0, 0.0, 0.0, 0.0, 0.0, 0.0, 0.0, 0.0, 0.0, 1.6878031194246569E9, 0.0, 2023-06-26 13:11:59.424
100.0, 48047.2428258947, 53795.64211316611, 64022.59338171404, 383.53358310861387, -3741.8384840295894, -6729.506758392663, 22418.754985184074, 15391.679452857907, -0.156, 0.97, 0.084, 192.0, 251.0, 32.0, 30.0, 80.0, 2.0, 160.0, 0.0, 0.0, 0.0, 1.6878031194286857E9, 0.0, 2023-06-26 13:11:59.428
101.0, 48013.670505722825, 53781.180534503525, 64679.8687791668, 362.7911642540889, -3732.271937402718, -6734.468845661741, 22439.475052294143, 15408.465612943843, -0.156, 0.97, 0.084, 192.0, 0.0, 0.0, 0.0, 0.0, 0.0, 0.0, 0.0, 0.0, 0.0, 1.6878031194347136E9, 0.0, 2023-06-26 13:11:59.434
102.0, 47998.49367123767, 53748.479932365415, 65223.32909385313, 297.54642218904763, -3784.7761851282344, -6802.5522592726065, 22371.659859616742, 15324.311295069612, -0.156, 0.97, 0.084, 192.0, 0.0, 0.0, 0.0, 0.0, 0.0, 0.0, 0.0, 0.0, 0.0, 1.6878031194377315E9, 0.0, 2023-06-26 13:11:59.437
103.0, 47983.763871641626, 53737.52757758231, 65558.09117056026, 298.7310646451789, -3780.685815892913, -6801.099395883012, 22376.063153274437, 15333.475510296288, -0.156, 0.97, 0.084, 192.0, 0.0, 0.0, 0.0, 0.0, 0.0, 0.0, 0.0, 0.0, 0.0, 1.6878031194407558E9, 0.0, 2023-06-26 13:11:59.440
104.0, 48036.64809902288, 53783.54981941579, 64394.77227863936, 363.9534549657649, -3761.0386325166983, -6746.359973711965, 22390.927063337214, 15372.278138670701, -0.156, 0.97, 0.084, 192.0, 0.0, 0.0, 0.0, 0.0, 0.0, 0.0, 0.0, 0.0, 0.0, 1.6878031194447715E9, 0.0, 2023-06-26 13:11:59.444
105.0, 48035.53051180011, 53800.42538647955, 64304.493582784366, 393.12248147994063, -3713.7646929937237, -6701.745891779172, 22447.164052386768, 15431.689075432907, -0.156, 0.97, 0.084, 192.0, 0.0, 0.0, 0.0, 0.0, 0.0, 0.0, 0.0, 0.0, 0.0, 1.6878031194477956E9, 0.0, 2023-06-26 13:11:59.447
106.0, 48004.305124796054, 53757.26416793635, 65299.034452323256, 314.8913758863659, -3772.2815599777177, -6780.781660173137, 22391.508208693052, 15342.684429011873, -0.156, 0.97, 0.084, 192.0, 0.0, 0.0, 0.0, 0.0, 0.0, 0.0, 0.0, 0.0, 0.0, 1.6878031194507985E9, 0.0, 2023-06-26 13:11:59.450
107.0, 47991.8775548789, 53747.295289909285, 65335.57955450768, 317.372419520905, -3762.558551139659, -6778.591189216518, 22395.531522695008, 15348.18295814788, -0.156, 0.97, 0.084, 192.0, 0.0, 0.0, 0.0, 0.0, 0.0, 0.0, 0.0, 0.0, 0.0, 1.6878031194548306E9, 0.0, 2023-06-26 13:11:59.454
108.0, 48024.153473872364, 53774.966749544954, 64762.257309229055, 353.67165251632366, -3766.64892037498, -6747.030526045624, 22387.57430166892, 15364.007993222236, -0.156, 0.97, 0.084, 192.0, 0.0, 0.0, 0.0, 0.0, 0.0, 0.0, 0.0, 0.0, 0.0, 1.687803119459857E9, 0.0, 2023-06-26 13:11:59.459
109.0, 48041.632538036414, 53806.92974411604, 63954.75583729218, 406.4441211753036, -3705.5168992897156, -6683.998606681658, 22449.332171598933, 15438.886337147516, -0.156, 0.97, 0.084, 192.0, 0.0, 0.0, 0.0, 0.0, 0.0, 0.0, 0.0, 0.0, 0.0, 1.6878031194638605E9, 0.0, 2023-06-26 13:11:59.463
110.0, 48002.51698523963, 53760.59457786019, 65375.45506661595, 319.1158555884189, -3764.8607808185557, -6768.130572811434, 22399.66659541924, 15357.74950477475, -0.156, 0.97, 0.084, 192.0, 0.0, 0.0, 0.0, 0.0, 0.0, 0.0, 0.0, 0.0, 0.0, 1.6878031194668689E9, 0.0, 2023-06-26 13:11:59.466
111.0, 47996.906697381346, 53749.32929865472, 65156.58678490959, 317.3500677764497, -3754.8024958136675, -6775.953683370792, 22397.23025527361, 15353.145045416957, -0.158, 0.974, 0.076, 192.0, 251.0, 16.0, 30.0, 112.0, 2.0, 96.0, 0.0, 0.0, 0.0, 1.6878031194708855E9, 0.0, 2023-06-26 13:11:59.470
112.0, 48004.12631084041, 53755.7889528023, 65110.92217098739, 327.6318702258909, -3779.054138547676, -6767.348261755498, 22379.080638775904, 15351.08868492707, -0.158, 0.974, 0.076, 192.0, 0.0, 0.0, 0.0, 0.0, 0.0, 0.0, 0.0, 0.0, 0.0, 1.6878031194749227E9, 0.0, 2023-06-26 13:11:59.474
113.0, 48042.57131130354, 53803.53227895883, 63693.9333312432, 398.8221763160439, -3711.9989051817547, -6692.380510852398, 22447.499328553597, 15430.415025998955, -0.158, 0.974, 0.076, 192.0, 0.0, 0.0, 0.0, 0.0, 0.0, 0.0, 0.0, 0.0, 0.0, 1.687803119478948E9, 0.0, 2023-06-26 13:11:59.478
114.0, 47993.06219733503, 53756.81713304724, 65328.114071859614, 315.4948729866592, -3764.883132563011, -6767.281206522132, 22407.10972632286, 15364.432676366887, -0.158, 0.974, 0.076, 192.0, 0.0, 0.0, 0.0, 0.0, 0.0, 0.0, 0.0, 0.0, 0.0, 1.6878031194829514E9, 0.0, 2023-06-26 13:11:59.482
115.0, 47995.36442701393, 53750.44688587748, 65004.72903308023, 312.76796016311175, -3756.724745836824, -6779.976997372747, 22393.743383138586, 15349.345248859556, -0.158, 0.974, 0.076, 192.0, 0.0, 0.0, 0.0, 0.0, 0.0, 0.0, 0.0, 0.0, 0.0, 1.6878031194869764E9, 0.0, 2023-06-26 13:11:59.486
116.0, 47988.502441466146, 53746.40122013107, 65357.46191232943, 313.41616075231565, -3780.7752228707345, -6776.668939193361, 22379.57237715392, 15348.741751759262, -0.158, 0.974, 0.076, 192.0, 0.0, 0.0, 0.0, 0.0, 0.0, 0.0, 0.0, 0.0, 0.0, 1.6878031194919991E9, 0.0, 2023-06-26 13:11:59.491
117.0, 48042.41484909235, 53801.34180800222, 63583.58276886735, 402.5325658956249, -3712.2894778596733, -6690.32415036251, 22445.44296806371, 15433.00782835577, -0.158, 0.974, 0.076, 192.0, 0.0, 0.0, 0.0, 0.0, 0.0, 0.0, 0.0, 0.0, 0.0, 1.687803119496037E9, 0.0, 2023-06-26 13:11:59.496
118.0, 47984.32266525301, 53754.02316499033, 65192.28252080471, 326.82720742549986, -3752.2096934568517, -6756.015927316657, 22427.4945172661, 15387.007938266748, -0.158, 0.974, 0.076, 192.0, 0.0, 0.0, 0.0, 0.0, 0.0, 0.0, 0.0, 0.0, 0.0, 1.687803119500045E9, 0.0, 2023-06-26 13:11:59.500
119.0, 47986.64724667636, 53743.40608637406, 64987.585245083006, 304.4978147146481, -3762.5138476507486, -6789.498840510708, 22390.770601126027, 15344.204347634835, -0.158, 0.974, 0.076, 192.0, 0.0, 0.0, 0.0, 0.0, 0.0, 0.0, 0.0, 0.0, 0.0, 1.6878031195040708E9, 0.0, 2023-06-26 13:11:59.504
120.0, 47973.41501395882, 53734.04070544728, 65506.48099261296, 302.6202681804023, -3781.1552025264746, -6789.118860854967, 22380.04176378748, 15347.579461047586, -0.158, 0.974, 0.076, 192.0, 0.0, 0.0, 0.0, 0.0, 0.0, 0.0, 0.0, 0.0, 0.0, 1.6878031195086515E9, 0.0, 2023-06-26 13:11:59.508
121.0, 48036.402229833875, 53793.004607320385, 63692.167543431235, 387.64630408839037, -3727.7345332782907, -6710.619534327929, 22431.674293479242, 15412.555982179163, -0.16, 0.97, 0.08, 192.0, 251.0, 0.0, 30.0, 80.0, 2.0, 128.0, 0.0, 0.0, 0.0, 1.6878031195131109E9, 0.0, 2023-06-26 13:11:59.513
122.0, 47990.89407812287, 53764.126153484125, 64934.79042467957, 339.0536116425528, -3742.4866846187933, -6744.549482411085, 22434.088281880413, 15400.418984939932, -0.16, 0.97, 0.08, 192.0, 0.0, 0.0, 0.0, 0.0, 0.0, 0.0, 0.0, 0.0, 0.0, 1.6878031195172024E9, 0.0, 2023-06-26 13:11:59.517
123.0, 47992.59281070147, 53747.563510842745, 65038.279001507646, 304.4531112257375, -3763.1843999844077, -6792.3375120565315, 22400.650072175275, 15347.691219769862, -0.16, 0.97, 0.08, 192.0, 0.0, 0.0, 0.0, 0.0, 0.0, 0.0, 0.0, 0.0, 0.0, 1.6878031195212092E9, 0.0, 2023-06-26 13:11:59.521
124.0, 47976.85718260494, 53738.04166770478, 65530.79969058034, 302.1955850357515, -3770.3593099545615, -6792.739843456727, 22399.890112863795, 15350.865167482516, -0.16, 0.97, 0.08, 192.0, 0.0, 0.0, 0.0, 0.0, 0.0, 0.0, 0.0, 0.0, 0.0, 1.6878031195242012E9, 0.0, 2023-06-26 13:11:59.524
125.0, 48037.74333450119, 53793.921028843055, 63978.716907348266, 375.0846237045078, -3741.212635184841, -6727.04806650258, 22414.91048513776, 15394.09344125908, -0.16, 0.97, 0.08, 192.0, 0.0, 0.0, 0.0, 0.0, 0.0, 0.0, 0.0, 0.0, 0.0, 1.6878031195282004E9, 0.0, 2023-06-26 13:11:59.528
126.0, 48012.88819466689, 53785.65088339459, 64608.63376958773, 364.0652136880414, -3723.398294853961, -6728.545633381085, 22449.26511636557, 15418.076863059625, -0.16, 0.97, 0.08, 192.0, 0.0, 0.0, 0.0, 0.0, 0.0, 0.0, 0.0, 0.0, 0.0, 1.6878031195312004E9, 0.0, 2023-06-26 13:11:59.531
127.0, 48002.561688728536, 53757.577092358726, 65184.81703815664, 302.37439899139395, -3772.862705333556, -6798.931276670847, 22389.653013903262, 15337.36471383151, -0.16, 0.97, 0.08, 192.0, 0.0, 0.0, 0.0, 0.0, 0.0, 0.0, 0.0, 0.0, 0.0, 1.687803119535254E9, 0.0, 2023-06-26 13:11:59.535
128.0, 47990.62585718941, 53749.86574052164, 65447.651201206594, 305.23542228167327, -3771.566304155148, -6791.3987387894085, 22385.450885945666, 15344.539623801664, -0.16, 0.97, 0.08, 192.0, 0.0, 0.0, 0.0, 0.0, 0.0, 0.0, 0.0, 0.0, 0.0, 1.687803119539232E9, 0.0, 2023-06-26 13:11:59.539
129.0, 48041.83370373651, 53792.73638638692, 64351.20872869596, 363.3723096099269, -3756.925911536922, -6738.559214897063, 22401.611197186852, 15375.720307316818, -0.16, 0.97, 0.08, 192.0, 0.0, 0.0, 0.0, 0.0, 0.0, 0.0, 0.0, 0.0, 0.0, 1.6878031195432594E9, 0.0, 2023-06-26 13:11:59.543
130.0, 48050.170904418344, 53818.105616343695, 64196.489953576325, 397.1904989708065, -3703.952277177844, -6696.448528343264, 22466.49831134061, 15436.76292142426, -0.16, 0.97, 0.08, 192.0, 0.0, 0.0, 0.0, 0.0, 0.0, 0.0, 0.0, 0.0, 0.0, 1.6878031195472996E9, 0.0, 2023-06-26 13:11:59.547
131.0, 48012.01647663313, 53768.395336675094, 65295.2123040214, 311.113931073419, -3775.4108042014605, -6787.911866654381, 22391.508208693052, 15340.963344688815, -0.154, 0.974, 0.08, 192.0, 251.0, 48.0, 30.0, 112.0, 2.0, 128.0, 0.0, 0.0, 0.0, 1.687803119551299E9, 0.0, 2023-06-26 13:11:59.551
132.0, 48001.019418361124, 53756.81713304724, 65274.8051613337, 309.63871593936875, -3770.4710686768376, -6792.829250434548, 22385.94262432368, 15338.459949309821, -0.154, 0.974, 0.08, 192.0, 0.0, 0.0, 0.0, 0.0, 0.0, 0.0, 0.0, 0.0, 0.0, 1.687803119554302E9, 0.0, 2023-06-26 13:11:59.554
133.0, 48029.16026463035, 53779.92883681403, 64750.4332364122, 336.46080928573724, -3781.669292648947, -6769.359918756476, 22374.453827673653, 15344.763141246218, -0.154, 0.974, 0.08, 192.0, 0.0, 0.0, 0.0, 0.0, 0.0, 0.0, 0.0, 0.0, 0.0, 1.6878031195583026E9, 0.0, 2023-06-26 13:11:59.558
134.0, 48051.95904397476, 53816.31747678727, 63869.88626359538, 398.28573444911655, -3712.691809259869, -6700.0695109450235, 22447.946363442705, 15426.704636419374, -0.154, 0.974, 0.08, 192.0, 0.0, 0.0, 0.0, 0.0, 0.0, 0.0, 0.0, 0.0, 0.0, 1.6878031195633283E9, 0.0, 2023-06-26 13:11:59.563
135.0, 48001.019418361124, 53761.488647638405, 65369.66596480203, 305.9953815931537, -3779.9258565814325, -6786.593113731517, 22393.229293016113, 15344.651382523942, -0.154, 0.974, 0.08, 192.0, 0.0, 0.0, 0.0, 0.0, 0.0, 0.0, 0.0, 0.0, 0.0, 1.6878031195673745E9, 0.0, 2023-06-26 13:11:59.567
136.0, 48002.15935732834, 53759.40993540406, 65090.26915911069, 310.1975095507514, -3761.798591828179, -6786.280189309143, 22391.86583660434, 15348.339420359067, -0.154, 0.974, 0.08, 192.0, 0.0, 0.0, 0.0, 0.0, 0.0, 0.0, 0.0, 0.0, 0.0, 1.6878031195713875E9, 0.0, 2023-06-26 13:11:59.571
137.0, 48016.15154935736, 53773.06685126625, 65056.4062662609, 328.57064349301385, -3773.8908855785, -6767.571779200051, 22392.71520289364, 15360.252900153746, -0.154, 0.974, 0.08, 192.0, 0.0, 0.0, 0.0, 0.0, 0.0, 0.0, 0.0, 0.0, 0.0, 1.6878031195754147E9, 0.0, 2023-06-26 13:11:59.575
138.0, 48052.42843060833, 53817.59152622122, 63604.995740055536, 403.69485660730084, -3707.2826871016846, -6688.84893522846, 22460.30687812649, 15442.596726727097, -0.154, 0.974, 0.08, 192.0, 0.0, 0.0, 0.0, 0.0, 0.0, 0.0, 0.0, 0.0, 0.0, 1.6878031195794516E9, 0.0, 2023-06-26 13:11:59.579
139.0, 47999.94653462726, 53769.870551809145, 65306.94696986044, 319.7417044331675, -3761.4186121724383, -6762.877912864436, 22419.96197938466, 15377.933130017893, -0.154, 0.974, 0.08, 192.0, 0.0, 0.0, 0.0, 0.0, 0.0, 0.0, 0.0, 0.0, 0.0, 1.6878031195844388E9, 0.0, 2023-06-26 13:11:59.584
140.0, 48008.35079054246, 53767.72478434143, 64975.73882052169, 317.26066079862846, -3754.8024958136675, -6774.567875214562, 22407.78027865652, 15360.431714109387, -0.154, 0.974, 0.08, 192.0, 0.0, 0.0, 0.0, 0.0, 0.0, 0.0, 0.0, 0.0, 0.0, 1.687803119588459E9, 0.0, 2023-06-26 13:11:59.588
141.0, 47998.67248519331, 53762.33801392771, 65335.46779578541, 317.6853439432793, -3778.048310047187, -6775.976035115246, 22395.01743257254, 15359.51529258672, -0.152, 0.968, 0.082, 192.0, 251.0, 64.0, 30.0, 64.0, 2.0, 144.0, 0.0, 0.0, 0.0, 1.6878031195925062E9, 0.0, 2023-06-26 13:11:59.592
142.0, 48056.16117193236, 53821.525433245355, 63535.79473922191, 406.6229351309461, -3708.4896813022715, -6687.440775327776, 22449.890965210318, 15439.33337203662, -0.152, 0.968, 0.082, 192.0, 0.0, 0.0, 0.0, 0.0, 0.0, 0.0, 0.0, 0.0, 0.0, 1.6878031195965116E9, 0.0, 2023-06-26 13:11:59.596
143.0, 47998.73954042668, 53774.139735000106, 65151.04355228467, 331.18579759428474, -3750.9579957673545, -6748.237520246211, 22423.58296198642, 15393.869923814527, -0.152, 0.968, 0.082, 192.0, 0.0, 0.0, 0.0, 0.0, 0.0, 0.0, 0.0, 0.0, 0.0, 1.6878031196005316E9, 0.0, 2023-06-26 13:11:59.600
144.0, 47997.30902878154, 53755.677194080024, 64974.71064027675, 303.9613728477207, -3768.4147081869496, -6788.91769515487, 22386.81434235744, 15343.600850534542, -0.152, 0.968, 0.082, 192.0, 0.0, 0.0, 0.0, 0.0, 0.0, 0.0, 0.0, 0.0, 0.0, 1.6878031196055307E9, 0.0, 2023-06-26 13:11:59.605
145.0, 47983.8756303639, 53746.244757919885, 65484.82215223577, 304.90014611484366, -3782.004568815776, -6786.861334664981, 22386.233197001602, 15345.388990090965, -0.152, 0.968, 0.082, 192.0, 0.0, 0.0, 0.0, 0.0, 0.0, 0.0, 0.0, 0.0, 0.0, 1.687803119608548E9, 0.0, 2023-06-26 13:11:59.608
146.0, 48044.87354098244, 53804.71692141497, 63672.69917401066, 392.02724600163054, -3728.203919911852, -6706.37270288142, 22435.54114527001, 15415.238191513801, -0.152, 0.968, 0.082, 192.0, 0.0, 0.0, 0.0, 0.0, 0.0, 0.0, 0.0, 0.0, 0.0, 1.6878031196115947E9, 0.0, 2023-06-26 13:11:59.611
147.0, 48003.90279339586, 53778.07364202424, 64876.921758284785, 351.2576641151505, -3734.775332781712, -6733.127740994423, 22449.26511636557, 15413.76297637975, -0.152, 0.968, 0.082, 192.0, 0.0, 0.0, 0.0, 0.0, 0.0, 0.0, 0.0, 0.0, 0.0, 1.687803119614581E9, 0.0, 2023-06-26 13:11:59.614
148.0, 47996.683179936794, 53751.11743821114, 65048.404341745896, 303.06730306950845, -3767.207713986363, -6791.264628322677, 22401.00770008656, 15348.205309892335, -0.152, 0.968, 0.082, 192.0, 0.0, 0.0, 0.0, 0.0, 0.0, 0.0, 0.0, 0.0, 0.0, 1.687803119618615E9, 0.0, 2023-06-26 13:11:59.618
149.0, 47986.826060632004, 53747.295289909285, 65469.06417239478, 307.7164659162123, -3768.302949464673, -6785.408471275387, 22401.1865140422, 15357.168359418913, -0.152, 0.968, 0.082, 192.0, 0.0, 0.0, 0.0, 0.0, 0.0, 0.0, 0.0, 0.0, 0.0, 1.6878031196236408E9, 0.0, 2023-06-26 13:11:59.623
150.0, 48044.82883749352, 53799.88894461262, 63932.9405347038, 380.78431854061114, -3739.0892194615867, -6714.776958796616, 22418.777336928528, 15402.47534542982, -0.152, 0.968, 0.082, 192.0, 0.0, 0.0, 0.0, 0.0, 0.0, 0.0, 0.0, 0.0, 0.0, 1.687803119627668E9, 0.0, 2023-06-26 13:11:59.627
151.0, 48017.447950535774, 53791.685854397525, 64511.13546027368, 369.78726026860005, -3723.8900332319777, -6713.2123366847445, 22449.510985554574, 15426.302305019177, -0.152, 0.968, 0.082, 192.0, 0.0, 0.0, 0.0, 0.0, 0.0, 0.0, 0.0, 0.0, 0.0, 1.6878031196316836E9, 0.0, 2023-06-26 13:11:59.631
