%OpenBCI Raw EEG Data
%Number of channels = 8
%Sample Rate = 250 Hz
%Board = OpenBCI_GUI$BoardCytonSerial
Sample Index, EXG Channel 0, EXG Channel 1, EXG Channel 2, EXG Channel 3, EXG Channel 4, EXG Channel 5, EXG Channel 6, EXG Channel 7, Accel Channel 0, Accel Channel 1, Accel Channel 2, Other, Other, Other, Other, Other, Other, Other, Analog Channel 0, Analog Channel 1, Analog Channel 2, Timestamp, Other, Timestamp (Formatted)
73.0, 47853.56496018946, 53771.88220881012, 64640.99909555902, 441.2010838033061, -3286.980484364091, -6563.098020922902, 22642.25007799269, 15582.406888295041, 0.0, 0.0, 0.0, 192.0, 0.0, 0.0, 0.0, 0.0, 0.0, 0.0, 0.0, 0.0, 0.0, 1.6878031671716113E9, 0.0, 2023-06-26 13:12:47.171
74.0, 47821.57961387392, 53724.11653090913, 65858.83389220643, 356.9126554623432, -3353.0075374850676, -6651.610928965918, 22573.674926003805, 15487.97076797137, 0.0, 0.0, 0.0, 192.0, 0.0, 0.0, 0.0, 0.0, 0.0, 0.0, 0.0, 0.0, 0.0, 1.6878031671716325E9, 0.0, 2023-06-26 13:12:47.171
75.0, 47824.708858097656, 53724.96589719843, 65522.28367594286, 373.96703648174247, -3331.840435485892, -6639.004545093125, 22585.36488835393, 15504.466355379387, 0.0, 0.0, 0.0, 192.0, 0.0, 0.0, 0.0, 0.0, 0.0, 0.0, 0.0, 0.0, 0.0, 1.6878031671716437E9, 0.0, 2023-06-26 13:12:47.171
0.0, 0.0, 0.0, 0.0, 0.0, 0.0, 0.0, 0.0, 0.0, 0.0, 0.0, 0.0, 192.0, 0.0, 0.0, 0.0, 0.0, 0.0, 0.0, 0.0, 0.0, 0.0, 1.6878031672743044E9, 0.0, 2023-06-26 13:12:47.274
1.0, 48186.561249084625, 54624.780073735725, 58868.03524113122, 592.5894489991008, -3779.9258565814325, -6220.7363511009635, 23672.598442148977, 17063.344068925868, -0.01, 0.97, 0.116, 192.0, 255.0, 176.0, 30.0, 80.0, 3.0, 160.0, 0.0, 0.0, 0.0, 1.6878031672914093E9, 0.0, 2023-06-26 13:12:47.291
2.0, 48170.64680703245, 54618.47688179933, 58619.21562185474, 573.8139836566429, -3747.426420143416, -6224.402037191634, 23698.77233490614, 17055.543310110967, -0.01, 0.97, 0.116, 192.0, 0.0, 0.0, 0.0, 0.0, 0.0, 0.0, 0.0, 0.0, 0.0, 1.687803167294402E9, 0.0, 2023-06-26 13:12:47.294
3.0, 48123.95401286531, 54571.1805905319, 60490.324853697406, 494.21942165129445, -3801.7411591698124, -6310.500956833477, 23625.235095648182, 16968.84089336883, -0.01, 0.97, 0.116, 192.0, 0.0, 0.0, 0.0, 0.0, 0.0, 0.0, 0.0, 0.0, 0.0, 1.6878031672974164E9, 0.0, 2023-06-26 13:12:47.297
4.0, 48105.17854752285, 54544.71612509682, 61648.32403043796, 477.8579447100097, -3827.177444359952, -6338.530044380432, 23601.452839547735, 16958.78260836394, -0.01, 0.97, 0.116, 192.0, 0.0, 0.0, 0.0, 0.0, 0.0, 0.0, 0.0, 0.0, 0.0, 1.6878031673004584E9, 0.0, 2023-06-26 13:12:47.300
5.0, 48160.92379819439, 54599.835526923605, 59246.62908871521, 561.9675590953302, -3777.2212955023406, -6232.6498308956425, 23643.6305813349, 17027.13424290827, -0.01, 0.97, 0.116, 192.0, 0.0, 0.0, 0.0, 0.0, 0.0, 0.0, 0.0, 0.0, 0.0, 1.687803167304572E9, 0.0, 2023-06-26 13:12:47.304
6.0, 48165.01416742971, 54620.77911147822, 58422.94495379269, 584.9228006509305, -3715.6869430168804, -6225.4302174365785, 23689.7422301462, 17068.03793526148, -0.01, 0.97, 0.116, 192.0, 0.0, 0.0, 0.0, 0.0, 0.0, 0.0, 0.0, 0.0, 0.0, 1.6878031673074808E9, 0.0, 2023-06-26 13:12:47.307
7.0, 48126.502111733214, 54582.53527671519, 60181.53550404734, 513.3525149050373, -3773.242684989296, -6297.24637237148, 23640.277819666604, 16986.185847066146, -0.01, 0.97, 0.116, 192.0, 0.0, 0.0, 0.0, 0.0, 0.0, 0.0, 0.0, 0.0, 0.0, 1.687803167311484E9, 0.0, 2023-06-26 13:12:47.311
8.0, 48097.355436963495, 54544.64906986345, 61738.625078037396, 479.7131394998002, -3826.462188537382, -6329.812864042862, 23600.849342447444, 16950.31129721538, 0.058, 0.962, 0.14, 192.0, 1.0, 208.0, 30.0, 16.0, 4.0, 96.0, 0.0, 0.0, 0.0, 1.6878031673164988E9, 0.0, 2023-06-26 13:12:47.316
9.0, 48156.14052488095, 54593.532334987205, 59753.56665296158, 551.9316258348973, -3779.6352839035135, -6259.76249691993, 23629.817203261522, 17007.241190343047, 0.058, 0.962, 0.14, 192.0, 0.0, 0.0, 0.0, 0.0, 0.0, 0.0, 0.0, 0.0, 0.0, 1.687803167320526E9, 0.0, 2023-06-26 13:12:47.320
10.0, 48176.90529547993, 54628.08813191511, 58308.77224311498, 592.6341524880114, -3756.367117925539, -6218.009438277417, 23706.461334998767, 17083.795915102473, 0.058, 0.962, 0.14, 192.0, 0.0, 0.0, 0.0, 0.0, 0.0, 0.0, 0.0, 0.0, 0.0, 1.6878031673245604E9, 0.0, 2023-06-26 13:12:47.324
11.0, 48138.460295016805, 54596.72863444431, 59827.930906764384, 528.2611284567271, -3814.9286883984437, -6288.328026333813, 23652.77244481712, 17007.621169998787, 0.058, 0.962, 0.14, 192.0, 0.0, 0.0, 0.0, 0.0, 0.0, 0.0, 0.0, 0.0, 0.0, 1.6878031673285904E9, 0.0, 2023-06-26 13:12:47.328
12.0, 48094.203840995295, 54546.99600303126, 61638.75748381108, 476.67330225387843, -3806.9714673723543, -6342.843931060306, 23592.802714443533, 16953.105265272294, 0.058, 0.962, 0.14, 192.0, 0.0, 0.0, 0.0, 0.0, 0.0, 0.0, 0.0, 0.0, 0.0, 1.6878031673326108E9, 0.0, 2023-06-26 13:12:47.332
13.0, 48131.263033302195, 54570.30887249814, 60255.36331598322, 519.9909830082635, -3813.2523075642953, -6308.645762043687, 23593.629728988377, 16979.010937095994, 0.058, 0.962, 0.14, 192.0, 0.0, 0.0, 0.0, 0.0, 0.0, 0.0, 0.0, 0.0, 0.0, 1.6878031673366375E9, 0.0, 2023-06-26 13:12:47.336
14.0, 48169.39510934295, 54616.889907943005, 58252.311736620875, 589.5049082642685, -3744.9900799977877, -6223.418560435601, 23679.169855018838, 17070.876606807306, 0.058, 0.962, 0.14, 192.0, 0.0, 0.0, 0.0, 0.0, 0.0, 0.0, 0.0, 0.0, 0.0, 1.6878031673416126E9, 0.0, 2023-06-26 13:12:47.341
15.0, 48140.09197236204, 54599.29908505668, 59473.16401876975, 533.782009337188, -3770.1581442544634, -6256.566197462821, 23652.660686094845, 17008.761108966006, 0.058, 0.962, 0.14, 192.0, 0.0, 0.0, 0.0, 0.0, 0.0, 0.0, 0.0, 0.0, 0.0, 1.6878031673456328E9, 0.0, 2023-06-26 13:12:47.345
16.0, 48106.38554172344, 54565.54795092916, 61478.71899351109, 491.2242878942833, -3831.6254415065578, -6320.469834860544, 23612.114621652916, 16962.02361130996, 0.058, 0.962, 0.14, 192.0, 0.0, 0.0, 0.0, 0.0, 0.0, 0.0, 0.0, 0.0, 0.0, 1.6878031673496704E9, 0.0, 2023-06-26 13:12:47.349
17.0, 48132.22415831377, 54577.81905863513, 60765.631290153426, 535.6148523825232, -3814.4816535093373, -6300.643837528687, 23605.654967505332, 16977.111038817293, 0.058, 0.962, 0.14, 192.0, 0.0, 0.0, 0.0, 0.0, 0.0, 0.0, 0.0, 0.0, 0.0, 1.6878031673536763E9, 0.0, 2023-06-26 13:12:47.353
18.0, 48166.73525175277, 54612.71013172986, 58345.04912436594, 602.4465683038912, -3763.74319359579, -6240.048258310349, 23671.860834581952, 17059.365458412824, 0.108, 0.9560000000000001, 0.154, 192.0, 3.0, 96.0, 29.0, 224.0, 4.0, 208.0, 0.0, 0.0, 0.0, 1.687803167357689E9, 0.0, 2023-06-26 13:12:47.357
19.0, 48147.95978641031, 54606.80927119366, 59141.26296535289, 559.039480571685, -3782.7421763828015, -6293.491279302988, 23657.846290808477, 17017.344178836844, 0.108, 0.9560000000000001, 0.154, 192.0, 0.0, 0.0, 0.0, 0.0, 0.0, 0.0, 0.0, 0.0, 0.0, 1.687803167362749E9, 0.0, 2023-06-26 13:12:47.362
20.0, 48099.07652128655, 54556.2272734913, 61171.69543167299, 492.7442065172442, -3835.3805345750493, -6377.176210543658, 23600.558769769523, 16944.96923029056, 0.108, 0.9560000000000001, 0.154, 192.0, 0.0, 0.0, 0.0, 0.0, 0.0, 0.0, 0.0, 0.0, 0.0, 1.6878031673657577E9, 0.0, 2023-06-26 13:12:47.365
21.0, 48116.779102895154, 54563.826866606105, 61215.37074033866, 519.4098376524255, -3820.047237878709, -6334.104398978281, 23593.830894688475, 16959.319050230868, 0.108, 0.9560000000000001, 0.154, 192.0, 0.0, 0.0, 0.0, 0.0, 0.0, 0.0, 0.0, 0.0, 0.0, 1.6878031673687592E9, 0.0, 2023-06-26 13:12:47.368
22.0, 48172.54670531115, 54622.07551265664, 58614.52175551913, 617.6681062779554, -3741.0561729736537, -6219.70817085602, 23667.904575813365, 17061.779446813995, 0.108, 0.9560000000000001, 0.154, 192.0, 0.0, 0.0, 0.0, 0.0, 0.0, 0.0, 0.0, 0.0, 0.0, 1.687803167374781E9, 0.0, 2023-06-26 13:12:47.374
23.0, 48144.36115555301, 54606.608105493564, 58904.53563982673, 587.7614721967545, -3752.79083881269, -6237.030772808883, 23663.613040877946, 17030.174080154193, 0.108, 0.9560000000000001, 0.154, 192.0, 0.0, 0.0, 0.0, 0.0, 0.0, 0.0, 0.0, 0.0, 0.0, 1.6878031673777907E9, 0.0, 2023-06-26 13:12:47.377
24.0, 48110.632373169945, 54573.30400625515, 60900.36760573001, 528.1270179899952, -3810.1230633405526, -6310.3891981112, 23608.91832219581, 16964.594061922322, 0.108, 0.9560000000000001, 0.154, 192.0, 0.0, 0.0, 0.0, 0.0, 0.0, 0.0, 0.0, 0.0, 0.0, 1.6878031673818262E9, 0.0, 2023-06-26 13:12:47.381
25.0, 48098.4506724418, 54551.84633157806, 61571.34462253388, 520.4380178973696, -3846.4446480804263, -6323.755541295474, 23587.81827543, 16957.30739322989, 0.108, 0.9560000000000001, 0.154, 192.0, 0.0, 0.0, 0.0, 0.0, 0.0, 0.0, 0.0, 0.0, 0.0, 1.6878031673848207E9, 0.0, 2023-06-26 13:12:47.384
26.0, 48149.300891077626, 54598.628532723014, 58995.55194324875, 606.9169171949527, -3784.4185572169495, -6225.854900581229, 23649.10675872645, 17046.33439139538, 0.108, 0.9560000000000001, 0.154, 192.0, 0.0, 0.0, 0.0, 0.0, 0.0, 0.0, 0.0, 0.0, 0.0, 1.6878031673878987E9, 0.0, 2023-06-26 13:12:47.387
27.0, 48137.72268744978, 54596.90744839996, 58726.52634698467, 592.3882832990031, -3777.8694960915445, -6253.906339872639, 23674.699506127778, 17053.933984510182, 0.108, 0.9560000000000001, 0.154, 192.0, 0.0, 0.0, 0.0, 0.0, 0.0, 0.0, 0.0, 0.0, 0.0, 1.687803167391873E9, 0.0, 2023-06-26 13:12:47.391
28.0, 48085.129032746445, 54545.87841580849, 60609.97374176666, 499.80735776512125, -3840.3426218441277, -6363.049908047904, 23609.678281507287, 16964.906986344693, 0.108, 0.9560000000000001, 0.154, 192.0, 0.0, 0.0, 0.0, 0.0, 0.0, 0.0, 0.0, 0.0, 0.0, 1.6878031673958983E9, 0.0, 2023-06-26 13:12:47.395
29.0, 48077.10475648699, 54529.159310955925, 61815.67154117484, 491.7607297612107, -3856.212360407396, -6365.039213304426, 23590.321670808993, 16958.335573474833, 0.14, 0.96, 0.166, 192.0, 4.0, 96.0, 30.0, 0.0, 5.0, 48.0, 0.0, 0.0, 0.0, 1.6878031673999228E9, 0.0, 2023-06-26 13:12:47.399
30.0, 48134.548739737125, 54576.99204409028, 59456.1319894948, 585.5710012401345, -3772.236856488807, -6239.981203076984, 23641.10483421145, 17036.119644179304, 0.14, 0.96, 0.166, 192.0, 0.0, 0.0, 0.0, 0.0, 0.0, 0.0, 0.0, 0.0, 0.0, 1.6878031674039369E9, 0.0, 2023-06-26 13:12:47.403
31.0, 48124.535158221144, 54577.57318944612, 58611.66073222885, 593.1929460993941, -3771.1639727549523, -6236.09199954176, 23679.30396548557, 17064.059324748436, 0.14, 0.96, 0.166, 192.0, 0.0, 0.0, 0.0, 0.0, 0.0, 0.0, 0.0, 0.0, 0.0, 1.6878031674089508E9, 0.0, 2023-06-26 13:12:47.408
32.0, 48097.89187883042, 54555.914349068924, 60324.85488949477, 521.3320876755819, -3823.7352757138347, -6325.96836399655, 23629.459575350236, 16984.04007959844, 0.14, 0.96, 0.166, 192.0, 0.0, 0.0, 0.0, 0.0, 0.0, 0.0, 0.0, 0.0, 0.0, 1.6878031674129665E9, 0.0, 2023-06-26 13:12:47.412
33.0, 48071.98620700672, 54524.197223686846, 61932.43705420936, 502.3107531441156, -3862.2920348992393, -6343.805056071885, 23609.454764062735, 16970.07023931387, 0.14, 0.96, 0.166, 192.0, 0.0, 0.0, 0.0, 0.0, 0.0, 0.0, 0.0, 0.0, 0.0, 1.687803167417006E9, 0.0, 2023-06-26 13:12:47.417
34.0, 48120.26597503018, 54557.65778513644, 60039.28900233377, 566.0132248417408, -3833.0559531516974, -6281.197819852569, 23630.219534661715, 17010.30337933342, 0.14, 0.96, 0.166, 192.0, 0.0, 0.0, 0.0, 0.0, 0.0, 0.0, 0.0, 0.0, 0.0, 1.687803167421005E9, 0.0, 2023-06-26 13:12:47.421
35.0, 48130.503073990716, 54570.666500409425, 58592.05825234154, 598.199736857383, -3779.009435058765, -6248.810142136829, 23685.897730099885, 17068.842598061874, 0.14, 0.96, 0.166, 192.0, 0.0, 0.0, 0.0, 0.0, 0.0, 0.0, 0.0, 0.0, 0.0, 1.6878031674250317E9, 0.0, 2023-06-26 13:12:47.425
36.0, 48085.330198446536, 54532.51207262422, 60077.59989233016, 519.7451138192552, -3816.3592000435833, -6328.382352397723, 23638.82495627701, 16989.717422690086, 0.14, 0.96, 0.166, 192.0, 0.0, 0.0, 0.0, 0.0, 0.0, 0.0, 0.0, 0.0, 0.0, 1.6878031674290361E9, 0.0, 2023-06-26 13:12:47.429
37.0, 48055.55767483207, 54508.819223501596, 61957.225138810296, 492.58774430605706, -3858.581645319658, -6328.762332053463, 23590.411077786815, 16949.953669304094, 0.14, 0.96, 0.166, 192.0, 0.0, 0.0, 0.0, 0.0, 0.0, 0.0, 0.0, 0.0, 0.0, 1.687803167434059E9, 0.0, 2023-06-26 13:12:47.434
38.0, 48107.12314929046, 54549.298232710156, 60666.00956511612, 558.6371491714895, -3832.363049073583, -6281.890723930684, 23614.30509260954, 16992.734908191553, 0.14, 0.96, 0.166, 192.0, 0.0, 0.0, 0.0, 0.0, 0.0, 0.0, 0.0, 0.0, 0.0, 1.6878031674381096E9, 0.0, 2023-06-26 13:12:47.438
39.0, 48135.75573393771, 54582.37881450401, 58713.31646601159, 620.3950191015028, -3771.722766366335, -6225.005534291928, 23699.375832006437, 17076.799819087963, 0.152, 0.964, 0.168, 192.0, 4.0, 192.0, 30.0, 32.0, 5.0, 64.0, 0.0, 0.0, 0.0, 1.6878031674421148E9, 0.0, 2023-06-26 13:12:47.442
40.0, 48108.30779174659, 54563.49159043928, 59886.157201070455, 552.4680677018247, -3804.5351272267258, -6300.554430550866, 23663.143654244384, 17009.766937466495, 0.152, 0.964, 0.168, 192.0, 0.0, 0.0, 0.0, 0.0, 0.0, 0.0, 0.0, 0.0, 0.0, 1.6878031674451904E9, 0.0, 2023-06-26 13:12:47.445
41.0, 48077.52943963164, 54537.31769768211, 61837.732712952224, 511.7208375597999, -3845.9752614468653, -6335.356096667779, 23620.518877568113, 16963.722343888563, 0.152, 0.964, 0.168, 192.0, 0.0, 0.0, 0.0, 0.0, 0.0, 0.0, 0.0, 0.0, 0.0, 1.6878031674491985E9, 0.0, 2023-06-26 13:12:47.449
42.0, 48096.103739273996, 54543.93381404088, 61175.495228230386, 545.360212965037, -3844.231825379351, -6319.866337760251, 23603.19627561525, 16976.529893461455, 0.152, 0.964, 0.168, 192.0, 0.0, 0.0, 0.0, 0.0, 0.0, 0.0, 0.0, 0.0, 0.0, 1.6878031674522047E9, 0.0, 2023-06-26 13:12:47.452
43.0, 48131.3077367911, 54580.52361971422, 58822.61649639803, 620.9761644573408, -3772.0580425331646, -6238.126008287193, 23685.45069521078, 17069.826074817905, 0.152, 0.964, 0.168, 192.0, 0.0, 0.0, 0.0, 0.0, 0.0, 0.0, 0.0, 0.0, 0.0, 1.687803167459212E9, 0.0, 2023-06-26 13:12:47.459
44.0, 48090.918134560365, 54549.007660032235, 59606.536877934566, 550.5234659342129, -3808.044351106209, -6294.921790948128, 23654.20295646226, 17002.212047840603, 0.152, 0.964, 0.168, 192.0, 0.0, 0.0, 0.0, 0.0, 0.0, 0.0, 0.0, 0.0, 0.0, 1.6878031674621944E9, 0.0, 2023-06-26 13:12:47.462
45.0, 48046.03583169411, 54499.856173975015, 61533.771340104504, 481.4342238228588, -3827.691534482424, -6367.9449400836165, 23586.52187425159, 16932.698122584596, 0.152, 0.964, 0.168, 192.0, 0.0, 0.0, 0.0, 0.0, 0.0, 0.0, 0.0, 0.0, 0.0, 1.6878031674652145E9, 0.0, 2023-06-26 13:12:47.465
46.0, 48069.7957360501, 54516.642334060954, 61593.87518094483, 508.9045177584312, -3851.362031860594, -6336.630146101731, 23575.99420261314, 16947.62908788074, 0.152, 0.964, 0.168, 192.0, 0.0, 0.0, 0.0, 0.0, 0.0, 0.0, 0.0, 0.0, 0.0, 1.687803167469262E9, 0.0, 2023-06-26 13:12:47.469
47.0, 48143.17651309687, 54589.79959366317, 59012.8298417127, 614.7847312432208, -3763.4749726623268, -6234.259156496425, 23664.976497289717, 17057.085580478382, 0.152, 0.964, 0.168, 192.0, 0.0, 0.0, 0.0, 0.0, 0.0, 0.0, 0.0, 0.0, 0.0, 1.6878031674722447E9, 0.0, 2023-06-26 13:12:47.472
48.0, 48118.120207562475, 54576.053270823155, 59274.658176262164, 577.7925941696876, -3770.538123910204, -6265.797467922863, 23673.380753204914, 17033.884469733774, 0.152, 0.964, 0.168, 192.0, 0.0, 0.0, 0.0, 0.0, 0.0, 0.0, 0.0, 0.0, 0.0, 1.6878031674752784E9, 0.0, 2023-06-26 13:12:47.475
49.0, 48064.11839295845, 54523.616078331004, 61141.587631891685, 503.85302351153183, -3826.0822088816417, -6328.605869842276, 23609.20889487373, 16952.322954216357, 0.156, 0.9520000000000001, 0.154, 192.0, 4.0, 224.0, 29.0, 192.0, 4.0, 208.0, 0.0, 0.0, 0.0, 1.6878031674802804E9, 0.0, 2023-06-26 13:12:47.480
50.0, 48067.18058194883, 54515.994133471744, 61779.79699132407, 509.2621456697161, -3838.353316587605, -6329.4999396204885, 23589.740525453155, 16949.372523948256, 0.156, 0.9520000000000001, 0.154, 192.0, 0.0, 0.0, 0.0, 0.0, 0.0, 0.0, 0.0, 0.0, 0.0, 1.6878031674842992E9, 0.0, 2023-06-26 13:12:47.484
51.0, 48131.77712342467, 54572.05230856566, 59207.848812085256, 604.7711497272431, -3760.502190649771, -6246.396153735656, 23660.752017587667, 17037.88543199127, 0.156, 0.9520000000000001, 0.154, 192.0, 0.0, 0.0, 0.0, 0.0, 0.0, 0.0, 0.0, 0.0, 0.0, 1.687803167488338E9, 0.0, 2023-06-26 13:12:47.488
52.0, 48110.788835381136, 54563.13396252799, 58946.89219556954, 576.809117413654, -3768.9064465649662, -6257.907302130139, 23687.574110934034, 17051.162368197725, 0.156, 0.9520000000000001, 0.154, 192.0, 0.0, 0.0, 0.0, 0.0, 0.0, 0.0, 0.0, 0.0, 0.0, 1.6878031674923654E9, 0.0, 2023-06-26 13:12:47.492
53.0, 48056.00470972118, 54511.389674113954, 60706.44387083577, 480.3613400890041, -3810.2124703183736, -6353.505713165488, 23620.72004326821, 16953.01585829447, 0.156, 0.9520000000000001, 0.154, 192.0, 0.0, 0.0, 0.0, 0.0, 0.0, 0.0, 0.0, 0.0, 0.0, 1.6878031674963684E9, 0.0, 2023-06-26 13:12:47.496
54.0, 48030.858997208954, 54476.83387718605, 61858.028096917646, 474.7063487418114, -3848.679822525957, -6380.350158256311, 23586.298356807038, 16930.3958929057, 0.156, 0.9520000000000001, 0.154, 192.0, 0.0, 0.0, 0.0, 0.0, 0.0, 0.0, 0.0, 0.0, 0.0, 1.6878031675013855E9, 0.0, 2023-06-26 13:12:47.501
55.0, 48096.170794507365, 54526.83472953257, 59548.53410107304, 567.7119574203441, -3787.3689874850497, -6283.634159998198, 23641.507165611645, 17012.203277612123, 0.156, 0.9520000000000001, 0.154, 192.0, 0.0, 0.0, 0.0, 0.0, 0.0, 0.0, 0.0, 0.0, 0.0, 1.687803167505407E9, 0.0, 2023-06-26 13:12:47.505
56.0, 48105.96085857879, 54547.62185187601, 58688.260160477184, 585.5039460067685, -3736.9434519938773, -6241.7469908889525, 23702.30391053008, 17062.002964258547, 0.156, 0.9520000000000001, 0.154, 192.0, 0.0, 0.0, 0.0, 0.0, 0.0, 0.0, 0.0, 0.0, 0.0, 1.6878031675094285E9, 0.0, 2023-06-26 13:12:47.509
57.0, 48074.53430587463, 54523.12433995299, 60299.44095604908, 519.2086719523278, -3799.550688213192, -6323.844948273296, 23652.794796561575, 16981.11200107479, 0.156, 0.9520000000000001, 0.154, 192.0, 0.0, 0.0, 0.0, 0.0, 0.0, 0.0, 0.0, 0.0, 0.0, 1.687803167513468E9, 0.0, 2023-06-26 13:12:47.513
58.0, 48035.485808311205, 54484.053490645114, 61850.741428225214, 486.5527733031241, -3842.0637061671864, -6357.238454489524, 23619.96008395673, 16949.73015185954, 0.156, 0.9520000000000001, 0.154, 192.0, 0.0, 0.0, 0.0, 0.0, 0.0, 0.0, 0.0, 0.0, 0.0, 1.687803167517468E9, 0.0, 2023-06-26 13:12:47.517
59.0, 48091.29811421611, 54526.007714987725, 59964.12008573057, 564.5380097076904, -3779.389414714505, -6287.568067022332, 23655.365247173937, 17010.4151380557, 0.126, 0.976, 0.146, 192.0, 3.0, 240.0, 30.0, 128.0, 4.0, 144.0, 0.0, 0.0, 0.0, 1.6878031675214944E9, 0.0, 2023-06-26 13:12:47.521
60.0, 48097.6013061525, 54533.964936013814, 58502.383053586855, 591.360103054059, -3741.3914491404835, -6259.315462030824, 23717.88307641543, 17072.79885683046, 0.126, 0.976, 0.146, 192.0, 0.0, 0.0, 0.0, 0.0, 0.0, 0.0, 0.0, 0.0, 0.0, 1.687803167525542E9, 0.0, 2023-06-26 13:12:47.525
61.0, 48060.18448593432, 54494.15647913891, 59900.86464892205, 511.34085790405965, -3785.0891095506086, -6336.093704234803, 23672.330221215514, 16991.4608587576, 0.126, 0.976, 0.146, 192.0, 0.0, 0.0, 0.0, 0.0, 0.0, 0.0, 0.0, 0.0, 0.0, 1.687803167528545E9, 0.0, 2023-06-26 13:12:47.528
62.0, 48023.84054944999, 54456.69495543182, 61674.18499877275, 470.86184869549857, -3827.7138862268794, -6349.057716018881, 23633.21466841873, 16942.890518056218, 0.126, 0.976, 0.146, 192.0, 0.0, 0.0, 0.0, 0.0, 0.0, 0.0, 0.0, 0.0, 0.0, 1.6878031675315497E9, 0.0, 2023-06-26 13:12:47.531
63.0, 48069.23694243872, 54491.13899363745, 60360.505921900985, 525.847140055554, -3811.330057541139, -6287.791584466885, 23642.82591853451, 16980.620262696775, 0.126, 0.976, 0.146, 192.0, 0.0, 0.0, 0.0, 0.0, 0.0, 0.0, 0.0, 0.0, 0.0, 1.687803167535569E9, 0.0, 2023-06-26 13:12:47.535
64.0, 48098.60713465299, 54525.247755676246, 58388.500915587065, 586.5097745072574, -3746.2864811761956, -6254.24161603947, 23718.397166537903, 17070.295461451467, 0.126, 0.976, 0.146, 192.0, 0.0, 0.0, 0.0, 0.0, 0.0, 0.0, 0.0, 0.0, 0.0, 1.6878031675395925E9, 0.0, 2023-06-26 13:12:47.539
65.0, 48077.46238439827, 54512.59666831454, 59524.662437994775, 531.8374075695763, -3753.5507981241703, -6309.852756244273, 23698.83939013951, 17019.311132348914, 0.126, 0.976, 0.146, 192.0, 0.0, 0.0, 0.0, 0.0, 0.0, 0.0, 0.0, 0.0, 0.0, 1.6878031675446155E9, 0.0, 2023-06-26 13:12:47.544
66.0, 48042.77247700364, 54476.92328416387, 61402.5442484074, 496.34283737454865, -3789.850031119589, -6336.87601529074, 23670.676192125822, 16974.31707076038, 0.126, 0.976, 0.146, 192.0, 0.0, 0.0, 0.0, 0.0, 0.0, 0.0, 0.0, 0.0, 0.0, 1.6878031675486329E9, 0.0, 2023-06-26 13:12:47.548
67.0, 48075.27191344165, 54499.163269896904, 60761.920900573845, 531.8374075695763, -3787.9724845853434, -6299.9732851950275, 23664.86473856744, 16993.919550647683, 0.126, 0.976, 0.146, 192.0, 0.0, 0.0, 0.0, 0.0, 0.0, 0.0, 0.0, 0.0, 0.0, 1.687803167551644E9, 0.0, 2023-06-26 13:12:47.551
68.0, 48112.040533070634, 54531.30507842363, 58402.56016284945, 591.8965449209863, -3779.679987392424, -6245.099752557248, 23739.07253015906, 17079.169104000226, 0.126, 0.976, 0.146, 192.0, 0.0, 0.0, 0.0, 0.0, 0.0, 0.0, 0.0, 0.0, 0.0, 1.6878031675556495E9, 0.0, 2023-06-26 13:12:47.555
69.0, 48082.08919550052, 54509.221554901786, 59148.6613927676, 535.8607215715315, -3749.818056800134, -6298.363959594245, 23721.12407936145, 17028.743568509053, 0.126, 0.976, 0.146, 192.0, 0.0, 0.0, 0.0, 0.0, 0.0, 0.0, 0.0, 0.0, 0.0, 1.687803167559668E9, 0.0, 2023-06-26 13:12:47.559
70.0, 48024.53345352811, 54455.331499020045, 61014.94264780792, 467.9114184273981, -3783.36802522755, -6339.0664862473595, 23647.87741278141, 16953.798169350408, 0.098, 0.982, 0.136, 192.0, 3.0, 16.0, 30.0, 176.0, 4.0, 64.0, 0.0, 0.0, 0.0, 1.6878031675637028E9, 0.0, 2023-06-26 13:12:47.563
71.0, 48050.1932561628, 54470.5083335052, 61054.43818026045, 499.4720815982916, -3786.7654903847565, -6330.148140209692, 23641.417758633826, 16969.109114302293, 0.098, 0.982, 0.136, 192.0, 0.0, 0.0, 0.0, 0.0, 0.0, 0.0, 0.0, 0.0, 0.0, 1.6878031675677404E9, 0.0, 2023-06-26 13:12:47.567
72.0, 48114.81214938309, 54531.93092726838, 58496.68335875075, 595.4728240338354, -3715.0834459165867, -6229.9452698165505, 23720.16295434987, 17074.29642370897, 0.098, 0.982, 0.136, 192.0, 0.0, 0.0, 0.0, 0.0, 0.0, 0.0, 0.0, 0.0, 0.0, 1.6878031675717547E9, 0.0, 2023-06-26 13:12:47.571
73.0, 48077.73060533174, 54500.43731933086, 58787.68071981439, 546.5672071656236, -3734.9988502262654, -6263.495238243966, 23723.180439851338, 17057.018525245014, 0.098, 0.982, 0.136, 192.0, 0.0, 0.0, 0.0, 0.0, 0.0, 0.0, 0.0, 0.0, 0.0, 1.687803167576766E9, 0.0, 2023-06-26 13:12:47.576
74.0, 48035.82108447803, 54458.52779847715, 60630.85027108792, 473.90168594142034, -3795.1920980444074, -6356.165570755669, 23663.45657866676, 16970.02553582496, 0.098, 0.982, 0.136, 192.0, 0.0, 0.0, 0.0, 0.0, 0.0, 0.0, 0.0, 0.0, 0.0, 1.6878031675807917E9, 0.0, 2023-06-26 13:12:47.580
75.0, 48037.653927523366, 54455.197388553315, 61274.60286314522, 478.66260751040073, -3796.8908306230105, -6353.639823632219, 23641.149537700363, 16962.87297759926, 0.098, 0.982, 0.136, 192.0, 0.0, 0.0, 0.0, 0.0, 0.0, 0.0, 0.0, 0.0, 0.0, 1.687803167584808E9, 0.0, 2023-06-26 13:12:47.584
76.0, 48111.839367370536, 54524.26427892021, 58715.48458522375, 588.0296931302182, -3732.3166408916286, -6220.177557489581, 23706.997776865697, 17083.013604046537, 0.098, 0.982, 0.136, 192.0, 0.0, 0.0, 0.0, 0.0, 0.0, 0.0, 0.0, 0.0, 0.0, 1.68780316758799E9, 0.0, 2023-06-26 13:12:47.587
77.0, 48079.451689654794, 54499.655008274916, 58440.37931446783, 552.5574746796459, -3748.6781178329134, -6241.523473444399, 23713.703300202287, 17082.968900557626, 0.098, 0.982, 0.136, 192.0, 0.0, 0.0, 0.0, 0.0, 0.0, 0.0, 0.0, 0.0, 0.0, 1.687803167592842E9, 0.0, 2023-06-26 13:12:47.592
78.0, 48041.498427569684, 54462.70757469029, 60183.56951279277, 484.7646337466996, -3775.433155945916, -6342.419247915655, 23658.807415820054, 16995.68533845965, 0.098, 0.982, 0.136, 192.0, 0.0, 0.0, 0.0, 0.0, 0.0, 0.0, 0.0, 0.0, 0.0, 1.6878031675988855E9, 0.0, 2023-06-26 13:12:47.598
79.0, 48019.66077323685, 54436.46662669977, 61340.29464009937, 472.493526040736, -3811.7994441747005, -6351.181131742136, 23628.766671272122, 16975.635823683242, 0.098, 0.982, 0.136, 192.0, 0.0, 0.0, 0.0, 0.0, 0.0, 0.0, 0.0, 0.0, 0.0, 1.687803167601905E9, 0.0, 2023-06-26 13:12:47.601
80.0, 48085.531364146635, 54492.8153744716, 59034.82395825672, 562.5710561956234, -3758.691699348891, -6259.4719242420115, 23688.535235945612, 17058.918423523715, 0.082, 0.972, 0.124, 192.0, 2.0, 144.0, 30.0, 96.0, 3.0, 224.0, 0.0, 0.0, 0.0, 1.6878031676059053E9, 0.0, 2023-06-26 13:12:47.605
81.0, 48100.082349787044, 54518.29636315064, 58171.286662970386, 585.6157047290451, -3717.139806406475, -6225.497272669944, 23750.583678553543, 17107.287598525, 0.082, 0.972, 0.124, 192.0, 0.0, 0.0, 0.0, 0.0, 0.0, 0.0, 0.0, 0.0, 0.0, 1.6878031676089103E9, 0.0, 2023-06-26 13:12:47.608
82.0, 48060.96679699025, 54479.806659198606, 59784.68028124336, 503.11541594450665, -3748.856931788556, -6307.952857965572, 23690.390430735402, 17028.02831268648, 0.082, 0.972, 0.124, 192.0, 0.0, 0.0, 0.0, 0.0, 0.0, 0.0, 0.0, 0.0, 0.0, 1.687803167613952E9, 0.0, 2023-06-26 13:12:47.613
83.0, 48013.71520921173, 54430.69987663029, 61311.550296729845, 458.6354444784456, -3798.142528312508, -6365.799172615907, 23638.623790576912, 16988.13044883376, 0.082, 0.972, 0.124, 192.0, 0.0, 0.0, 0.0, 0.0, 0.0, 0.0, 0.0, 0.0, 0.0, 1.6878031676179683E9, 0.0, 2023-06-26 13:12:47.617
84.0, 48062.2408464242, 54467.557903237095, 59470.906492579765, 525.8247883110987, -3764.2572837182624, -6291.926657191117, 23661.333162943505, 17032.07397843289, 0.082, 0.972, 0.124, 192.0, 0.0, 0.0, 0.0, 0.0, 0.0, 0.0, 0.0, 0.0, 0.0, 1.6878031676209817E9, 0.0, 2023-06-26 13:12:47.620
85.0, 48084.88316355743, 54500.414967586396, 58025.88856528862, 573.165783067439, -3710.3895795809726, -6232.403961706635, 23732.88109694494, 17102.839601378393, 0.082, 0.972, 0.124, 192.0, 0.0, 0.0, 0.0, 0.0, 0.0, 0.0, 0.0, 0.0, 0.0, 1.6878031676240158E9, 0.0, 2023-06-26 13:12:47.624
86.0, 48031.86482570945, 54452.89515887442, 59419.6762942882, 488.6314855374677, -3778.629455403025, -6331.7351140660185, 23678.186378262806, 17011.21980085609, 0.082, 0.972, 0.124, 192.0, 0.0, 0.0, 0.0, 0.0, 0.0, 0.0, 0.0, 0.0, 0.0, 1.687803167628036E9, 0.0, 2023-06-26 13:12:47.628
87.0, 47974.733766881676, 54389.885591254904, 61169.706126416466, 436.2837000231386, -3828.205624604896, -6376.706823910096, 23631.560639329033, 16963.252957255, 0.082, 0.972, 0.124, 192.0, 0.0, 0.0, 0.0, 0.0, 0.0, 0.0, 0.0, 0.0, 0.0, 1.6878031676320448E9, 0.0, 2023-06-26 13:12:47.632
88.0, 48040.872578724935, 54433.650306898395, 59942.215376164364, 499.1815089203726, -3787.6819119074244, -6317.7652737814515, 23648.726779070712, 17009.99045491105, 0.082, 0.972, 0.124, 192.0, 0.0, 0.0, 0.0, 0.0, 0.0, 0.0, 0.0, 0.0, 0.0, 1.6878031676360445E9, 0.0, 2023-06-26 13:12:47.636
89.0, 48094.42735843985, 54497.01750242919, 57983.95669269046, 573.5681144676346, -3717.184509895386, -6225.8996040701395, 23730.82473645505, 17099.017453076536, 0.082, 0.972, 0.124, 192.0, 0.0, 0.0, 0.0, 0.0, 0.0, 0.0, 0.0, 0.0, 0.0, 1.6878031676390803E9, 0.0, 2023-06-26 13:12:47.639
90.0, 48058.50810510017, 54468.63078697095, 59102.10270906719, 512.3690381490038, -3762.849123817578, -6292.217229869036, 23693.49732321469, 17026.821318485894, 0.082, 0.9540000000000001, 0.112, 192.0, 2.0, 144.0, 29.0, 208.0, 3.0, 128.0, 0.0, 0.0, 0.0, 1.6878031676431136E9, 0.0, 2023-06-26 13:12:47.643
91.0, 48006.02620911911, 54421.11097825897, 60944.311135329146, 454.075688609563, -3821.9247844129545, -6391.347216528323, 23637.193278931773, 16973.06537307088, 0.082, 0.9540000000000001, 0.112, 192.0, 0.0, 0.0, 0.0, 0.0, 0.0, 0.0, 0.0, 0.0, 0.0, 1.6878031676481948E9, 0.0, 2023-06-26 13:12:47.648
92.0, 48030.14374138639, 54430.76693186366, 60389.76435539298, 491.7607297612107, -3801.6070487030806, -6312.579669067821, 23632.119432940417, 16990.96912037958, 0.082, 0.9540000000000001, 0.112, 192.0, 0.0, 0.0, 0.0, 0.0, 0.0, 0.0, 0.0, 0.0, 0.0, 1.6878031676521854E9, 0.0, 2023-06-26 13:12:47.652
93.0, 48095.23202124024, 54498.91740070789, 58049.69317313352, 593.1929460993941, -3720.3137541191286, -6217.18242373257, 23721.727576461744, 17097.47518270912, 0.082, 0.9540000000000001, 0.112, 192.0, 0.0, 0.0, 0.0, 0.0, 0.0, 0.0, 0.0, 0.0, 0.0, 1.6878031676561775E9, 0.0, 2023-06-26 13:12:47.656
94.0, 48069.01342499416, 54478.91258942039, 58804.69039734488, 540.8898640739756, -3772.952112311377, -6274.134668604693, 23712.384547279424, 17050.938850753173, 0.082, 0.9540000000000001, 0.112, 192.0, 0.0, 0.0, 0.0, 0.0, 0.0, 0.0, 0.0, 0.0, 0.0, 1.6878031676594267E9, 0.0, 2023-06-26 13:12:47.659
95.0, 48009.9824678877, 54421.33449570352, 60679.912350167324, 467.9114184273981, -3820.0025343897983, -6341.860454304273, 23643.87645052391, 16974.56293994939, 0.082, 0.9540000000000001, 0.112, 192.0, 0.0, 0.0, 0.0, 0.0, 0.0, 0.0, 0.0, 0.0, 0.0, 1.687803167663198E9, 0.0, 2023-06-26 13:12:47.663
96.0, 47997.71136018173, 54396.14407970239, 60791.02287185465, 456.2885113106384, -3777.2659989912513, -6364.92745458215, 23606.28081635008, 16954.669887384163, 0.082, 0.9540000000000001, 0.112, 192.0, 0.0, 0.0, 0.0, 0.0, 0.0, 0.0, 0.0, 0.0, 0.0, 1.687803167669232E9, 0.0, 2023-06-26 13:12:47.669
97.0, 48061.7938115351, 54451.86697862947, 58255.731553522535, 551.618701412523, -3733.50128334776, -6257.326156774301, 23676.912328828854, 17039.204184914135, 0.082, 0.9540000000000001, 0.112, 192.0, 0.0, 0.0, 0.0, 0.0, 0.0, 0.0, 0.0, 0.0, 0.0, 1.6878031676722453E9, 0.0, 2023-06-26 13:12:47.672
98.0, 48032.35656408746, 54433.784417365125, 58566.51020842913, 505.4623491123139, -3752.1649899679414, -6307.327009120823, 23687.21648302275, 17016.785385225463, 0.082, 0.9540000000000001, 0.112, 192.0, 0.0, 0.0, 0.0, 0.0, 0.0, 0.0, 0.0, 0.0, 0.0, 1.687803167675276E9, 0.0, 2023-06-26 13:12:47.675
99.0, 47986.58019144299, 54401.32968441602, 60393.89942811721, 448.1301245844513, -3806.6361912055245, -6375.321015753868, 23638.377921387902, 16969.667907913674, 0.082, 0.9540000000000001, 0.112, 192.0, 0.0, 0.0, 0.0, 0.0, 0.0, 0.0, 0.0, 0.0, 0.0, 1.6878031676803136E9, 0.0, 2023-06-26 13:12:47.680
100.0, 48009.51308125414, 54407.40935890786, 61096.28064588078, 479.1990493773281, -3822.014191390776, -6321.721532550041, 23638.623790576912, 16991.50556224651, 0.09, 0.97, 0.10200000000000001, 192.0, 2.0, 208.0, 30.0, 80.0, 3.0, 48.0, 0.0, 0.0, 0.0, 1.6878031676853285E9, 0.0, 2023-06-26 13:12:47.685
101.0, 48088.52649790365, 54469.9048364049, 58605.424595525816, 591.7400827097991, -3739.7821235397014, -6250.173598548603, 23710.819925167554, 17071.793028329972, 0.09, 0.97, 0.10200000000000001, 192.0, 0.0, 0.0, 0.0, 0.0, 0.0, 0.0, 0.0, 0.0, 0.0, 1.6878031676893256E9, 0.0, 2023-06-26 13:12:47.689
102.0, 48052.76370677516, 54446.01082158218, 58396.79341277998, 546.6342623989896, -3760.7033563498685, -6321.006276727471, 23726.51084977518, 17060.840673546874, 0.09, 0.97, 0.10200000000000001, 192.0, 0.0, 0.0, 0.0, 0.0, 0.0, 0.0, 0.0, 0.0, 0.0, 1.6878031676923325E9, 0.0, 2023-06-26 13:12:47.692
103.0, 48002.137005583885, 54400.3909111489, 60138.82132039325, 471.46534579579185, -3840.879063711055, -6343.358021182778, 23662.271936210625, 16983.682451687153, 0.09, 0.97, 0.10200000000000001, 192.0, 0.0, 0.0, 0.0, 0.0, 0.0, 0.0, 0.0, 0.0, 0.0, 1.6878031676953533E9, 0.0, 2023-06-26 13:12:47.695
104.0, 48006.048560863564, 54396.99344599169, 61316.19945957655, 482.12712790097333, -3849.2833196262504, -6353.438657932122, 23649.844366293477, 16970.427867225157, 0.09, 0.97, 0.10200000000000001, 192.0, 0.0, 0.0, 0.0, 0.0, 0.0, 0.0, 0.0, 0.0, 0.0, 1.687803167702436E9, 0.0, 2023-06-26 13:12:47.702
105.0, 48100.216460253774, 54481.326577821565, 59058.91913877954, 598.9820479133186, -3723.7782745097015, -6256.409735251634, 23724.566248007566, 17067.009755016537, 0.09, 0.97, 0.10200000000000001, 192.0, 0.0, 0.0, 0.0, 0.0, 0.0, 0.0, 0.0, 0.0, 0.0, 1.6878031677084305E9, 0.0, 2023-06-26 13:12:47.708
106.0, 48091.29811421611, 54484.79109821214, 58225.31082931886, 605.5311090387237, -3713.8093964826344, -6229.699400627542, 23768.04039097314, 17106.371177002333, 0.09, 0.97, 0.10200000000000001, 192.0, 0.0, 0.0, 0.0, 0.0, 0.0, 0.0, 0.0, 0.0, 0.0, 1.6878031677114434E9, 0.0, 2023-06-26 13:12:47.711
107.0, 48046.92990147232, 54443.39566748091, 59820.46542411631, 522.8073028096322, -3812.7382174418235, -6316.133596436214, 23708.048308855094, 17012.493850290044, 0.09, 0.97, 0.10200000000000001, 192.0, 0.0, 0.0, 0.0, 0.0, 0.0, 0.0, 0.0, 0.0, 0.0, 1.6878031677144475E9, 0.0, 2023-06-26 13:12:47.714
108.0, 47993.66569443532, 54381.28016963961, 61330.683389983584, 466.99499690473044, -3833.7041537409013, -6391.593085717331, 23660.05911350955, 16966.203387523103, 0.09, 0.97, 0.10200000000000001, 192.0, 0.0, 0.0, 0.0, 0.0, 0.0, 0.0, 0.0, 0.0, 0.0, 1.6878031677184663E9, 0.0, 2023-06-26 13:12:47.718
109.0, 48053.97070097574, 54432.06333304207, 59555.753714532104, 532.6420703699673, -3810.972429629854, -6335.087875734315, 23686.121247544437, 17017.12066139229, 0.09, 0.97, 0.10200000000000001, 192.0, 0.0, 0.0, 0.0, 0.0, 0.0, 0.0, 0.0, 0.0, 0.0, 1.687803167721472E9, 0.0, 2023-06-26 13:12:47.721
110.0, 48066.62178833745, 54464.49571424672, 58129.332438627775, 572.2717132892267, -3765.2407604742957, -6251.469999727011, 23746.336847107035, 17085.5840546589, 0.09, 0.97, 0.10200000000000001, 192.0, 0.0, 0.0, 0.0, 0.0, 0.0, 0.0, 0.0, 0.0, 0.0, 1.6878031677244976E9, 0.0, 2023-06-26 13:12:47.724
111.0, 48018.274965080614, 54413.600792121986, 59508.658588964776, 452.8016391756105, -3798.4331009904267, -6334.886710034217, 23684.713087643755, 16991.326748290867, 0.096, 0.996, 0.098, 192.0, 3.0, 0.0, 31.0, 32.0, 3.0, 16.0, 0.0, 0.0, 0.0, 1.6878031677275045E9, 0.0, 2023-06-26 13:12:47.727
112.0, 48025.18165411731, 54405.77768156263, 61253.81574080179, 503.49539560024687, -3793.694531165902, -6347.4483904181, 23664.82003507853, 16973.199483537614, 0.096, 0.996, 0.098, 192.0, 0.0, 0.0, 0.0, 0.0, 0.0, 0.0, 0.0, 0.0, 0.0, 1.687803167731522E9, 0.0, 2023-06-26 13:12:47.731
113.0, 48070.287474428114, 54441.31695524657, 60063.29477587876, 579.5583819816568, -3792.398129987494, -6309.204555655069, 23678.745171874187, 17006.88356243176, 0.096, 0.996, 0.098, 192.0, 0.0, 0.0, 0.0, 0.0, 0.0, 0.0, 0.0, 0.0, 0.0, 1.6878031677355664E9, 0.0, 2023-06-26 13:12:47.735
114.0, 48077.86471579847, 54457.633728698944, 58100.14106036915, 597.9315159239193, -3736.40701012695, -6242.216377522514, 23756.95392572331, 17085.025261047515, 0.096, 0.996, 0.098, 192.0, 0.0, 0.0, 0.0, 0.0, 0.0, 0.0, 0.0, 0.0, 0.0, 1.687803167740584E9, 0.0, 2023-06-26 13:12:47.740
115.0, 48044.20298864877, 54431.66100164187, 59226.75838789444, 484.25054362422753, -3813.6993424534016, -6344.453256661089, 23712.56336123507, 17000.22274258408, 0.096, 0.996, 0.098, 192.0, 0.0, 0.0, 0.0, 0.0, 0.0, 0.0, 0.0, 0.0, 0.0, 1.68780316774359E9, 0.0, 2023-06-26 13:12:47.743
116.0, 48054.41773586485, 54431.48218768623, 61030.52181369327, 508.2563171692273, -3834.9558514303985, -6370.8283151183505, 23718.039538626617, 17001.69795771813, 0.096, 0.996, 0.098, 192.0, 0.0, 0.0, 0.0, 0.0, 0.0, 0.0, 0.0, 0.0, 0.0, 1.687803167747604E9, 0.0, 2023-06-26 13:12:47.747
117.0, 48030.4343140643, 54410.091568242504, 60502.283036980996, 513.7771980496882, -3852.4796190833595, -6342.173378726648, 23668.753942102667, 16977.491018473032, 0.096, 0.996, 0.098, 192.0, 0.0, 0.0, 0.0, 0.0, 0.0, 0.0, 0.0, 0.0, 0.0, 1.687803167752652E9, 0.0, 2023-06-26 13:12:47.752
118.0, 48113.67221041587, 54494.3129413501, 58215.76663443645, 659.7787928317539, -3690.3624165490173, -6190.315626897291, 23762.005419970206, 17083.974729058114, 0.096, 0.996, 0.098, 192.0, 0.0, 0.0, 0.0, 0.0, 0.0, 0.0, 0.0, 0.0, 0.0, 1.687803167756689E9, 0.0, 2023-06-26 13:12:47.756
119.0, 48081.217477466766, 54458.93012987735, 58995.239018826374, 587.7614721967545, -3743.470161374827, -6243.088095556271, 23745.822756984566, 17034.107987178326, 0.096, 0.996, 0.098, 192.0, 0.0, 0.0, 0.0, 0.0, 0.0, 0.0, 0.0, 0.0, 0.0, 1.6878031677616942E9, 0.0, 2023-06-26 13:12:47.761
120.0, 48033.65296526587, 54415.120710744945, 60791.4475549993, 511.4302648818809, -3791.2134875313627, -6348.58832938532, 23688.177608034326, 16962.984736321538, 0.096, 0.996, 0.098, 192.0, 0.0, 0.0, 0.0, 0.0, 0.0, 0.0, 0.0, 0.0, 0.0, 1.687803167765728E9, 0.0, 2023-06-26 13:12:47.765
121.0, 48047.287529383604, 54419.97103929175, 60931.2800683117, 535.2795762156935, -3812.335886041628, -6313.719608035041, 23687.909387100863, 16979.03328884045, 0.114, 1.002, 0.106, 192.0, 3.0, 144.0, 31.0, 80.0, 3.0, 80.0, 0.0, 0.0, 0.0, 1.6878031677697363E9, 0.0, 2023-06-26 13:12:47.769
122.0, 48091.43222468284, 54457.74548742122, 58416.261782200556, 594.9140304224528, -3760.45748716086, -6258.28728178588, 23734.155146378893, 17047.51903385151, 0.114, 1.002, 0.106, 192.0, 0.0, 0.0, 0.0, 0.0, 0.0, 0.0, 0.0, 0.0, 0.0, 1.6878031677729003E9, 0.0, 2023-06-26 13:12:47.772
123.0, 48059.51393360066, 54433.449141198296, 58747.827559450576, 539.2581867287382, -3802.143490570008, -6313.786663268407, 23735.295085346115, 17027.737740008564, 0.114, 1.002, 0.106, 192.0, 0.0, 0.0, 0.0, 0.0, 0.0, 0.0, 0.0, 0.0, 0.0, 1.6878031677767615E9, 0.0, 2023-06-26 13:12:47.776
124.0, 48026.14277912889, 54412.50555664368, 60420.63211448576, 463.7316422142556, -3810.4359877629267, -6361.865265591773, 23689.898692357387, 16964.348192733312, 0.114, 1.002, 0.106, 192.0, 0.0, 0.0, 0.0, 0.0, 0.0, 0.0, 0.0, 0.0, 0.0, 1.6878031677797723E9, 0.0, 2023-06-26 13:12:47.779
125.0, 48006.763816686136, 54377.301559126565, 61154.104608786656, 443.9950518602195, -3821.701266968402, -6379.210219289091, 23645.038741235585, 16934.888593541218, 0.114, 1.002, 0.106, 192.0, 0.0, 0.0, 0.0, 0.0, 0.0, 0.0, 0.0, 0.0, 0.0, 1.6878031677837868E9, 0.0, 2023-06-26 13:12:47.783
126.0, 48066.33121565953, 54436.86895809996, 58714.36699800098, 567.1308120645061, -3769.7334611098127, -6247.5584444473325, 23717.614855481967, 17030.26348713201, 0.114, 1.002, 0.106, 192.0, 0.0, 0.0, 0.0, 0.0, 0.0, 0.0, 0.0, 0.0, 0.0, 1.6878031677878437E9, 0.0, 2023-06-26 13:12:47.787
127.0, 48042.973642703735, 54418.2946584576, 58572.05344105404, 492.9677239617973, -3820.695438467913, -6336.853663546284, 23717.301931059592, 17015.22076311359, 0.114, 1.002, 0.106, 192.0, 0.0, 0.0, 0.0, 0.0, 0.0, 0.0, 0.0, 0.0, 0.0, 1.6878031677918513E9, 0.0, 2023-06-26 13:12:47.791
128.0, 48035.977546689224, 54416.01478052316, 60141.1459018166, 474.4828312972583, -3795.37091200005, -6417.543461029943, 23708.182419321827, 16970.181998036147, 0.114, 1.002, 0.106, 192.0, 0.0, 0.0, 0.0, 0.0, 0.0, 0.0, 0.0, 0.0, 0.0, 1.6878031677958682E9, 0.0, 2023-06-26 13:12:47.795
129.0, 47981.55104894055, 54372.987672446696, 61276.07807827927, 430.31578425357156, -3910.7729686228004, -6341.391067670712, 23656.81811056353, 16928.048959737895, 0.114, 1.002, 0.106, 192.0, 0.0, 0.0, 0.0, 0.0, 0.0, 0.0, 0.0, 0.0, 0.0, 1.6878031677998676E9, 0.0, 2023-06-26 13:12:47.799
130.0, 48087.27480021415, 54459.377164766454, 59089.02693856084, 577.9937598697853, -3853.1278196725634, -6302.3872735962, 23717.056061870582, 17013.678492746174, 0.114, 1.002, 0.106, 192.0, 0.0, 0.0, 0.0, 0.0, 0.0, 0.0, 0.0, 0.0, 0.0, 1.6878031678028846E9, 0.0, 2023-06-26 13:12:47.802
131.0, 48059.02219522264, 54440.04290581261, 58398.916828503236, 560.7382131502883, -3724.2029576543523, -6334.573785611843, 23757.7585885237, 17054.71629556612, 0.114, 0.992, 0.10400000000000001, 192.0, 3.0, 144.0, 31.0, 0.0, 3.0, 64.0, 0.0, 0.0, 0.0, 1.6878031678069162E9, 0.0, 2023-06-26 13:12:47.806
132.0, 48048.80744800657, 54423.323800960046, 59847.89101456297, 439.4129442468815, -3739.1339229504974, -6330.818692543351, 23689.630471423923, 16940.811805821875, 0.114, 0.992, 0.10400000000000001, 192.0, 0.0, 0.0, 0.0, 0.0, 0.0, 0.0, 0.0, 0.0, 0.0, 1.6878031678119335E9, 0.0, 2023-06-26 13:12:47.811
133.0, 48029.339078585996, 54407.69993158578, 61289.89145635265, 488.6761890263783, -3801.94232486991, -6328.427055886634, 23682.34380273149, 16948.21023323658, 0.114, 0.992, 0.10400000000000001, 192.0, 0.0, 0.0, 0.0, 0.0, 0.0, 0.0, 0.0, 0.0, 0.0, 1.6878031678159595E9, 0.0, 2023-06-26 13:12:47.815
134.0, 48081.843326311515, 54451.352888507, 59571.444639139736, 605.6875712499108, -3806.166804571963, -6222.032752279371, 23715.60319848099, 17009.006978155016, 0.114, 0.992, 0.10400000000000001, 192.0, 0.0, 0.0, 0.0, 0.0, 0.0, 0.0, 0.0, 0.0, 0.0, 1.68780316781997E9, 0.0, 2023-06-26 13:12:47.819
135.0, 48085.93369554683, 54464.07103110207, 58275.08816422083, 595.7410449672991, -3737.703411305358, -6275.319311060824, 23742.335884849537, 17042.199318671148, 0.114, 0.992, 0.10400000000000001, 192.0, 0.0, 0.0, 0.0, 0.0, 0.0, 0.0, 0.0, 0.0, 0.0, 1.6878031678240087E9, 0.0, 2023-06-26 13:12:47.824
136.0, 48052.540189330604, 54427.68239112883, 59588.767241092595, 514.9171370169088, -3772.9968158002875, -6317.832329014818, 23690.256320268672, 16973.713573660087, 0.114, 0.992, 0.10400000000000001, 192.0, 0.0, 0.0, 0.0, 0.0, 0.0, 0.0, 0.0, 0.0, 0.0, 1.6878031678270216E9, 0.0, 2023-06-26 13:12:47.827
137.0, 47990.44704323376, 54355.977994916204, 61133.898631799064, 365.8980567333766, -3795.7732434002455, -6370.850666862806, 23672.665497382342, 16933.771006318453, 0.114, 0.992, 0.10400000000000001, 192.0, 0.0, 0.0, 0.0, 0.0, 0.0, 0.0, 0.0, 0.0, 0.0, 1.6878031678310153E9, 0.0, 2023-06-26 13:12:47.831
138.0, 48042.683070025814, 54413.15375723288, 59986.96356856389, 457.9648921447864, -3826.618650748569, -6340.765218825963, 23672.799607849076, 16948.746675103506, 0.114, 0.992, 0.10400000000000001, 192.0, 0.0, 0.0, 0.0, 0.0, 0.0, 0.0, 0.0, 0.0, 0.0, 1.687803167835033E9, 0.0, 2023-06-26 13:12:47.835
139.0, 48108.531309191145, 54492.50245004922, 58200.925076118125, 655.6884235964327, -3733.233062414296, -6194.696568810531, 23795.98007154227, 17088.512133182543, 0.114, 0.992, 0.10400000000000001, 192.0, 0.0, 0.0, 0.0, 0.0, 0.0, 0.0, 0.0, 0.0, 0.0, 1.6878031678390832E9, 0.0, 2023-06-26 13:12:47.839
140.0, 48046.818142750046, 54417.378236934936, 59337.019543292474, 478.39438657693705, -3791.9510950983877, -6348.54362589641, 23721.660521228376, 16980.374393507765, 0.114, 0.992, 0.10400000000000001, 192.0, 0.0, 0.0, 0.0, 0.0, 0.0, 0.0, 0.0, 0.0, 0.0, 1.6878031678451152E9, 0.0, 2023-06-26 13:12:47.845
141.0, 47969.68227263478, 54315.05195081854, 60895.025538805196, 430.0922668090185, -3855.720622029379, -6439.850501996339, 23651.96778201673, 16913.788546775406, 0.1, 0.982, 0.1, 192.0, 3.0, 32.0, 30.0, 176.0, 3.0, 32.0, 0.0, 0.0, 0.0, 1.6878031678492122E9, 0.0, 2023-06-26 13:12:47.849
142.0, 47997.107863081445, 54351.21707334722, 60403.085995088346, 411.36150495547116, -3919.4677972159147, -6431.55800480342, 23620.787098501576, 16908.893514739695, 0.1, 0.982, 0.1, 192.0, 0.0, 0.0, 0.0, 0.0, 0.0, 0.0, 0.0, 0.0, 0.0, 1.6878031678521867E9, 0.0, 2023-06-26 13:12:47.852
143.0, 48042.43720083681, 54434.87965284344, 58173.27596822691, 455.34973804351546, -3827.557424015692, -6356.076163777848, 23717.88307641543, 17001.161515851203, 0.1, 0.982, 0.1, 192.0, 0.0, 0.0, 0.0, 0.0, 0.0, 0.0, 0.0, 0.0, 0.0, 1.6878031678582003E9, 0.0, 2023-06-26 13:12:47.858
144.0, 48019.43725579229, 54391.02553022213, 59065.490551649404, 490.15140416042857, -3785.580847928625, -6300.755596250963, 23718.330111304538, 16964.325840988855, 0.1, 0.982, 0.1, 192.0, 0.0, 0.0, 0.0, 0.0, 0.0, 0.0, 0.0, 0.0, 0.0, 1.6878031678611941E9, 0.0, 2023-06-26 13:12:47.861
145.0, 48061.10090745699, 54429.91756557436, 60639.54509968103, 496.05226469662966, -3717.542137806671, -6307.3717126097345, 23725.057986385586, 16962.001259565506, 0.1, 0.982, 0.1, 192.0, 0.0, 0.0, 0.0, 0.0, 0.0, 0.0, 0.0, 0.0, 0.0, 1.6878031678652043E9, 0.0, 2023-06-26 13:12:47.865
146.0, 48007.389665530885, 54341.4270092758, 60750.029772523616, 406.6452868754014, -3847.875159725566, -6307.908154476661, 23650.87254653842, 16916.135479943216, 0.1, 0.982, 0.1, 192.0, 0.0, 0.0, 0.0, 0.0, 0.0, 0.0, 0.0, 0.0, 0.0, 1.6878031678682015E9, 0.0, 2023-06-26 13:12:47.868
147.0, 48123.68579193184, 54507.99220895675, 58294.80240283041, 630.1403796840167, -3683.992169379255, -6210.8121765628075, 23788.13460923846, 17065.646298604763, 0.1, 0.982, 0.1, 192.0, 0.0, 0.0, 0.0, 0.0, 0.0, 0.0, 0.0, 0.0, 0.0, 1.687803167872218E9, 0.0, 2023-06-26 13:12:47.872
148.0, 48069.460459883274, 54472.452935272806, 58766.066582926105, 598.2220886018382, -3700.9347916763777, -6278.605017495754, 23794.348394197037, 17041.975801226592, 0.1, 0.982, 0.1, 192.0, 0.0, 0.0, 0.0, 0.0, 0.0, 0.0, 0.0, 0.0, 0.0, 1.6878031678762476E9, 0.0, 2023-06-26 13:12:47.876
149.0, 47971.20219125774, 54365.65630026535, 60258.20198752904, 430.00285983119727, -3811.1288918410414, -6365.1286202822475, 23677.02408755113, 16918.3930061332, 0.1, 0.982, 0.1, 192.0, 0.0, 0.0, 0.0, 0.0, 0.0, 0.0, 0.0, 0.0, 0.0, 1.6878031678792703E9, 0.0, 2023-06-26 13:12:47.879
150.0, 47998.60542995995, 54377.32391087102, 60932.285896812195, 435.72490641175585, -3797.270810278751, -6405.853498679817, 23670.564433403546, 16917.83421252182, 0.1, 0.982, 0.1, 192.0, 0.0, 0.0, 0.0, 0.0, 0.0, 0.0, 0.0, 0.0, 0.0, 1.6878031678832912E9, 0.0, 2023-06-26 13:12:47.883
151.0, 48088.839422326026, 54441.31695524657, 58478.24316957512, 522.5390818761686, -3808.044351106209, -6318.368770881745, 23741.441815071325, 17011.59978051183, 0.08, 0.982, 0.10400000000000001, 192.0, 2.0, 128.0, 30.0, 176.0, 3.0, 64.0, 0.0, 0.0, 0.0, 1.6878031678873131E9, 0.0, 2023-06-26 13:12:47.887
152.0, 48093.48858517272, 54479.381976053955, 58489.9554836697, 554.457372958347, -3751.628548101014, -6239.802389121341, 23788.089905749548, 17039.56181282542, 0.08, 0.982, 0.10400000000000001, 192.0, 0.0, 0.0, 0.0, 0.0, 0.0, 0.0, 0.0, 0.0, 0.0, 1.6878031678913367E9, 0.0, 2023-06-26 13:12:47.891
153.0, 48024.19817736127, 54380.877838239416, 59939.57787031864, 457.80842993359926, -3813.7440459423124, -6320.648648816186, 23700.247550040192, 16921.656360823676, 0.08, 0.982, 0.10400000000000001, 192.0, 0.0, 0.0, 0.0, 0.0, 0.0, 0.0, 0.0, 0.0, 0.0, 1.6878031678953311E9, 0.0, 2023-06-26 13:12:47.895
154.0, 48062.77728829114, 54424.30727771608, 61038.94842135292, 483.8929157129426, -3833.659450251991, -6320.8721662607395, 23709.724689689243, 16938.286058698424, 0.08, 0.982, 0.10400000000000001, 192.0, 0.0, 0.0, 0.0, 0.0, 0.0, 0.0, 0.0, 0.0, 0.0, 1.6878031678993785E9, 0.0, 2023-06-26 13:12:47.899
155.0, 48116.46617847278, 54457.81254265458, 58875.85835169058, 512.6372590824675, -3648.34113697304, -6240.51764494391, 23768.599184584524, 17023.289742861958, 0.08, 0.982, 0.10400000000000001, 192.0, 0.0, 0.0, 0.0, 0.0, 0.0, 0.0, 0.0, 0.0, 0.0, 1.6878031679045172E9, 0.0, 2023-06-26 13:12:47.904
156.0, 48041.498427569684, 54429.872862085445, 58207.87646864373, 528.6411081124674, -3726.728704777802, -6306.634105042709, 23752.84120474353, 16996.713518704597, 0.08, 0.982, 0.10400000000000001, 192.0, 0.0, 0.0, 0.0, 0.0, 0.0, 0.0, 0.0, 0.0, 0.0, 1.6878031679073956E9, 0.0, 2023-06-26 13:12:47.907
157.0, 48007.18849983079, 54386.35401563097, 59624.46297698772, 422.4703219497588, -3823.0870751246307, -6392.844783406828, 23664.6859246118, 16898.72347101253, 0.08, 0.982, 0.10400000000000001, 192.0, 0.0, 0.0, 0.0, 0.0, 0.0, 0.0, 0.0, 0.0, 0.0, 1.6878031679114125E9, 0.0, 2023-06-26 13:12:47.911
158.0, 48034.74820074418, 54379.64849229437, 60999.117612733564, 470.41481380639243, -3744.230120686307, -6312.15498592317, 23718.240704326716, 16942.01880002246, 0.08, 0.982, 0.10400000000000001, 192.0, 0.0, 0.0, 0.0, 0.0, 0.0, 0.0, 0.0, 0.0, 0.0, 1.6878031679174633E9, 0.0, 2023-06-26 13:12:47.917
159.0, 48094.829689840044, 54463.66869970187, 59312.007941246986, 588.0520448746735, -3741.592614840581, -6280.326101818812, 23751.008361698194, 16982.050774341915, 0.08, 0.982, 0.10400000000000001, 192.0, 0.0, 0.0, 0.0, 0.0, 0.0, 0.0, 0.0, 0.0, 0.0, 1.687803167920454E9, 0.0, 2023-06-26 13:12:47.920
160.0, 47996.772586914616, 54409.48807114221, 58041.98182129644, 538.9676140508192, -3798.65661843498, -6318.257012159469, 23763.95002173782, 16992.421983769178, 0.08, 0.982, 0.10400000000000001, 192.0, 0.0, 0.0, 0.0, 0.0, 0.0, 0.0, 0.0, 0.0, 0.0, 1.687803167924482E9, 0.0, 2023-06-26 13:12:47.924
161.0, 48076.389500664416, 54461.120600833965, 59410.6238377838, 482.9317907013644, -3671.8104686511124, -6292.820726969329, 23768.822702029076, 16961.800093865408, 0.08, 0.982, 0.10400000000000001, 192.0, 0.0, 0.0, 0.0, 0.0, 0.0, 0.0, 0.0, 0.0, 0.0, 1.6878031679295108E9, 0.0, 2023-06-26 13:12:47.929
162.0, 48118.09785581802, 54441.763990135674, 60902.066338308614, 474.66164525290077, -3728.583899567592, -6289.333854834302, 23740.391283081924, 16954.6028321508, 0.042, 0.978, 0.10400000000000001, 192.0, 1.0, 80.0, 30.0, 144.0, 3.0, 64.0, 0.0, 0.0, 0.0, 1.6878031679345405E9, 0.0, 2023-06-26 13:12:47.934
163.0, 48056.27293065464, 54392.72426280073, 59800.661778528905, 496.36518911900396, -3791.3475979980944, -6303.638971285698, 23715.111460102973, 16952.501768172, 0.042, 0.978, 0.10400000000000001, 192.0, 0.0, 0.0, 0.0, 0.0, 0.0, 0.0, 0.0, 0.0, 0.0, 1.6878031679375515E9, 0.0, 2023-06-26 13:12:47.937
164.0, 48036.71515425625, 54420.68629511432, 58034.80691132628, 478.3049795991158, -3708.9143644469223, -6288.395081567179, 23777.13755096645, 17010.102213633327, 0.042, 0.978, 0.10400000000000001, 192.0, 0.0, 0.0, 0.0, 0.0, 0.0, 0.0, 0.0, 0.0, 0.0, 1.6878031679405715E9, 0.0, 2023-06-26 13:12:47.940
165.0, 48112.465216215285, 54467.490848003734, 59269.696088993085, 496.05226469662966, -3700.3536463205396, -6314.971305724538, 23771.54961485262, 16962.537701432433, 0.042, 0.978, 0.10400000000000001, 192.0, 0.0, 0.0, 0.0, 0.0, 0.0, 0.0, 0.0, 0.0, 0.0, 1.687803167943588E9, 0.0, 2023-06-26 13:12:47.943
166.0, 47951.175028225785, 54321.46690147721, 60759.01517379465, 469.7442614727332, -3772.9968158002875, -6369.844838362317, 23718.419518282357, 16891.168581386635, 0.042, 0.978, 0.10400000000000001, 192.0, 0.0, 0.0, 0.0, 0.0, 0.0, 0.0, 0.0, 0.0, 0.0, 1.6878031679496057E9, 0.0, 2023-06-26 13:12:47.949
167.0, 48022.767665716136, 54414.852489811485, 60333.572069832335, 526.2271197112942, -3954.8282569442104, -6313.25022140148, 23682.20969226476, 16877.5340172689, 0.042, 0.978, 0.10400000000000001, 192.0, 0.0, 0.0, 0.0, 0.0, 0.0, 0.0, 0.0, 0.0, 0.0, 1.6878031679526343E9, 0.0, 2023-06-26 13:12:47.952
168.0, 48188.1258711965, 54533.36143891352, 58187.7375468895, 649.5640456156785, -3566.5784557555266, -6190.762661786397, 23835.073272594604, 17063.52288288151, 0.042, 0.978, 0.10400000000000001, 192.0, 0.0, 0.0, 0.0, 0.0, 0.0, 0.0, 0.0, 0.0, 0.0, 1.68780316795665E9, 0.0, 2023-06-26 13:12:47.956
169.0, 48150.23966434475, 54458.058411843595, 59169.604977322226, 566.9519981088637, -3572.635778502915, -6227.620688393198, 23806.843019347554, 17018.908800948717, 0.042, 0.978, 0.10400000000000001, 192.0, 0.0, 0.0, 0.0, 0.0, 0.0, 0.0, 0.0, 0.0, 0.0, 1.687803167959659E9, 0.0, 2023-06-26 13:12:47.959
170.0, 47949.34218518045, 54326.13841606837, 60612.655951101304, 439.18942680232846, -3739.044515972676, -6327.4435791306, 23696.671270927345, 16892.934369198607, 0.042, 0.978, 0.10400000000000001, 192.0, 0.0, 0.0, 0.0, 0.0, 0.0, 0.0, 0.0, 0.0, 0.0, 1.687803167963683E9, 0.0, 2023-06-26 13:12:47.963
171.0, 47937.138132707856, 54368.47262006672, 60813.911058176884, 407.53935665361365, -3863.744898288834, -6383.010015846493, 23624.564543314522, 16841.212432529024, 0.042, 0.978, 0.10400000000000001, 192.0, 0.0, 0.0, 0.0, 0.0, 0.0, 0.0, 0.0, 0.0, 0.0, 1.6878031679677079E9, 0.0, 2023-06-26 13:12:47.967
172.0, 48141.16485609589, 54492.18952562685, 58429.873994573834, 504.0541892116296, -3681.712291444813, -6267.406793523645, 23761.111350191994, 16985.26942554348, 0.032, 0.976, 0.106, 192.0, 1.0, 0.0, 30.0, 128.0, 3.0, 80.0, 0.0, 0.0, 0.0, 1.6878031679717135E9, 0.0, 2023-06-26 13:12:47.971
173.0, 48099.61296315348, 54473.19054283983, 59029.86187098764, 554.5467799361683, -3680.8629251555117, -6210.096920740238, 23797.924673309884, 17006.011844398003, 0.032, 0.976, 0.106, 192.0, 0.0, 0.0, 0.0, 0.0, 0.0, 0.0, 0.0, 0.0, 0.0, 1.6878031679757316E9, 0.0, 2023-06-26 13:12:47.975
174.0, 48006.13796784139, 54419.188728235815, 60470.65531857673, 487.4021395924258, -3743.894844519478, -6363.452239448099, 23709.903503644884, 16884.641872005686, 0.032, 0.976, 0.106, 192.0, 0.0, 0.0, 0.0, 0.0, 0.0, 0.0, 0.0, 0.0, 0.0, 1.6878031679797716E9, 0.0, 2023-06-26 13:12:47.979
175.0, 48111.77231213717, 54439.1488360344, 61223.90910672058, 529.3563639350372, -3703.7734632222014, -6318.078198203826, 23720.297064816605, 16899.706947768565, 0.032, 0.976, 0.106, 192.0, 0.0, 0.0, 0.0, 0.0, 0.0, 0.0, 0.0, 0.0, 0.0, 1.687803167982782E9, 0.0, 2023-06-26 13:12:47.982
176.0, 48018.632592991904, 54382.44246035129, 58810.323036947615, 521.6673638424115, -3786.430214217927, -6308.15402366567, 23688.624642923434, 16913.72149154204, 0.032, 0.976, 0.106, 192.0, 0.0, 0.0, 0.0, 0.0, 0.0, 0.0, 0.0, 0.0, 0.0, 1.6878031679867887E9, 0.0, 2023-06-26 13:12:47.986
177.0, 48090.89578281591, 54386.24225690869, 58871.008023143775, 560.7605648947435, -3700.666570742914, -6318.659343559664, 23772.711905564298, 16968.21504452408, 0.032, 0.976, 0.106, 192.0, 0.0, 0.0, 0.0, 0.0, 0.0, 0.0, 0.0, 0.0, 0.0, 1.6878031679918103E9, 0.0, 2023-06-26 13:12:47.991
178.0, 48106.47494870126, 54455.08562983103, 60303.01723516193, 521.5332533756797, -3737.5245973497153, -6331.06456173236, 23722.84516368451, 16893.068479665337, 0.032, 0.976, 0.106, 192.0, 0.0, 0.0, 0.0, 0.0, 0.0, 0.0, 0.0, 0.0, 0.0, 1.6878031679958394E9, 0.0, 2023-06-26 13:12:47.995
179.0, 48029.339078585996, 54402.64843733889, 61343.915622701126, 481.7247965007778, -3821.1871768459296, -6313.339628379301, 23699.129962817427, 16889.782773230407, 0.032, 0.976, 0.106, 192.0, 0.0, 0.0, 0.0, 0.0, 0.0, 0.0, 0.0, 0.0, 0.0, 1.6878031680008552E9, 0.0, 2023-06-26 13:12:48.000
180.0, 48118.29902151812, 54508.64040954595, 59233.419207742125, 542.9909280527745, -3664.501448214227, -6274.715813960531, 23763.413579870892, 16976.865169628283, 0.032, 0.976, 0.106, 192.0, 0.0, 0.0, 0.0, 0.0, 0.0, 0.0, 0.0, 0.0, 0.0, 1.687803168004894E9, 0.0, 2023-06-26 13:12:48.004
181.0, 48055.490619598706, 54454.549187964105, 58626.90462194737, 490.5984390495347, -3729.9026524904557, -6270.938369147583, 23741.97825693825, 16959.251994997503, 0.032, 0.976, 0.106, 192.0, 0.0, 0.0, 0.0, 0.0, 0.0, 0.0, 0.0, 0.0, 0.0, 1.6878031680079033E9, 0.0, 2023-06-26 13:12:48.007
182.0, 48041.38666884741, 54435.90783308838, 60017.18312706747, 538.6993931173555, -3711.976553437299, -6291.256104857458, 23723.426309040347, 16909.474660095533, 0.022, 0.974, 0.11, 192.0, 0.0, 176.0, 30.0, 112.0, 3.0, 112.0, 0.0, 0.0, 0.0, 1.6878031680109148E9, 0.0, 2023-06-26 13:12:48.010
183.0, 48221.519377412726, 54551.578110644594, 61356.61141355174, 681.7505576313207, -3615.7522935572024, -6220.7363511009635, 23789.00632727222, 16990.857361657305, 0.022, 0.974, 0.11, 192.0, 0.0, 0.0, 0.0, 0.0, 0.0, 0.0, 0.0, 0.0, 0.0, 1.687803168016932E9, 0.0, 2023-06-26 13:12:48.016
184.0, 48233.56696767414, 54575.293311511676, 59673.39094560039, 667.0878132686393, -3625.5870611175374, -6190.449737364022, 23781.42908590187, 17002.972007152082, 0.022, 0.974, 0.11, 192.0, 0.0, 0.0, 0.0, 0.0, 0.0, 0.0, 0.0, 0.0, 0.0, 1.6878031680239675E9, 0.0, 2023-06-26 13:12:48.023
185.0, 48107.68194290184, 54478.44320278683, 58410.53973562, 527.3447069340596, -3658.2876632556518, -6250.754743904441, 23800.606882644523, 17015.153707880225, 0.022, 0.974, 0.11, 192.0, 0.0, 0.0, 0.0, 0.0, 0.0, 0.0, 0.0, 0.0, 0.0, 1.6878031680269856E9, 0.0, 2023-06-26 13:12:48.026
186.0, 47982.89215360787, 54373.54646605808, 59724.174109002844, 468.87254343897627, -3800.176537057941, -6344.363849683267, 23685.271881255136, 16873.86833117823, 0.022, 0.974, 0.11, 192.0, 0.0, 0.0, 0.0, 0.0, 0.0, 0.0, 0.0, 0.0, 0.0, 1.6878031680300028E9, 0.0, 2023-06-26 13:12:48.030
187.0, 48046.236997394204, 54375.692233525784, 61079.13685788356, 511.56437534861277, -3743.0901817190866, -6324.58255584032, 23701.07456458504, 16883.09960163827, 0.022, 0.974, 0.11, 192.0, 0.0, 0.0, 0.0, 0.0, 0.0, 0.0, 0.0, 0.0, 0.0, 1.6878031680340164E9, 0.0, 2023-06-26 13:12:48.034
188.0, 48014.69868596777, 54369.45609682275, 59967.56225437669, 478.68495925485604, -3818.728484955846, -6362.692280136619, 23646.089273224985, 16856.00928735844, 0.022, 0.974, 0.11, 192.0, 0.0, 0.0, 0.0, 0.0, 0.0, 0.0, 0.0, 0.0, 0.0, 1.6878031680370328E9, 0.0, 2023-06-26 13:12:48.037
189.0, 48178.84989724754, 54561.032898549194, 58226.33900956381, 604.5699840271454, -3720.3137541191286, -6253.504008472444, 23776.22112944378, 16997.518181504987, 0.022, 0.974, 0.11, 192.0, 0.0, 0.0, 0.0, 0.0, 0.0, 0.0, 0.0, 0.0, 0.0, 1.687803168040038E9, 0.0, 2023-06-26 13:12:48.040
190.0, 48045.65585203837, 54438.25476625619, 59410.6238377838, 490.35256986052633, -3762.469144161838, -6311.976171967527, 23733.26107660068, 16928.2948289269, 0.022, 0.974, 0.11, 192.0, 0.0, 0.0, 0.0, 0.0, 0.0, 0.0, 0.0, 0.0, 0.0, 1.6878031680441017E9, 0.0, 2023-06-26 13:12:48.044
191.0, 48030.97075593123, 54382.08483244, 60728.437987379795, 433.08740056602966, -3794.8344701331225, -6357.841951589818, 23652.414816905835, 16843.581717441288, 0.022, 0.974, 0.11, 192.0, 0.0, 0.0, 0.0, 0.0, 0.0, 0.0, 0.0, 0.0, 0.0, 1.6878031680470798E9, 0.0, 2023-06-26 13:12:48.047
192.0, 48243.200569534376, 54588.10086108457, 60344.54677635989, 630.7662285287653, -3671.63165469547, -6265.976281878506, 23811.827458361087, 16998.45695477211, 0.03, 0.968, 0.112, 192.0, 0.0, 240.0, 30.0, 64.0, 3.0, 128.0, 0.0, 0.0, 0.0, 1.6878031680511012E9, 0.0, 2023-06-26 13:12:48.051
193.0, 48161.616702272506, 54527.41587488841, 58136.73086604248, 597.8644606905533, -3669.642349438948, -6242.350487989246, 23801.299786722637, 17009.006978155016, 0.03, 0.968, 0.112, 192.0, 0.0, 0.0, 0.0, 0.0, 0.0, 0.0, 0.0, 0.0, 0.0, 1.6878031680562065E9, 0.0, 2023-06-26 13:12:48.056
194.0, 48008.5296044981, 54408.52694613063, 59099.5993136882, 455.30503455460484, -3761.9997575282764, -6277.800354695363, 23675.79474160609, 16881.42322080412, 0.03, 0.968, 0.112, 192.0, 0.0, 0.0, 0.0, 0.0, 0.0, 0.0, 0.0, 0.0, 0.0, 1.6878031680591884E9, 0.0, 2023-06-26 13:12:48.059
195.0, 48051.981395719224, 54423.05558002658, 60441.307478106915, 523.9695935213082, -3735.3117746486396, -6312.15498592317, 23668.619831635933, 16857.506854236944, 0.03, 0.968, 0.112, 192.0, 0.0, 0.0, 0.0, 0.0, 0.0, 0.0, 0.0, 0.0, 0.0, 1.6878031680631773E9, 0.0, 2023-06-26 13:12:48.063
196.0, 48063.716061558254, 54441.51812094666, 60634.247736245125, 577.2114488138496, -3743.0678299746314, -6277.420375039623, 23693.743192403697, 16897.24825587848, 0.03, 0.968, 0.112, 192.0, 0.0, 0.0, 0.0, 0.0, 0.0, 0.0, 0.0, 0.0, 0.0, 1.6878031680671828E9, 0.0, 2023-06-26 13:12:48.067
197.0, 48156.38639406996, 54549.52175015471, 58250.23302438653, 556.5137334482353, -3677.376053020484, -6234.125046029693, 23765.3581816385, 16984.17419006517, 0.03, 0.968, 0.112, 192.0, 0.0, 0.0, 0.0, 0.0, 0.0, 0.0, 0.0, 0.0, 0.0, 1.6878031680713043E9, 0.0, 2023-06-26 13:12:48.071
198.0, 48202.006304503244, 54579.94247435838, 58944.52291065728, 566.4602597308469, -3665.395517992439, -6302.655494529664, 23790.258024961713, 16981.916663875185, 0.03, 0.968, 0.112, 192.0, 0.0, 0.0, 0.0, 0.0, 0.0, 0.0, 0.0, 0.0, 0.0, 1.687803168075245E9, 0.0, 2023-06-26 13:12:48.075
199.0, 48198.54178411267, 54609.335018317106, 60293.584799001794, 591.1812890984165, -3622.9048517829006, -6226.346638959246, 23786.637042359955, 16967.20921602359, 0.03, 0.968, 0.112, 192.0, 0.0, 0.0, 0.0, 0.0, 0.0, 0.0, 0.0, 0.0, 0.0, 1.6878031680792413E9, 0.0, 2023-06-26 13:12:48.079
200.0, 48208.130682484, 54603.121233358535, 60986.22065618285, 686.355016989114, -3690.54123050466, -6263.942273133072, 23748.37085585247, 16945.01393377947, 0.03, 0.968, 0.112, 192.0, 0.0, 0.0, 0.0, 0.0, 0.0, 0.0, 0.0, 0.0, 0.0, 1.687803168084254E9, 0.0, 2023-06-26 13:12:48.084
201.0, 48124.065771587586, 54525.158348698424, 58601.289522801584, 608.3474288400923, -3717.519786062215, -6197.825813034274, 23741.911201704886, 16975.233492283045, 0.03, 0.968, 0.112, 192.0, 0.0, 0.0, 0.0, 0.0, 0.0, 0.0, 0.0, 0.0, 0.0, 1.6878031680872755E9, 0.0, 2023-06-26 13:12:48.087
202.0, 48048.9415584733, 54448.11188556098, 58762.75852474672, 559.8888468609866, -3773.2873884782066, -6321.050980216382, 23728.880134687442, 16948.232584981037, 0.03, 0.968, 0.112, 192.0, 0.0, 0.0, 0.0, 0.0, 0.0, 0.0, 0.0, 0.0, 0.0, 1.687803168090298E9, 0.0, 2023-06-26 13:12:48.090
203.0, 48021.62772674891, 54409.42101590884, 60079.79036328678, 445.9173018833759, -3873.6467210825354, -6396.0634346083925, 23628.789023016576, 16828.62840040069, 0.042, 0.98, 0.11, 192.0, 1.0, 80.0, 30.0, 160.0, 3.0, 112.0, 0.0, 0.0, 0.0, 1.687803168095294E9, 0.0, 2023-06-26 13:12:48.095
204.0, 48016.12919761291, 54411.142100231904, 61103.79083201777, 412.6132026449684, -3778.852972847578, -6354.578596899342, 23657.68982859729, 16844.498138963954, 0.042, 0.98, 0.11, 192.0, 0.0, 0.0, 0.0, 0.0, 0.0, 0.0, 0.0, 0.0, 0.0, 1.6878031681003468E9, 0.0, 2023-06-26 13:12:48.100
205.0, 48145.590501498045, 54516.17294742739, 59077.02405178834, 538.878207072998, -3688.9766083927884, -6274.827572682807, 23732.814041711576, 16941.348247688802, 0.042, 0.98, 0.11, 192.0, 0.0, 0.0, 0.0, 0.0, 0.0, 0.0, 0.0, 0.0, 0.0, 1.6878031681044016E9, 0.0, 2023-06-26 13:12:48.104
206.0, 48115.885033116945, 54511.30026713613, 58650.239843158706, 584.7886901841987, -3797.628438190036, -6234.728543129986, 23727.427271297845, 16955.183977506636, 0.042, 0.98, 0.11, 192.0, 0.0, 0.0, 0.0, 0.0, 0.0, 0.0, 0.0, 0.0, 0.0, 1.6878031681073976E9, 0.0, 2023-06-26 13:12:48.107
207.0, 48208.75653132874, 54613.33598057461, 60053.594118785164, 621.1773301574386, -3661.1263348014754, -6246.798485135852, 23786.033545259663, 16969.958480591595, 0.042, 0.98, 0.11, 192.0, 0.0, 0.0, 0.0, 0.0, 0.0, 0.0, 0.0, 0.0, 0.0, 1.6878031681124108E9, 0.0, 2023-06-26 13:12:48.112
208.0, 48218.0325052777, 54603.27769556972, 61235.44260685952, 645.8313042916423, -3647.089439283543, -6259.136648075181, 23776.958737010806, 16958.000297308005, 0.042, 0.98, 0.11, 192.0, 0.0, 0.0, 0.0, 0.0, 0.0, 0.0, 0.0, 0.0, 0.0, 1.6878031681154215E9, 0.0, 2023-06-26 13:12:48.115
209.0, 48169.708033765324, 54526.141825454455, 59631.481424746686, 597.4174258014472, -3664.5237999586825, -6229.677048883087, 23764.441760115835, 16982.877788886763, 0.042, 0.98, 0.11, 192.0, 0.0, 0.0, 0.0, 0.0, 0.0, 0.0, 0.0, 0.0, 0.0, 1.687803168118437E9, 0.0, 2023-06-26 13:12:48.118
210.0, 48123.43992274284, 54505.377054855475, 58637.70051451928, 622.294917380204, -3648.497599184227, -6170.042594676327, 23811.916865338906, 17041.014676215014, 0.042, 0.98, 0.11, 192.0, 0.0, 0.0, 0.0, 0.0, 0.0, 0.0, 0.0, 0.0, 0.0, 1.6878031681234362E9, 0.0, 2023-06-26 13:12:48.123
211.0, 48086.53719264713, 54496.05637741761, 60085.75827905635, 568.6283789430116, -3773.846182089589, -6336.607794357275, 23701.231026796228, 16899.371671601733, 0.042, 0.98, 0.11, 192.0, 0.0, 0.0, 0.0, 0.0, 0.0, 0.0, 0.0, 0.0, 0.0, 1.687803168127539E9, 0.0, 2023-06-26 13:12:48.127
212.0, 48116.39912323942, 54467.915531148385, 61225.11610092117, 539.6158146400231, -3799.170708557452, -6354.109210265781, 23679.751000374676, 16884.97714817252, 0.042, 0.98, 0.11, 192.0, 0.0, 0.0, 0.0, 0.0, 0.0, 0.0, 0.0, 0.0, 0.0, 1.687803168131498E9, 0.0, 2023-06-26 13:12:48.131
213.0, 48111.03470457014, 54477.30326381961, 60163.40823929408, 532.4185529254142, -3796.8461271341002, -6323.330858150824, 23664.238889722692, 16890.587436030797, 0.042, 0.99, 0.116, 192.0, 1.0, 80.0, 30.0, 240.0, 3.0, 160.0, 0.0, 0.0, 0.0, 1.687803168135488E9, 0.0, 2023-06-26 13:12:48.135
214.0, 48075.98716926422, 54466.32855729206, 58573.43924921027, 503.7189130448, -3821.1871768459296, -6271.117183103226, 23729.573038765557, 16945.3492099463, 0.042, 0.99, 0.116, 192.0, 0.0, 0.0, 0.0, 0.0, 0.0, 0.0, 0.0, 0.0, 0.0, 1.6878031681395185E9, 0.0, 2023-06-26 13:12:48.139
215.0, 48101.28934398763, 54465.56859798057, 60009.49412697484, 524.3272214325931, -3783.7927083722007, -6288.395081567179, 23726.35438756399, 16909.87699149573, 0.042, 0.99, 0.116, 192.0, 0.0, 0.0, 0.0, 0.0, 0.0, 0.0, 0.0, 0.0, 0.0, 1.6878031681435487E9, 0.0, 2023-06-26 13:12:48.143
216.0, 48093.645047383914, 54477.43737428634, 61061.14370359704, 503.92007874489775, -3715.172852894408, -6309.852756244273, 23667.055209524064, 16871.76726719943, 0.042, 0.99, 0.116, 192.0, 0.0, 0.0, 0.0, 0.0, 0.0, 0.0, 0.0, 0.0, 0.0, 1.6878031681465654E9, 0.0, 2023-06-26 13:12:48.146
217.0, 48153.212446357305, 54514.29540089314, 60620.38965468284, 579.5136784927462, -3709.048474913654, -6277.465078528533, 23700.493419229202, 16926.327875414834, 0.042, 0.99, 0.116, 192.0, 0.0, 0.0, 0.0, 0.0, 0.0, 0.0, 0.0, 0.0, 0.0, 1.6878031681505797E9, 0.0, 2023-06-26 13:12:48.150
218.0, 48191.88096426499, 54589.50902098525, 58594.47224074272, 690.870069369086, -3608.6220870759594, -6154.038745646328, 23815.671958407398, 17049.530690852487, 0.042, 0.99, 0.116, 192.0, 0.0, 0.0, 0.0, 0.0, 0.0, 0.0, 0.0, 0.0, 0.0, 1.6878031681555977E9, 0.0, 2023-06-26 13:12:48.155
219.0, 48164.81300172961, 54523.8172440311, 59876.74711665477, 521.3544394200372, -3699.7501492202464, -6319.218137171047, 23766.609879328, 16955.005163550995, 0.042, 0.99, 0.116, 192.0, 0.0, 0.0, 0.0, 0.0, 0.0, 0.0, 0.0, 0.0, 0.0, 1.687803168159881E9, 0.0, 2023-06-26 13:12:48.159
220.0, 48124.825730899065, 54492.234229115755, 60892.3209777261, 512.8831282714758, -3752.9249492794215, -6388.5532484714095, 23702.370965763446, 16891.637968020197, 0.042, 0.99, 0.116, 192.0, 0.0, 0.0, 0.0, 0.0, 0.0, 0.0, 0.0, 0.0, 0.0, 1.6878031681636474E9, 0.0, 2023-06-26 13:12:48.163
221.0, 48107.45842545729, 54483.226476100266, 60976.743516533796, 579.6030854705674, -3722.817149498123, -6230.682877383576, 23697.610044194465, 16913.16269793066, 0.042, 0.99, 0.116, 192.0, 0.0, 0.0, 0.0, 0.0, 0.0, 0.0, 0.0, 0.0, 0.0, 1.687803168167652E9, 0.0, 2023-06-26 13:12:48.167
222.0, 48023.393514560885, 54427.637687639915, 58637.02996218562, 545.136695520484, -3725.275841388207, -6199.882173524163, 23715.89377115891, 16947.606736136288, 0.042, 0.99, 0.116, 192.0, 0.0, 0.0, 0.0, 0.0, 0.0, 0.0, 0.0, 0.0, 0.0, 1.6878031681706576E9, 0.0, 2023-06-26 13:12:48.170
223.0, 48141.07544911808, 54551.08637226658, 59603.295874988544, 616.3046498661816, -3753.0590597461537, -6234.8179501078075, 23745.710998262286, 16955.16162576218, 0.036000000000000004, 0.986, 0.11800000000000001, 192.0, 1.0, 32.0, 30.0, 208.0, 3.0, 176.0, 0.0, 0.0, 0.0, 1.6878031681746795E9, 0.0, 2023-06-26 13:12:48.174
224.0, 48152.094859134544, 54534.45667439183, 60668.6694227063, 510.04445672565186, -3747.851103288067, -6292.999540924971, 23730.131832376937, 16913.63208456422, 0.036000000000000004, 0.986, 0.11800000000000001, 192.0, 0.0, 0.0, 0.0, 0.0, 0.0, 0.0, 0.0, 0.0, 0.0, 1.6878031681787083E9, 0.0, 2023-06-26 13:12:48.178
225.0, 48150.64199574495, 54510.5179560802, 61167.76152464885, 459.39540378992604, -3709.8307859695897, -6321.274497660935, 23702.21450355226, 16895.25895062196, 0.036000000000000004, 0.986, 0.11800000000000001, 192.0, 0.0, 0.0, 0.0, 0.0, 0.0, 0.0, 0.0, 0.0, 0.0, 1.6878031681827276E9, 0.0, 2023-06-26 13:12:48.182
226.0, 48207.01309526123, 54563.31277648363, 58862.93904339541, 565.230913785805, -3639.825122335568, -6240.763514132919, 23764.151187437918, 16978.362736506788, 0.036000000000000004, 0.986, 0.11800000000000001, 192.0, 0.0, 0.0, 0.0, 0.0, 0.0, 0.0, 0.0, 0.0, 0.0, 1.687803168187863E9, 0.0, 2023-06-26 13:12:48.187
227.0, 48180.92860948189, 54617.71692248785, 59320.72512158455, 707.7232846883875, -3708.02029466871, -6168.276806864358, 23808.76526937071, 17022.50743180602, 0.036000000000000004, 0.986, 0.11800000000000001, 192.0, 0.0, 0.0, 0.0, 0.0, 0.0, 0.0, 0.0, 0.0, 0.0, 1.6878031681917737E9, 0.0, 2023-06-26 13:12:48.191
228.0, 48109.89476560292, 54527.66174407742, 60505.25581899355, 566.5720184531234, -3791.4817084648266, -6283.745918720475, 23692.20092203628, 16897.360014600756, 0.036000000000000004, 0.986, 0.11800000000000001, 192.0, 0.0, 0.0, 0.0, 0.0, 0.0, 0.0, 0.0, 0.0, 0.0, 1.6878031681957812E9, 0.0, 2023-06-26 13:12:48.195
229.0, 48065.77242204815, 54446.21198728228, 61254.419237902075, 499.8744129984872, -3705.271030100707, -6305.9635527090495, 23687.842331867498, 16891.52620929792, 0.036000000000000004, 0.986, 0.11800000000000001, 192.0, 0.0, 0.0, 0.0, 0.0, 0.0, 0.0, 0.0, 0.0, 0.0, 1.6878031681998084E9, 0.0, 2023-06-26 13:12:48.199
230.0, 48047.22047415024, 54465.56859798057, 59178.00923323742, 488.5867820485571, -3738.1951496833744, -6332.226852444035, 23691.79859063609, 16919.622352078244, 0.036000000000000004, 0.986, 0.11800000000000001, 192.0, 0.0, 0.0, 0.0, 0.0, 0.0, 0.0, 0.0, 0.0, 0.0, 1.6878031682038188E9, 0.0, 2023-06-26 13:12:48.203
231.0, 48080.25635245519, 54491.49662154873, 59008.180678865996, 505.28353515667146, -3744.520693364226, -6275.162848849636, 23723.426309040347, 16955.563957162376, 0.036000000000000004, 0.986, 0.11800000000000001, 192.0, 0.0, 0.0, 0.0, 0.0, 0.0, 0.0, 0.0, 0.0, 0.0, 1.6878031682088397E9, 0.0, 2023-06-26 13:12:48.208
232.0, 48125.65274544391, 54531.50624412373, 60353.308660186376, 563.845105629576, -3738.9327572503994, -6292.396043824679, 23691.6421284249, 16887.25702610696, 0.036000000000000004, 0.986, 0.11800000000000001, 192.0, 0.0, 0.0, 0.0, 0.0, 0.0, 0.0, 0.0, 0.0, 0.0, 1.6878031682138755E9, 0.0, 2023-06-26 13:12:48.213
233.0, 48103.68098064435, 54463.46753400178, 61206.63120825663, 555.4184979699252, -3750.376850411517, -6324.8060732848735, 23676.77821836212, 16883.837209205296, 0.03, 0.986, 0.122, 192.0, 0.0, 240.0, 30.0, 208.0, 3.0, 208.0, 0.0, 0.0, 0.0, 1.6878031682179055E9, 0.0, 2023-06-26 13:12:48.217
234.0, 48138.79557118363, 54559.84825609306, 59605.531049434074, 575.1103848350507, -3776.5954466575918, -6247.692554914064, 23700.247550040192, 16929.63593359422, 0.03, 0.986, 0.122, 192.0, 0.0, 0.0, 0.0, 0.0, 0.0, 0.0, 0.0, 0.0, 0.0, 1.6878031682209263E9, 0.0, 2023-06-26 13:12:48.220
235.0, 48157.01224291471, 54560.65291889345, 58730.95199238682, 555.0161665697296, -3744.0289549862096, -6228.313592471313, 23764.84409151603, 16991.59496922433, 0.03, 0.986, 0.122, 192.0, 0.0, 0.0, 0.0, 0.0, 0.0, 0.0, 0.0, 0.0, 0.0, 1.6878031682249384E9, 0.0, 2023-06-26 13:12:48.224
236.0, 48142.68477471886, 54527.818206288604, 60180.86495171368, 527.7470383342551, -3660.0534510676207, -6298.7439392499855, 23716.094936859005, 16910.25697115147, 0.03, 0.986, 0.122, 192.0, 0.0, 0.0, 0.0, 0.0, 0.0, 0.0, 0.0, 0.0, 0.0, 1.6878031682289453E9, 0.0, 2023-06-26 13:12:48.228
237.0, 48150.03849864465, 54522.297325408144, 61087.60816903212, 564.6944719188776, -3717.273916873207, -6298.922753205628, 23683.662555654355, 16898.745822756984, 0.03, 0.986, 0.122, 192.0, 0.0, 0.0, 0.0, 0.0, 0.0, 0.0, 0.0, 0.0, 0.0, 1.687803168231957E9, 0.0, 2023-06-26 13:12:48.231
238.0, 48133.58761472555, 54536.33422092607, 60058.3773920986, 601.619553759045, -3712.3565330930396, -6256.700307929553, 23694.771372648644, 16932.87693654024, 0.03, 0.986, 0.122, 192.0, 0.0, 0.0, 0.0, 0.0, 0.0, 0.0, 0.0, 0.0, 0.0, 1.687803168234978E9, 0.0, 2023-06-26 13:12:48.234
239.0, 48108.754826635704, 54512.619020059, 58508.462728078695, 570.0588905881514, -3721.6101552975365, -6191.589676331244, 23726.98023640874, 16983.36952726478, 0.03, 0.986, 0.122, 192.0, 0.0, 0.0, 0.0, 0.0, 0.0, 0.0, 0.0, 0.0, 0.0, 1.6878031682389965E9, 0.0, 2023-06-26 13:12:48.238
240.0, 48027.39447681839, 54479.76195570969, 59983.49904817332, 473.61111326350135, -3731.981364724799, -6309.338666121801, 23683.237872509704, 16887.61465401824, 0.03, 0.986, 0.122, 192.0, 0.0, 0.0, 0.0, 0.0, 0.0, 0.0, 0.0, 0.0, 0.0, 1.687803168243013E9, 0.0, 2023-06-26 13:12:48.243
241.0, 48090.38169269344, 54493.62003727198, 60845.9634597258, 497.39336936394807, -3762.469144161838, -6350.711745108574, 23680.980346319717, 16883.032546404906, 0.03, 0.986, 0.122, 192.0, 0.0, 0.0, 0.0, 0.0, 0.0, 0.0, 0.0, 0.0, 0.0, 1.6878031682480788E9, 0.0, 2023-06-26 13:12:48.248
242.0, 48060.38565163442, 54422.38502769292, 60373.224064496055, 453.00280487570825, -3775.9248943239327, -6347.984832285027, 23663.411875177848, 16890.11804939724, 0.03, 0.986, 0.122, 192.0, 0.0, 0.0, 0.0, 0.0, 0.0, 0.0, 0.0, 0.0, 0.0, 1.6878031682520535E9, 0.0, 2023-06-26 13:12:48.252
243.0, 48232.292918240186, 54667.33779517863, 58428.063503272955, 722.0507528842394, -3638.4840176682496, -6134.9727076259505, 23778.545710867133, 17040.880565748284, 0.03, 0.986, 0.122, 192.0, 0.0, 0.0, 0.0, 0.0, 0.0, 0.0, 0.0, 0.0, 0.0, 1.6878031682560809E9, 0.0, 2023-06-26 13:12:48.256
244.0, 48146.95395790982, 54582.71409067084, 59763.51317924418, 629.358068628081, -3670.0670325835986, -6228.268888982402, 23747.342675607524, 16968.304451501903, 0.032, 0.984, 0.13, 192.0, 1.0, 0.0, 30.0, 192.0, 4.0, 16.0, 0.0, 0.0, 0.0, 1.6878031682600925E9, 0.0, 2023-06-26 13:12:48.260
245.0, 48104.70916088929, 54511.5684880696, 60636.05822754601, 510.8044160371323, -3738.463370616838, -6324.739018051508, 23675.59357590599, 16886.228845862013, 0.032, 0.984, 0.13, 192.0, 0.0, 0.0, 0.0, 0.0, 0.0, 0.0, 0.0, 0.0, 0.0, 1.687803168263198E9, 0.0, 2023-06-26 13:12:48.263
246.0, 48090.24758222671, 54477.43737428634, 60715.36221687344, 534.6090238820343, -3756.858856303556, -6296.173488637625, 23665.088256011994, 16884.753630727962, 0.032, 0.984, 0.13, 192.0, 0.0, 0.0, 0.0, 0.0, 0.0, 0.0, 0.0, 0.0, 0.0, 1.6878031682701905E9, 0.0, 2023-06-26 13:12:48.270
247.0, 48193.02090323221, 54568.52073294172, 58473.90693115079, 657.5212666417679, -3624.4918256392275, -6164.521713795867, 23764.911146749397, 17008.738757221552, 0.032, 0.984, 0.13, 192.0, 0.0, 0.0, 0.0, 0.0, 0.0, 0.0, 0.0, 0.0, 0.0, 1.6878031682731974E9, 0.0, 2023-06-26 13:12:48.273
248.0, 48116.175605794866, 54526.141825454455, 59500.96958887215, 514.8947852724535, -3708.1991086243524, -6274.425241282612, 23715.714957203265, 16941.594116877808, 0.032, 0.984, 0.13, 192.0, 0.0, 0.0, 0.0, 0.0, 0.0, 0.0, 0.0, 0.0, 0.0, 1.6878031682772E9, 0.0, 2023-06-26 13:12:48.277
249.0, 48067.11352671546, 54475.00103414071, 60456.86429224781, 445.9843571167418, -3765.084298263109, -6357.64078588972, 23654.381770417902, 16864.413543273633, 0.032, 0.984, 0.13, 192.0, 0.0, 0.0, 0.0, 0.0, 0.0, 0.0, 0.0, 0.0, 0.0, 1.6878031682812705E9, 0.0, 2023-06-26 13:12:48.281
250.0, 48031.39543907588, 54427.45887368428, 60900.971102830306, 446.8784268949541, -3784.239743261307, -6373.532876197443, 23627.24675264916, 16852.388304756678, 0.032, 0.984, 0.13, 192.0, 0.0, 0.0, 0.0, 0.0, 0.0, 0.0, 0.0, 0.0, 0.0, 1.6878031682855809E9, 0.0, 2023-06-26 13:12:48.285
251.0, 48148.13860036595, 54532.24385169076, 58667.47303813375, 622.6525452914889, -3668.8600383830117, -6176.099917423716, 23711.199904823294, 16977.669832428674, 0.032, 0.984, 0.13, 192.0, 0.0, 0.0, 0.0, 0.0, 0.0, 0.0, 0.0, 0.0, 0.0, 1.6878031682882185E9, 0.0, 2023-06-26 13:12:48.288
252.0, 48143.780010197166, 54549.18647398788, 59224.36675123772, 630.4980075953016, -3705.762768478724, -6224.357333702724, 23724.678006729842, 16976.507541716997, 0.032, 0.984, 0.13, 192.0, 0.0, 0.0, 0.0, 0.0, 0.0, 0.0, 0.0, 0.0, 0.0, 1.6878031682912283E9, 0.0, 2023-06-26 13:12:48.291
253.0, 48142.10362936302, 54526.83472953257, 60344.92675601564, 553.4291927134029, -3762.916179050944, -6316.625334814231, 23663.076599011016, 16893.24729362098, 0.032, 0.984, 0.13, 192.0, 0.0, 0.0, 0.0, 0.0, 0.0, 0.0, 0.0, 0.0, 0.0, 1.6878031682952645E9, 0.0, 2023-06-26 13:12:48.295
254.0, 48082.80445132309, 54464.562769480086, 61009.15354599399, 530.4739511578025, -3733.8812630035, -6312.266744645446, 23664.931793800806, 16902.567971058845, 0.032, 0.984, 0.13, 192.0, 1.0, 0.0, 30.0, 192.0, 4.0, 16.0, 0.0, 0.0, 0.0, 1.6878031682992904E9, 0.0, 2023-06-26 13:12:48.299
255.0, 48165.01416742971, 54567.62666316351, 58984.15255357654, 624.0607051921731, -3709.2943441026623, -6232.269851239902, 23698.97350060624, 16965.93516658964, 0.032, 0.984, 0.13, 192.0, 0.0, 0.0, 0.0, 0.0, 0.0, 0.0, 0.0, 0.0, 0.0, 1.6878031683032966E9, 0.0, 2023-06-26 13:12:48.303
0.0, 48159.47093480479, 54579.1825150469, 58854.17715956893, 579.3125127926485, -3745.50417012026, -6271.832438925796, 23744.928687206353, 16996.22178032658, 0.032, 0.984, 0.13, 192.0, 0.0, 0.0, 0.0, 0.0, 0.0, 0.0, 0.0, 0.0, 0.0, 1.6878031683063142E9, 0.0, 2023-06-26 13:12:48.306
1.0, 48135.107533348506, 54538.36822967151, 60207.172954937574, 593.6399809885003, -3674.9620646193107, -6260.924787631606, 23684.333107988015, 16927.221945193047, 0.032, 0.984, 0.13, 192.0, 0.0, 0.0, 0.0, 0.0, 0.0, 0.0, 0.0, 0.0, 0.0, 1.6878031683103304E9, 0.0, 2023-06-26 13:12:48.310
2.0, 48121.249451786214, 54513.84836600404, 60936.48802476979, 537.2912332166711, -3659.0029190782216, -6289.915000190139, 23667.12226475743, 16913.810898519863, 0.032, 0.984, 0.13, 192.0, 0.0, 0.0, 0.0, 0.0, 0.0, 0.0, 0.0, 0.0, 0.0, 1.6878031683163576E9, 0.0, 2023-06-26 13:12:48.316
3.0, 48105.64793415641, 54504.03595018816, 59353.716296400584, 544.7567158647437, -3709.137881891475, -6256.789714907374, 23656.616944863435, 16926.216116692558, 0.032, 0.984, 0.13, 192.0, 0.0, 0.0, 0.0, 0.0, 0.0, 0.0, 0.0, 0.0, 0.0, 1.687803168319376E9, 0.0, 2023-06-26 13:12:48.319
4.0, 48109.40302722491, 54510.629714802475, 58524.62303931988, 534.9666517933192, -3695.30215207364, -6230.414656450112, 23703.51090473067, 16973.333594004347, 0.032, 0.984, 0.13, 192.0, 0.0, 0.0, 0.0, 0.0, 0.0, 0.0, 0.0, 0.0, 0.0, 1.6878031683234012E9, 0.0, 2023-06-26 13:12:48.323
5.0, 48099.56825966457, 54507.38871185645, 60043.669944247005, 535.0337070266852, -3707.394445823961, -6279.744956462974, 23680.130980030415, 16916.11312819876, 0.032, 0.984, 0.13, 192.0, 0.0, 0.0, 0.0, 0.0, 0.0, 0.0, 0.0, 0.0, 0.0, 1.687803168327421E9, 0.0, 2023-06-26 13:12:48.327
6.0, 48151.9160451789, 54537.384752915474, 60815.16275586638, 600.0325799027181, -3722.6159837980254, -6254.28631952838, 23678.186378262806, 16935.380331919234, 0.032, 0.984, 0.13, 192.0, 0.0, 0.0, 0.0, 0.0, 0.0, 0.0, 0.0, 0.0, 0.0, 1.6878031683314452E9, 0.0, 2023-06-26 13:12:48.331
7.0, 48109.06775105807, 54500.012636186206, 59786.535476033154, 548.3776984665035, -3735.9599752378435, -6286.070500143826, 23659.075636753518, 16932.899288284694, 0.032, 0.984, 0.13, 192.0, 0.0, 0.0, 0.0, 0.0, 0.0, 0.0, 0.0, 0.0, 0.0, 1.687803168335458E9, 0.0, 2023-06-26 13:12:48.335
8.0, 48129.452542001316, 54537.87649129349, 58297.35050169832, 586.3980157849808, -3683.1428030899533, -6200.865650280196, 23726.063814886074, 17010.057510144416, 0.036000000000000004, 0.978, 0.122, 192.0, 1.0, 32.0, 30.0, 144.0, 3.0, 208.0, 0.0, 0.0, 0.0, 1.687803168339482E9, 0.0, 2023-06-26 13:12:48.339
9.0, 48150.93256842287, 54541.251604706245, 59857.72578212331, 588.5661349971456, -3702.2535445992407, -6256.700307929553, 23698.235893039215, 16954.491073428522, 0.036000000000000004, 0.978, 0.122, 192.0, 0.0, 0.0, 0.0, 0.0, 0.0, 0.0, 0.0, 0.0, 0.0, 1.6878031683445067E9, 0.0, 2023-06-26 13:12:48.344
10.0, 48121.8082453976, 54517.759921283716, 60611.49366038963, 576.6526552024669, -3726.97457396681, -6291.7031397465635, 23663.054247266562, 16927.154889959682, 0.036000000000000004, 0.978, 0.122, 192.0, 0.0, 0.0, 0.0, 0.0, 0.0, 0.0, 0.0, 0.0, 0.0, 1.6878031683485315E9, 0.0, 2023-06-26 13:12:48.348
11.0, 48094.87439332896, 54477.81735394208, 60152.99232637791, 539.8616838290314, -3759.0046237712654, -6318.748750537486, 23635.606305075446, 16925.992599248006, 0.036000000000000004, 0.978, 0.122, 192.0, 0.0, 0.0, 0.0, 0.0, 0.0, 0.0, 0.0, 0.0, 0.0, 1.6878031683525326E9, 0.0, 2023-06-26 13:12:48.352
12.0, 48160.58852202756, 54556.24962523575, 58172.24778798196, 624.6418505480111, -3675.1632303194083, -6242.61870892271, 23710.328186789535, 17023.960295195615, 0.036000000000000004, 0.978, 0.122, 192.0, 0.0, 0.0, 0.0, 0.0, 0.0, 0.0, 0.0, 0.0, 0.0, 1.6878031683565676E9, 0.0, 2023-06-26 13:12:48.356
13.0, 48094.18148925084, 54486.60158951302, 59583.98396777916, 554.747945636266, -3760.0551557606645, -6231.979278561983, 23665.378828689914, 16950.49011117102, 0.036000000000000004, 0.978, 0.122, 192.0, 0.0, 0.0, 0.0, 0.0, 0.0, 0.0, 0.0, 0.0, 0.0, 1.6878031683605764E9, 0.0, 2023-06-26 13:12:48.360
14.0, 48081.351587933495, 54474.889275418434, 60391.79836413841, 512.3690381490038, -3815.5768889876476, -6283.455346042556, 23628.118470682915, 16892.643796520686, 0.036000000000000004, 0.978, 0.122, 192.0, 0.0, 0.0, 0.0, 0.0, 0.0, 0.0, 0.0, 0.0, 0.0, 1.687803168364597E9, 0.0, 2023-06-26 13:12:48.364
15.0, 48077.596494865, 54478.73377546475, 60472.86814127781, 527.0764860005959, -3741.8831875185, -6299.928581706117, 23627.693787538265, 16908.82645950633, 0.036000000000000004, 0.978, 0.122, 192.0, 0.0, 0.0, 0.0, 0.0, 0.0, 0.0, 0.0, 0.0, 0.0, 1.6878031683676264E9, 0.0, 2023-06-26 13:12:48.367
16.0, 48152.54189402365, 54537.9211947824, 58224.684980474114, 621.2443853908045, -3642.0379450366436, -6207.37000791669, 23685.048363810583, 16995.998262882025, 0.036000000000000004, 0.978, 0.122, 192.0, 0.0, 0.0, 0.0, 0.0, 0.0, 0.0, 0.0, 0.0, 0.0, 1.6878031683706427E9, 0.0, 2023-06-26 13:12:48.370
17.0, 48143.10945786351, 54528.46640687781, 59263.057620889864, 598.6244200020337, -3678.5830472210705, -6233.968583818506, 23698.97350060624, 16992.153762835715, 0.036000000000000004, 0.978, 0.122, 192.0, 0.0, 0.0, 0.0, 0.0, 0.0, 0.0, 0.0, 0.0, 0.0, 1.687803168374657E9, 0.0, 2023-06-26 13:12:48.374
18.0, 48116.13090230595, 54496.302246606625, 60233.883289561665, 523.9472417768528, -3748.3875451549943, -6333.6126606002645, 23637.30503765405, 16910.949875229584, 0.04, 0.98, 0.116, 192.0, 1.0, 64.0, 30.0, 160.0, 3.0, 160.0, 0.0, 0.0, 0.0, 1.6878031683786924E9, 0.0, 2023-06-26 13:12:48.378
19.0, 48107.48077720175, 54486.13220287946, 60733.13185371541, 519.7898173081658, -3741.4585043738493, -6288.10450888926, 23641.171889444817, 16919.39883463369, 0.04, 0.98, 0.116, 192.0, 0.0, 0.0, 0.0, 0.0, 0.0, 0.0, 0.0, 0.0, 0.0, 1.6878031683836837E9, 0.0, 2023-06-26 13:12:48.383
20.0, 48169.66333027641, 54541.676287850896, 58479.0031288866, 635.7059640533881, -3707.081521401587, -6200.731539813464, 23695.620738937945, 16998.099326860825, 0.04, 0.98, 0.116, 192.0, 0.0, 0.0, 0.0, 0.0, 0.0, 0.0, 0.0, 0.0, 0.0, 1.6878031683878732E9, 0.0, 2023-06-26 13:12:48.387
21.0, 48125.96566986629, 54513.289572392656, 58964.30420450023, 595.8975071784863, -3707.796777224157, -6223.217394735503, 23710.30583504508, 17003.284931574457, 0.04, 0.98, 0.116, 192.0, 0.0, 0.0, 0.0, 0.0, 0.0, 0.0, 0.0, 0.0, 0.0, 1.687803168390745E9, 0.0, 2023-06-26 13:12:48.390
22.0, 48111.5040912037, 54494.02236867218, 60114.72613987043, 524.5954423660568, -3716.8045302396454, -6316.602983069776, 23641.350703400458, 16914.324988642336, 0.04, 0.98, 0.116, 192.0, 0.0, 0.0, 0.0, 0.0, 0.0, 0.0, 0.0, 0.0, 0.0, 1.6878031683947437E9, 0.0, 2023-06-26 13:12:48.394
23.0, 48087.341855447514, 54463.95927237979, 60814.134575621436, 514.0677707276071, -3756.523580136726, -6326.929489008127, 23621.591761301966, 16913.11799444175, 0.04, 0.98, 0.116, 192.0, 0.0, 0.0, 0.0, 0.0, 0.0, 0.0, 0.0, 0.0, 0.0, 1.6878031683987837E9, 0.0, 2023-06-26 13:12:48.398
24.0, 48155.447620802835, 54526.275935921185, 58846.01877284274, 607.6768765064331, -3708.668495257914, -6274.469944771522, 23674.990078805695, 16977.870998128772, 0.04, 0.98, 0.116, 192.0, 0.0, 0.0, 0.0, 0.0, 0.0, 0.0, 0.0, 0.0, 0.0, 1.6878031684028144E9, 0.0, 2023-06-26 13:12:48.402
25.0, 48124.84808264352, 54514.13893868196, 58688.684843621835, 599.3620275690589, -3687.523745003193, -6212.913240541607, 23710.015262367164, 17022.172155639193, 0.04, 0.98, 0.116, 192.0, 0.0, 0.0, 0.0, 0.0, 0.0, 0.0, 0.0, 0.0, 0.0, 1.6878031684068305E9, 0.0, 2023-06-26 13:12:48.406
26.0, 48096.12609101845, 54481.63950224394, 60036.42797904349, 519.3427824190596, -3749.5498358666705, -6298.967456694539, 23640.993075489176, 16926.573744603844, 0.04, 0.98, 0.116, 192.0, 0.0, 0.0, 0.0, 0.0, 0.0, 0.0, 0.0, 0.0, 0.0, 1.6878031684108448E9, 0.0, 2023-06-26 13:12:48.410
27.0, 48093.04155028362, 54475.5598277521, 60811.58647675353, 518.9628027633194, -3757.7305743373126, -6330.259898931969, 23636.09804345346, 16927.69133182661, 0.04, 0.98, 0.116, 192.0, 0.0, 0.0, 0.0, 0.0, 0.0, 0.0, 0.0, 0.0, 0.0, 1.6878031684168556E9, 0.0, 2023-06-26 13:12:48.416
28.0, 48136.58274848256, 54507.12049092299, 59293.99243521601, 569.0307103432071, -3707.170928379408, -6265.730412689497, 23655.45465415176, 16968.03623056844, 0.04, 0.98, 0.116, 192.0, 0.0, 0.0, 0.0, 0.0, 0.0, 0.0, 0.0, 0.0, 0.0, 1.6878031684198709E9, 0.0, 2023-06-26 13:12:48.419
29.0, 48140.53900725115, 54522.87847076398, 58404.97415125062, 629.1121994390726, -3694.0951578730537, -6190.5614960862995, 23708.4953437442, 17041.61817331531, 0.044, 0.984, 0.112, 192.0, 1.0, 96.0, 30.0, 192.0, 3.0, 128.0, 0.0, 0.0, 0.0, 1.6878031684238899E9, 0.0, 2023-06-26 13:12:48.423
30.0, 48097.13191951894, 54476.47624927476, 59899.14356459899, 530.1163232465176, -3755.7859725697012, -6282.427165797611, 23652.4818721392, 16950.4007041932, 0.044, 0.984, 0.112, 192.0, 0.0, 0.0, 0.0, 0.0, 0.0, 0.0, 0.0, 0.0, 0.0, 1.6878031684279084E9, 0.0, 2023-06-26 13:12:48.427
31.0, 48089.35351244849, 54469.167228837876, 60713.68583603929, 541.2698437297158, -3721.5654518086258, -6268.613787724232, 23631.113604439928, 16932.83223305133, 0.044, 0.984, 0.112, 192.0, 0.0, 0.0, 0.0, 0.0, 0.0, 0.0, 0.0, 0.0, 0.0, 1.6878031684319215E9, 0.0, 2023-06-26 13:12:48.431
32.0, 48111.74996039271, 54481.10306037701, 59778.86882768498, 559.9111986054419, -3712.915326704422, -6243.04339206736, 23623.134031669382, 16960.190768264623, 0.044, 0.984, 0.112, 192.0, 0.0, 0.0, 0.0, 0.0, 0.0, 0.0, 0.0, 0.0, 0.0, 1.6878031684369695E9, 0.0, 2023-06-26 13:12:48.436
33.0, 48144.741135208744, 54523.25845041972, 58231.01052415497, 611.9907631863074, -3658.958215589311, -6185.040615205839, 23708.36123327747, 17058.270222934512, 0.044, 0.984, 0.112, 192.0, 0.0, 0.0, 0.0, 0.0, 0.0, 0.0, 0.0, 0.0, 0.0, 1.687803168440986E9, 0.0, 2023-06-26 13:12:48.440
34.0, 48102.51868993267, 54480.074880132066, 59736.288754497626, 553.9656345803303, -3732.9424897363774, -6258.622557952709, 23660.863776309943, 16972.97596609306, 0.044, 0.984, 0.112, 192.0, 0.0, 0.0, 0.0, 0.0, 0.0, 0.0, 0.0, 0.0, 0.0, 1.6878031684439957E9, 0.0, 2023-06-26 13:12:48.443
35.0, 48096.595477652016, 54467.356737537, 60564.59970052239, 533.9608232928305, -3730.4837978462933, -6301.716721262542, 23629.77249977261, 16935.78266331943, 0.044, 0.984, 0.112, 192.0, 0.0, 0.0, 0.0, 0.0, 0.0, 0.0, 0.0, 0.0, 0.0, 1.687803168447013E9, 0.0, 2023-06-26 13:12:48.447
36.0, 48113.649858671415, 54476.58800799704, 60206.39064388164, 543.6167768975231, -3720.827844241601, -6305.24829688648, 23626.419738104312, 16953.82052109486, 0.044, 0.984, 0.112, 192.0, 0.0, 0.0, 0.0, 0.0, 0.0, 0.0, 0.0, 0.0, 0.0, 1.6878031684510121E9, 0.0, 2023-06-26 13:12:48.451
37.0, 48142.48360901876, 54514.965953226805, 58188.43045096761, 615.7458562547989, -3685.400329279939, -6203.614914848199, 23692.15621854737, 17038.04189420246, 0.044, 0.984, 0.112, 192.0, 0.0, 0.0, 0.0, 0.0, 0.0, 0.0, 0.0, 0.0, 0.0, 1.6878031684550347E9, 0.0, 2023-06-26 13:12:48.455
38.0, 48108.03957081313, 54486.55688602411, 59533.71489449917, 550.3893554674811, -3706.1650998789196, -6252.699345672053, 23666.563471146044, 16986.297605788423, 0.044, 0.984, 0.112, 192.0, 0.0, 0.0, 0.0, 0.0, 0.0, 0.0, 0.0, 0.0, 0.0, 1.687803168459052E9, 0.0, 2023-06-26 13:12:48.459
39.0, 48089.84525082651, 54459.33246127755, 60377.962634320575, 515.4088753949255, -3738.820998528123, -6303.370750352234, 23611.108793152427, 16921.902230012685, 0.04, 0.98, 0.10400000000000001, 192.0, 1.0, 64.0, 30.0, 160.0, 3.0, 64.0, 0.0, 0.0, 0.0, 1.6878031684630864E9, 0.0, 2023-06-26 13:12:48.463
40.0, 48097.46719568577, 54462.662871201384, 60531.5861739619, 527.7917418231657, -3732.6072135695476, -6309.361017866257, 23608.605397773434, 16935.268573196958, 0.04, 0.98, 0.10400000000000001, 192.0, 0.0, 0.0, 0.0, 0.0, 0.0, 0.0, 0.0, 0.0, 0.0, 1.6878031684671092E9, 0.0, 2023-06-26 13:12:48.467
41.0, 48154.97823416928, 54518.72104629529, 58272.69652756411, 618.293955122704, -3657.0583173106097, -6198.22814443447, 23678.700468385276, 17032.722179022097, 0.04, 0.98, 0.10400000000000001, 192.0, 0.0, 0.0, 0.0, 0.0, 0.0, 0.0, 0.0, 0.0, 0.0, 1.687803168470195E9, 0.0, 2023-06-26 13:12:48.470
42.0, 48098.249506741704, 54474.3081300626, 59279.73202225352, 539.9957942957633, -3707.6179632685144, -6288.596247267276, 23659.522671642622, 16985.82821915486, 0.04, 0.98, 0.10400000000000001, 192.0, 0.0, 0.0, 0.0, 0.0, 0.0, 0.0, 0.0, 0.0, 0.0, 1.687803168474196E9, 0.0, 2023-06-26 13:12:48.474
43.0, 48078.356454176486, 54446.34609774901, 60260.951252097046, 478.2826278546605, -3751.069754489631, -6337.546567624398, 23602.01163315912, 16913.229753164025, 0.04, 0.98, 0.10400000000000001, 192.0, 0.0, 0.0, 0.0, 0.0, 0.0, 0.0, 0.0, 0.0, 0.0, 1.6878031684781857E9, 0.0, 2023-06-26 13:12:48.478
44.0, 48074.53430587463, 54441.87574885795, 60754.03073478112, 498.7568257757218, -3763.2291034733184, -6284.639988498687, 23597.7200982237, 16926.126709714736, 0.04, 0.98, 0.10400000000000001, 192.0, 0.0, 0.0, 0.0, 0.0, 0.0, 0.0, 0.0, 0.0, 0.0, 1.687803168482191E9, 0.0, 2023-06-26 13:12:48.482
45.0, 48130.92775713537, 54492.70361574932, 58534.54721385804, 577.680835447411, -3688.6413322259586, -6228.13477851567, 23651.006657005153, 17008.69405373264, 0.04, 0.98, 0.10400000000000001, 192.0, 0.0, 0.0, 0.0, 0.0, 0.0, 0.0, 0.0, 0.0, 0.0, 1.6878031684871972E9, 0.0, 2023-06-26 13:12:48.487
46.0, 48092.08042527204, 54469.77072593817, 59022.77636799531, 539.0793727730958, -3699.2584108422293, -6257.57202596331, 23677.82875035152, 17017.92532419268, 0.04, 0.98, 0.10400000000000001, 192.0, 0.0, 0.0, 0.0, 0.0, 0.0, 0.0, 0.0, 0.0, 0.0, 1.6878031684912393E9, 0.0, 2023-06-26 13:12:48.491
47.0, 48076.21068670877, 54447.351926249496, 60149.997192620904, 491.7607297612107, -3739.8044752841565, -6300.6214857842315, 23609.678281507287, 16923.35509340228, 0.04, 0.98, 0.10400000000000001, 192.0, 0.0, 0.0, 0.0, 0.0, 0.0, 0.0, 0.0, 0.0, 0.0, 1.6878031684952407E9, 0.0, 2023-06-26 13:12:48.495
48.0, 48061.23501792372, 54432.97975456474, 60809.999502897204, 474.54988653062424, -3750.2650916892403, -6308.981038210516, 23591.70747896522, 16920.896401512196, 0.04, 0.98, 0.10400000000000001, 192.0, 0.0, 0.0, 0.0, 0.0, 0.0, 0.0, 0.0, 0.0, 0.0, 1.6878031685012767E9, 0.0, 2023-06-26 13:12:48.501
49.0, 48119.23779478524, 54480.857191188006, 58863.16256083996, 563.263960273738, -3734.9094432484444, -6239.802389121341, 23633.594648074468, 16988.398669767223, 0.038, 0.982, 0.10200000000000001, 192.0, 1.0, 48.0, 30.0, 176.0, 3.0, 48.0, 0.0, 0.0, 0.0, 1.6878031685042813E9, 0.0, 2023-06-26 13:12:48.504
50.0, 48115.28153601665, 54488.322673836075, 58672.83745680302, 593.394111799492, -3676.169058819897, -6218.210603977514, 23686.657689411368, 17045.90970825073, 0.038, 0.982, 0.10200000000000001, 192.0, 0.0, 0.0, 0.0, 0.0, 0.0, 0.0, 0.0, 0.0, 0.0, 1.6878031685083165E9, 0.0, 2023-06-26 13:12:48.508
51.0, 48072.76851806266, 54442.00985932468, 59999.23467626986, 491.2466396387386, -3728.919175734422, -6331.377486154734, 23599.374127313393, 16930.97703826154, 0.038, 0.982, 0.10200000000000001, 192.0, 0.0, 0.0, 0.0, 0.0, 0.0, 0.0, 0.0, 0.0, 0.0, 1.687803168512336E9, 0.0, 2023-06-26 13:12:48.512
52.0, 48058.351642888985, 54427.794149851106, 60763.75374361918, 485.1446134024398, -3772.6838913779134, -6318.927564493128, 23587.281833563073, 16919.220020678047, 0.038, 0.982, 0.10200000000000001, 192.0, 0.0, 0.0, 0.0, 0.0, 0.0, 0.0, 0.0, 0.0, 0.0, 1.6878031685163476E9, 0.0, 2023-06-26 13:12:48.516
53.0, 48111.34762899252, 54468.56373173759, 59309.41513889017, 547.6847943883889, -3713.272954615707, -6251.917034616117, 23610.10296465194, 16974.56293994939, 0.038, 0.982, 0.10200000000000001, 192.0, 0.0, 0.0, 0.0, 0.0, 0.0, 0.0, 0.0, 0.0, 0.0, 1.6878031685203624E9, 0.0, 2023-06-26 13:12:48.520
54.0, 48121.33885876404, 54492.74831923823, 58420.55331713597, 591.8294896876204, -3659.0923260560426, -6202.407920647612, 23677.672288140333, 17051.60940308683, 0.038, 0.982, 0.10200000000000001, 192.0, 0.0, 0.0, 0.0, 0.0, 0.0, 0.0, 0.0, 0.0, 0.0, 1.68780316852439E9, 0.0, 2023-06-26 13:12:48.524
55.0, 48081.66451235587, 54451.82227514056, 59921.9423439434, 507.4740061132915, -3728.3156786341287, -6293.066596158337, 23608.605397773434, 16948.858433825782, 0.038, 0.982, 0.10200000000000001, 192.0, 0.0, 0.0, 0.0, 0.0, 0.0, 0.0, 0.0, 0.0, 0.0, 1.6878031685284114E9, 0.0, 2023-06-26 13:12:48.528
56.0, 48061.32442490154, 54426.6989143728, 60675.218483831704, 478.05911041010745, -3754.60133011357, -6327.354172152779, 23582.05152536053, 16928.78656730492, 0.038, 0.982, 0.10200000000000001, 192.0, 0.0, 0.0, 0.0, 0.0, 0.0, 0.0, 0.0, 0.0, 0.0, 1.687803168531417E9, 0.0, 2023-06-26 13:12:48.531
57.0, 48088.79471883711, 54443.61918492546, 59781.707499230804, 524.684849343878, -3754.176646968919, -6289.020930411927, 23585.873673662387, 16963.163550277182, 0.038, 0.982, 0.10200000000000001, 192.0, 0.0, 0.0, 0.0, 0.0, 0.0, 0.0, 0.0, 0.0, 0.0, 1.6878031685344338E9, 0.0, 2023-06-26 13:12:48.534
58.0, 48119.2601465297, 54481.57244701057, 58239.83946321481, 601.8654229480533, -3672.7715936626905, -6201.46914738049, 23661.35551468796, 17052.212900187125, 0.038, 0.982, 0.10200000000000001, 192.0, 0.0, 0.0, 0.0, 0.0, 0.0, 0.0, 0.0, 0.0, 0.0, 1.6878031685384674E9, 0.0, 2023-06-26 13:12:48.538
59.0, 48079.33993093252, 54446.12258030446, 59797.510182560705, 514.492453872258, -3734.104780448053, -6285.131726876703, 23624.29632238106, 16973.60181493781, 0.03, 0.992, 0.098, 192.0, 0.0, 240.0, 31.0, 0.0, 3.0, 16.0, 0.0, 0.0, 0.0, 1.6878031685424864E9, 0.0, 2023-06-26 13:12:48.542
60.0, 48078.51291638767, 54442.613356424976, 60534.69306644119, 505.6635148124117, -3747.3146614211396, -6311.81970975634, 23598.703574979732, 16947.316163458367, 0.03, 0.992, 0.098, 192.0, 0.0, 0.0, 0.0, 0.0, 0.0, 0.0, 0.0, 0.0, 0.0, 1.6878031685475395E9, 0.0, 2023-06-26 13:12:48.547
61.0, 48090.13582350443, 54450.28000477314, 60184.329472104255, 534.0949337595623, -3754.109591735553, -6263.674052199609, 23593.16034235482, 16956.167454262668, 0.03, 0.992, 0.098, 192.0, 0.0, 0.0, 0.0, 0.0, 0.0, 0.0, 0.0, 0.0, 0.0, 1.6878031685515156E9, 0.0, 2023-06-26 13:12:48.551
62.0, 48120.511844219196, 54483.40529005591, 58179.42269795212, 604.1676526269499, -3701.1583091209304, -6177.284559879847, 23652.124244227918, 17047.228461173592, 0.03, 0.992, 0.098, 192.0, 0.0, 0.0, 0.0, 0.0, 0.0, 0.0, 0.0, 0.0, 0.0, 1.6878031685545292E9, 0.0, 2023-06-26 13:12:48.554
63.0, 48069.92984651683, 54438.411228467376, 59578.39603166533, 513.4195701384032, -3695.995056151755, -6274.380537793701, 23620.898857223852, 16990.499733746023, 0.03, 0.992, 0.098, 192.0, 0.0, 0.0, 0.0, 0.0, 0.0, 0.0, 0.0, 0.0, 0.0, 1.6878031685585823E9, 0.0, 2023-06-26 13:12:48.558
64.0, 48067.38174764893, 54428.64351614041, 60381.91889308917, 489.9055349714202, -3717.7209517623132, -6316.602983069776, 23575.86009214641, 16928.16071846017, 0.03, 0.992, 0.098, 192.0, 0.0, 0.0, 0.0, 0.0, 0.0, 0.0, 0.0, 0.0, 0.0, 1.68780316856258E9, 0.0, 2023-06-26 13:12:48.562
65.0, 48066.845305782, 54424.3966846939, 60520.32089475643, 503.8306717670765, -3747.404068398961, -6311.417378356145, 23570.85330138842, 16942.152910489192, 0.03, 0.992, 0.098, 192.0, 0.0, 0.0, 0.0, 0.0, 0.0, 0.0, 0.0, 0.0, 0.0, 1.6878031685666003E9, 0.0, 2023-06-26 13:12:48.566
66.0, 48124.982193110256, 54483.67351098937, 58264.04640245991, 588.5884867416008, -3701.538288776671, -6241.411714722123, 23643.11649121243, 17037.304286635434, 0.03, 0.992, 0.098, 192.0, 0.0, 0.0, 0.0, 0.0, 0.0, 0.0, 0.0, 0.0, 0.0, 1.6878031685706365E9, 0.0, 2023-06-26 13:12:48.570
67.0, 48078.46821289876, 54452.71634491877, 59303.98366498753, 527.5905761230679, -3745.951205009366, -6274.0899651157815, 23637.260334165137, 17003.866076930295, 0.03, 0.992, 0.098, 192.0, 0.0, 0.0, 0.0, 0.0, 0.0, 0.0, 0.0, 0.0, 0.0, 1.6878031685766547E9, 0.0, 2023-06-26 13:12:48.576
68.0, 48066.04064298161, 54433.2479754982, 60239.78415009787, 485.32342735808226, -3753.4390394018938, -6330.550471609888, 23572.95436536722, 16937.749616831497, 0.03, 0.992, 0.098, 192.0, 0.0, 0.0, 0.0, 0.0, 0.0, 0.0, 0.0, 0.0, 0.0, 1.687803168579656E9, 0.0, 2023-06-26 13:12:48.579
69.0, 48061.771459790645, 54425.894251572405, 60687.71310898222, 495.56052631861286, -3742.240815429785, -6314.72543653553, 23560.61620242789, 16941.01297152197, 0.03, 0.992, 0.098, 192.0, 0.0, 0.0, 0.0, 0.0, 0.0, 0.0, 0.0, 0.0, 0.0, 1.6878031685836716E9, 0.0, 2023-06-26 13:12:48.583
70.0, 48119.64012618543, 54476.34213880803, 58463.62512870135, 572.070547589129, -3717.564489551126, -6247.401982236145, 23612.740470497665, 17009.94575142214, 0.032, 0.99, 0.096, 192.0, 1.0, 0.0, 30.0, 240.0, 3.0, 0.0, 0.0, 0.0, 0.0, 1.6878031685878284E9, 0.0, 2023-06-26 13:12:48.587
71.0, 48084.88316355743, 54453.297490274614, 58990.03106236828, 539.0123175397298, -3698.0290648971877, -6265.886874900684, 23639.00377023265, 17022.999170184037, 0.032, 0.99, 0.096, 192.0, 0.0, 0.0, 0.0, 0.0, 0.0, 0.0, 0.0, 0.0, 0.0, 1.6878031685917268E9, 0.0, 2023-06-26 13:12:48.591
72.0, 48061.03385222362, 54425.58132715003, 60194.879495487156, 482.55181104562416, -3745.571225353626, -6305.58357305331, 23567.18761529775, 16924.02564573594, 0.032, 0.99, 0.096, 192.0, 0.0, 0.0, 0.0, 0.0, 0.0, 0.0, 0.0, 0.0, 0.0, 1.6878031685957332E9, 0.0, 2023-06-26 13:12:48.595
73.0, 48056.250578910185, 54418.54052764661, 60794.912075389875, 478.41673832139236, -3766.403051185972, -6315.910078991661, 23553.061312801998, 16928.78656730492, 0.032, 0.99, 0.096, 192.0, 0.0, 0.0, 0.0, 0.0, 0.0, 0.0, 0.0, 0.0, 0.0, 1.6878031685997548E9, 0.0, 2023-06-26 13:12:48.599
74.0, 48114.32041100507, 54468.809600926594, 58849.4385897444, 568.9860068542965, -3712.8035679821455, -6248.050182825349, 23588.82410393049, 16990.767954679486, 0.032, 0.99, 0.096, 192.0, 0.0, 0.0, 0.0, 0.0, 0.0, 0.0, 0.0, 0.0, 0.0, 1.6878031686057737E9, 0.0, 2023-06-26 13:12:48.605
75.0, 48093.06390202807, 54463.13225783494, 58692.66345413488, 573.3893005119921, -3691.122375860498, -6236.337868730769, 23636.209802175737, 17037.79602501345, 0.032, 0.99, 0.096, 192.0, 0.0, 0.0, 0.0, 0.0, 0.0, 0.0, 0.0, 0.0, 0.0, 1.6878031686097953E9, 0.0, 2023-06-26 13:12:48.609
76.0, 48060.00567197867, 54424.88842307191, 60083.25488367736, 485.0775581690739, -3757.954091781866, -6333.791474555907, 23566.517062964092, 16938.956611032085, 0.032, 0.99, 0.096, 192.0, 0.0, 0.0, 0.0, 0.0, 0.0, 0.0, 0.0, 0.0, 0.0, 1.6878031686128109E9, 0.0, 2023-06-26 13:12:48.612
77.0, 48044.76178226015, 54406.22471645173, 60773.387345479416, 473.7899272191438, -3774.181458256419, -6345.682602606131, 23551.340228478937, 16930.619410350253, 0.032, 0.99, 0.096, 192.0, 0.0, 0.0, 0.0, 0.0, 0.0, 0.0, 0.0, 0.0, 0.0, 1.687803168615832E9, 0.0, 2023-06-26 13:12:48.615
78.0, 48085.73252984673, 54439.97585057925, 59307.06820572236, 532.619718625512, -3759.474010404827, -6293.96066593655, 23565.868862374886, 16971.63486142574, 0.032, 0.99, 0.096, 192.0, 0.0, 0.0, 0.0, 0.0, 0.0, 0.0, 0.0, 0.0, 0.0, 1.6878031686188376E9, 0.0, 2023-06-26 13:12:48.618
79.0, 48095.053207284596, 54460.226531055756, 58386.109278930344, 568.9413033653859, -3730.0367629571874, -6236.427275708589, 23629.705444539242, 17045.08269370588, 0.032, 0.99, 0.096, 192.0, 0.0, 0.0, 0.0, 0.0, 0.0, 0.0, 0.0, 0.0, 0.0, 1.6878031686259012E9, 0.0, 2023-06-26 13:12:48.625
80.0, 48057.94931148879, 54419.97103929175, 59982.67203362847, 480.83072672256554, -3766.693623863891, -6318.100549948282, 23567.6122984424, 16951.697105371608, 0.032, 0.986, 0.094, 192.0, 1.0, 0.0, 30.0, 208.0, 2.0, 240.0, 0.0, 0.0, 0.0, 1.6878031686288965E9, 0.0, 2023-06-26 13:12:48.628
81.0, 48047.33223287252, 54407.029379252126, 60666.23308256067, 468.5819707610573, -3763.2961587066843, -6341.748695581997, 23540.07494927346, 16934.10628248528, 0.032, 0.986, 0.094, 192.0, 0.0, 0.0, 0.0, 0.0, 0.0, 0.0, 0.0, 0.0, 0.0, 1.687803168631912E9, 0.0, 2023-06-26 13:12:48.631
82.0, 48083.13972748992, 54433.87382434295, 59737.62985916494, 521.1085702310288, -3751.2262167008184, -6302.096700918281, 23551.116711034385, 16966.963346834582, 0.032, 0.986, 0.094, 192.0, 0.0, 0.0, 0.0, 0.0, 0.0, 0.0, 0.0, 0.0, 0.0, 1.687803168635934E9, 0.0, 2023-06-26 13:12:48.635
83.0, 48105.96085857879, 54462.93109213485, 58172.3818984487, 582.7323296943105, -3706.500376045749, -6214.299048697835, 23629.996017217163, 17053.688115321173, 0.032, 0.986, 0.094, 192.0, 0.0, 0.0, 0.0, 0.0, 0.0, 0.0, 0.0, 0.0, 0.0, 1.6878031686389449E9, 0.0, 2023-06-26 13:12:48.638
84.0, 48064.364262147465, 54424.508443416176, 59785.86492369949, 498.35449437552626, -3773.533257667215, -6300.6214857842315, 23576.95532762472, 16970.763143391985, 0.032, 0.986, 0.094, 192.0, 0.0, 0.0, 0.0, 0.0, 0.0, 0.0, 0.0, 0.0, 0.0, 1.6878031686419516E9, 0.0, 2023-06-26 13:12:48.641
85.0, 48055.42356436534, 54405.50946062917, 60492.73884209858, 466.41385154889247, -3743.179588696908, -6353.125733509748, 23541.840737085433, 16929.479471383034, 0.032, 0.986, 0.094, 192.0, 0.0, 0.0, 0.0, 0.0, 0.0, 0.0, 0.0, 0.0, 0.0, 1.687803168646988E9, 0.0, 2023-06-26 13:12:48.646
86.0, 48070.37688140594, 54416.08183575652, 60144.38690476262, 496.9016309859313, -3762.491495906293, -6322.526195350432, 23550.7590831231, 16948.2996402144, 0.032, 0.986, 0.094, 192.0, 0.0, 0.0, 0.0, 0.0, 0.0, 0.0, 0.0, 0.0, 0.0, 1.6878031686509883E9, 0.0, 2023-06-26 13:12:48.650
87.0, 48117.829634884554, 54467.82612417056, 58090.261589319896, 581.8382599160982, -3687.6131519810147, -6231.599298906243, 23622.15055491335, 17046.066170461916, 0.032, 0.986, 0.094, 192.0, 0.0, 0.0, 0.0, 0.0, 0.0, 0.0, 0.0, 0.0, 0.0, 1.6878031686550052E9, 0.0, 2023-06-26 13:12:48.655
88.0, 48065.01246273667, 54422.98852479322, 59561.22989192366, 503.94243048935306, -3753.4390394018938, -6324.426093629133, 23591.372202798393, 16990.96912037958, 0.032, 0.986, 0.094, 192.0, 0.0, 0.0, 0.0, 0.0, 0.0, 0.0, 0.0, 0.0, 0.0, 1.6878031686590347E9, 0.0, 2023-06-26 13:12:48.659
89.0, 48055.93765448781, 54408.415187408355, 60345.32908741583, 475.913342942398, -3770.292254721195, -6345.369678183756, 23542.958324308198, 16931.178203961637, 0.032, 0.986, 0.094, 192.0, 0.0, 0.0, 0.0, 0.0, 0.0, 0.0, 0.0, 0.0, 0.0, 1.6878031686630435E9, 0.0, 2023-06-26 13:12:48.663
90.0, 48064.99011099221, 54412.50555664368, 60426.39886455523, 501.9531252328307, -3764.3243389516283, -6298.945104950083, 23540.834908584944, 16946.22092798006, 0.034, 0.986, 0.092, 192.0, 1.0, 16.0, 30.0, 208.0, 2.0, 224.0, 0.0, 0.0, 0.0, 1.6878031686670802E9, 0.0, 2023-06-26 13:12:48.667
91.0, 48115.259184272196, 54458.259577543686, 58153.89700578416, 582.1064808495619, -3707.729721990791, -6233.230976251481, 23601.743412225656, 17034.331504622878, 0.034, 0.986, 0.092, 192.0, 0.0, 0.0, 0.0, 0.0, 0.0, 0.0, 0.0, 0.0, 0.0, 1.687803168672103E9, 0.0, 2023-06-26 13:12:48.672
92.0, 48069.12518371644, 54425.558975405576, 59257.84966443177, 523.6119656100233, -3758.915216793444, -6293.111299647248, 23607.398403572846, 17011.89035318975, 0.034, 0.986, 0.092, 192.0, 0.0, 0.0, 0.0, 0.0, 0.0, 0.0, 0.0, 0.0, 0.0, 1.687803168676186E9, 0.0, 2023-06-26 13:12:48.676
93.0, 48055.0435847096, 54402.559030361066, 60215.510155619406, 473.7675754746885, -3768.1241355090306, -6349.169474741158, 23544.94762956472, 16931.178203961637, 0.034, 0.986, 0.092, 192.0, 0.0, 0.0, 0.0, 0.0, 0.0, 0.0, 0.0, 0.0, 0.0, 1.6878031686801856E9, 0.0, 2023-06-26 13:12:48.680
94.0, 48058.485753355715, 54400.77089080464, 60626.37992219686, 487.6927122703448, -3750.6003678560696, -6339.4464659031, 23532.98944628113, 16942.823462822853, 0.034, 0.986, 0.092, 192.0, 0.0, 0.0, 0.0, 0.0, 0.0, 0.0, 0.0, 0.0, 0.0, 1.6878031686841824E9, 0.0, 2023-06-26 13:12:48.684
95.0, 48117.91904186238, 54456.67260368736, 58393.2841889005, 574.6409982014893, -3710.143710391964, -6249.883025870684, 23578.922281136787, 17020.763995738507, 0.034, 0.986, 0.092, 192.0, 0.0, 0.0, 0.0, 0.0, 0.0, 0.0, 0.0, 0.0, 0.0, 1.68780316868819E9, 0.0, 2023-06-26 13:12:48.688
96.0, 48088.124166503454, 54444.02151632566, 58905.16148867148, 553.7868206246878, -3719.8667192300227, -6264.456363255545, 23606.90666519483, 17033.817414500405, 0.034, 0.986, 0.092, 192.0, 0.0, 0.0, 0.0, 0.0, 0.0, 0.0, 0.0, 0.0, 0.0, 1.6878031686921878E9, 0.0, 2023-06-26 13:12:48.692
97.0, 48066.15240170388, 54412.66201885486, 60090.1839244585, 483.2894186126493, -3775.790783857201, -6352.254015475991, 23534.263495715084, 16936.564974375364, 0.034, 0.986, 0.092, 192.0, 0.0, 0.0, 0.0, 0.0, 0.0, 0.0, 0.0, 0.0, 0.0, 1.6878031686952145E9, 0.0, 2023-06-26 13:12:48.695
98.0, 48065.75007030369, 54411.74559733219, 60661.69567843625, 500.85788975452067, -3784.1950397723963, -6323.777893039929, 23528.474393901157, 16945.77389309095, 0.034, 0.986, 0.092, 192.0, 0.0, 0.0, 0.0, 0.0, 0.0, 0.0, 0.0, 0.0, 0.0, 1.687803168698218E9, 0.0, 2023-06-26 13:12:48.698
99.0, 48113.87337611597, 54453.56571120807, 58780.95284473334, 569.1871725543944, -3751.4497341453716, -6260.969491120517, 23551.921373834775, 16992.89137040274, 0.034, 0.986, 0.092, 192.0, 0.0, 0.0, 0.0, 0.0, 0.0, 0.0, 0.0, 0.0, 0.0, 1.6878031687022378E9, 0.0, 2023-06-26 13:12:48.702
100.0, 48101.535213176634, 54455.51031297568, 58590.35951976294, 577.4349662584027, -3739.0892194615867, -6232.13574077317, 23600.134086624872, 17046.066170461916, 0.038, 0.988, 0.092, 192.0, 1.0, 48.0, 30.0, 224.0, 2.0, 224.0, 0.0, 0.0, 0.0, 1.6878031687062593E9, 0.0, 2023-06-26 13:12:48.706
101.0, 48063.581951091524, 54413.48903339971, 60022.21226956991, 488.78794774865486, -3784.7761851282344, -6333.165625711158, 23527.42386191176, 16962.31418398788, 0.038, 0.988, 0.092, 192.0, 0.0, 0.0, 0.0, 0.0, 0.0, 0.0, 0.0, 0.0, 0.0, 1.6878031687112725E9, 0.0, 2023-06-26 13:12:48.711
102.0, 48053.81423876456, 54402.693140827796, 60671.55279774104, 487.1562704034174, -3766.760679097257, -6323.4426168731, 23527.289751445027, 16953.21702399457, 0.038, 0.988, 0.092, 192.0, 0.0, 0.0, 0.0, 0.0, 0.0, 0.0, 0.0, 0.0, 0.0, 1.6878031687152965E9, 0.0, 2023-06-26 13:12:48.715
103.0, 48106.854928357, 54444.66971691486, 59227.116015805725, 559.553570694157, -3746.9793852543103, -6262.377651021201, 23557.866937859886, 17004.536629263956, 0.038, 0.988, 0.092, 192.0, 0.0, 0.0, 0.0, 0.0, 0.0, 0.0, 0.0, 0.0, 0.0, 1.68780316872539E9, 0.0, 2023-06-26 13:12:48.725
104.0, 48113.62750692696, 54464.45101075781, 58277.68096657765, 598.0432746461958, -3708.9143644469223, -6217.964734788506, 23621.949389213252, 17074.765810342527, 0.038, 0.988, 0.092, 192.0, 0.0, 0.0, 0.0, 0.0, 0.0, 0.0, 0.0, 0.0, 0.0, 1.687803168738453E9, 0.0, 2023-06-26 13:12:48.738
105.0, 48068.72285231625, 54418.138196246415, 59884.36906151403, 497.63923855295644, -3774.6284931455248, -6325.007238984971, 23553.016609313087, 16968.863245113283, 0.038, 0.988, 0.092, 192.0, 0.0, 0.0, 0.0, 0.0, 0.0, 0.0, 0.0, 0.0, 0.0, 1.6878031687414513E9, 0.0, 2023-06-26 13:12:48.741
106.0, 48057.63638706641, 54401.79907104958, 60551.03219163802, 482.77532849017723, -3754.64603360248, -6336.585442612821, 23525.412204910783, 16947.047942524903, 0.038, 0.988, 0.092, 192.0, 0.0, 0.0, 0.0, 0.0, 0.0, 0.0, 0.0, 0.0, 0.0, 1.6878031687454736E9, 0.0, 2023-06-26 13:12:48.745
107.0, 48084.45848041278, 54423.01087653767, 59702.023530247636, 512.1008172155401, -3767.341824453095, -6299.548602050377, 23528.764966579078, 16967.79036137943, 0.038, 0.988, 0.092, 192.0, 0.0, 0.0, 0.0, 0.0, 0.0, 0.0, 0.0, 0.0, 0.0, 1.68780316874848E9, 0.0, 2023-06-26 13:12:48.748
109.0, 48058.28458765562, 54407.38700716341, 59752.65023143891, 499.5838403205682, -3768.7946878426897, -6322.950878495083, 23546.42284469877, 16979.413268496188, 0.038, 0.988, 0.092, 192.0, 0.0, 0.0, 0.0, 0.0, 0.0, 0.0, 0.0, 0.0, 0.0, 1.6878031687514975E9, 0.0, 2023-06-26 13:12:48.751
110.0, 48050.3944218629, 54391.1372889444, 60423.51548952049, 474.57223827507954, -3778.6741588919353, -6359.16070451268, 23515.89036177282, 16937.59315462031, 0.038, 0.988, 0.092, 192.0, 0.0, 0.0, 0.0, 0.0, 0.0, 0.0, 0.0, 0.0, 0.0, 1.687803168755504E9, 0.0, 2023-06-26 13:12:48.755
111.0, 48068.9463697608, 54402.31316117205, 60091.30151168127, 501.05905545461843, -3776.483687935315, -6328.896442520195, 23530.642513113322, 16965.085800300338, 0.044, 0.99, 0.09, 192.0, 1.0, 96.0, 30.0, 240.0, 2.0, 208.0, 0.0, 0.0, 0.0, 1.6878031687585392E9, 0.0, 2023-06-26 13:12:48.758
112.0, 48120.28832677464, 54458.885426388435, 58035.54451889331, 589.4378530309026, -3698.252582341741, -6227.419522693101, 23620.183601401284, 17065.46748464912, 0.044, 0.99, 0.09, 192.0, 0.0, 0.0, 0.0, 0.0, 0.0, 0.0, 0.0, 0.0, 0.0, 1.6878031687615285E9, 0.0, 2023-06-26 13:12:48.761
113.0, 48065.10186971448, 54413.95842003327, 59520.549717015, 519.1639684634172, -3744.945376508877, -6279.879066929707, 23588.533531252568, 17001.832068184864, 0.044, 0.99, 0.09, 192.0, 0.0, 0.0, 0.0, 0.0, 0.0, 0.0, 0.0, 0.0, 0.0, 1.6878031687655573E9, 0.0, 2023-06-26 13:12:48.765
114.0, 48064.9454075033, 54405.0400739956, 60293.249522834965, 489.6820175268671, -3754.333109180106, -6338.552396124887, 23542.220716741173, 16948.12082625876, 0.044, 0.99, 0.09, 192.0, 0.0, 0.0, 0.0, 0.0, 0.0, 0.0, 0.0, 0.0, 0.0, 1.6878031687685652E9, 0.0, 2023-06-26 13:12:48.768
115.0, 48064.498372614195, 54399.80976579306, 60410.28325680295, 500.76848277669944, -3759.6081208715586, -6322.950878495083, 23532.743577092122, 16959.40845720869, 0.044, 0.99, 0.09, 192.0, 0.0, 0.0, 0.0, 0.0, 0.0, 0.0, 0.0, 0.0, 0.0, 1.687803168771573E9, 0.0, 2023-06-26 13:12:48.771
116.0, 48126.54681522212, 54461.03119385615, 58153.13704647268, 589.4378530309026, -3697.2244020967964, -6239.534168187877, 23599.48588603567, 17050.536519352976, 0.044, 0.99, 0.09, 192.0, 0.0, 0.0, 0.0, 0.0, 0.0, 0.0, 0.0, 0.0, 0.0, 1.687803168774612E9, 0.0, 2023-06-26 13:12:48.774
117.0, 48081.53040188914, 54431.81746385306, 59232.167510052626, 532.2844424586824, -3737.8151700276344, -6311.395026611689, 23597.38482205687, 17027.693036519653, 0.044, 0.99, 0.09, 192.0, 0.0, 0.0, 0.0, 0.0, 0.0, 0.0, 0.0, 0.0, 0.0, 1.6878031687786324E9, 0.0, 2023-06-26 13:12:48.778
118.0, 48059.62569232294, 54403.00606525017, 60192.89019023063, 482.4177005788923, -3769.755812854268, -6323.062637217359, 23522.148850220306, 16940.25301221049, 0.044, 0.99, 0.09, 192.0, 0.0, 0.0, 0.0, 0.0, 0.0, 0.0, 0.0, 0.0, 0.0, 1.6878031687816389E9, 0.0, 2023-06-26 13:12:48.781
119.0, 48056.22822716573, 54397.59694309199, 60601.748299807114, 492.3195233725934, -3777.422461202438, -6314.077235946326, 23518.12553621835, 16957.843835096817, 0.044, 0.99, 0.09, 192.0, 0.0, 0.0, 0.0, 0.0, 0.0, 0.0, 0.0, 0.0, 0.0, 1.6878031687846477E9, 0.0, 2023-06-26 13:12:48.784
120.0, 48122.81407389809, 54458.17017056587, 58383.71764227362, 583.06760586114, -3726.304021633151, -6236.002592563938, 23578.028211358574, 17037.639562802266, 0.044, 0.99, 0.09, 192.0, 0.0, 0.0, 0.0, 0.0, 0.0, 0.0, 0.0, 0.0, 0.0, 1.6878031687886796E9, 0.0, 2023-06-26 13:12:48.788
121.0, 48087.94535254781, 54441.562824435576, 58883.726165738844, 552.7362886352884, -3750.9356440228994, -6260.790677164874, 23601.251673847637, 17047.541385595963, 0.044, 0.988, 0.092, 192.0, 1.0, 96.0, 30.0, 224.0, 2.0, 224.0, 0.0, 0.0, 0.0, 1.68780316879166E9, 0.0, 2023-06-26 13:12:48.791
122.0, 48061.592645835, 54406.67175134084, 60113.94382881449, 481.009540678208, -3768.660577375958, -6349.638861374719, 23521.724167075656, 16946.511500657976, 0.044, 0.988, 0.092, 192.0, 0.0, 0.0, 0.0, 0.0, 0.0, 0.0, 0.0, 0.0, 0.0, 1.6878031687947283E9, 0.0, 2023-06-26 13:12:48.794
123.0, 48063.246674924696, 54404.81655655105, 60681.20875134573, 496.99103796375255, -3769.107612265064, -6336.786608312918, 23517.23146644014, 16957.01682055197, 0.044, 0.988, 0.092, 192.0, 0.0, 0.0, 0.0, 0.0, 0.0, 0.0, 0.0, 0.0, 0.0, 1.687803168798723E9, 0.0, 2023-06-26 13:12:48.798
124.0, 48125.876262888465, 54457.700783932305, 58791.86049602753, 575.2891987906931, -3724.1806059098967, -6253.213435794525, 23557.665772159788, 17021.814527727907, 0.044, 0.988, 0.092, 192.0, 0.0, 0.0, 0.0, 0.0, 0.0, 0.0, 0.0, 0.0, 0.0, 1.687803168802729E9, 0.0, 2023-06-26 13:12:48.802
125.0, 48102.585745166034, 54448.84949312801, 58559.06707752551, 576.4067860134585, -3706.790948723668, -6236.315516986313, 23601.832819203475, 17065.869816049315, 0.044, 0.988, 0.092, 192.0, 0.0, 0.0, 0.0, 0.0, 0.0, 0.0, 0.0, 0.0, 0.0, 1.6878031688077712E9, 0.0, 2023-06-26 13:12:48.807
126.0, 48065.10186971448, 54404.23541119521, 60021.34055153615, 485.61400003600124, -3775.0978797790863, -6337.1889397131135, 23528.764966579078, 16958.93907057513, 0.044, 0.988, 0.092, 192.0, 0.0, 0.0, 0.0, 0.0, 0.0, 0.0, 0.0, 0.0, 0.0, 1.687803168811793E9, 0.0, 2023-06-26 13:12:48.811
127.0, 48064.67718656983, 54403.09547222799, 60614.33233193545, 491.2466396387386, -3779.4788216923266, -6338.999431013994, 23529.86020205739, 16966.18103577865, 0.044, 0.988, 0.092, 192.0, 0.0, 0.0, 0.0, 0.0, 0.0, 0.0, 0.0, 0.0, 0.0, 1.6878031688157928E9, 0.0, 2023-06-26 13:12:48.815
128.0, 48105.64793415641, 54433.85147259849, 59229.17237629562, 549.8082101116431, -3751.5391411231926, -6283.4329942981, 23540.387873695836, 16998.03227162746, 0.044, 0.988, 0.092, 192.0, 0.0, 0.0, 0.0, 0.0, 0.0, 0.0, 0.0, 0.0, 0.0, 1.687803168819826E9, 0.0, 2023-06-26 13:12:48.819
129.0, 48119.97540235226, 54461.612339211984, 58277.0551177329, 597.5291845237238, -3698.4313962973833, -6225.787845347863, 23604.29151109356, 17072.463580663632, 0.044, 0.988, 0.092, 192.0, 0.0, 0.0, 0.0, 0.0, 0.0, 0.0, 0.0, 0.0, 0.0, 1.6878031688238478E9, 0.0, 2023-06-26 13:12:48.823
130.0, 48075.8977622864, 54419.09932125799, 59898.62947447652, 505.1270729454843, -3764.4808011628156, -6324.202576184581, 23535.694007360224, 16976.35107950581, 0.044, 0.988, 0.092, 192.0, 0.0, 0.0, 0.0, 0.0, 0.0, 0.0, 0.0, 0.0, 0.0, 1.6878031688268597E9, 0.0, 2023-06-26 13:12:48.826
131.0, 48067.649968582395, 54408.973981019735, 60533.19549956269, 495.4040641074257, -3780.2834844927174, -6333.992640256005, 23529.569629379468, 16961.934204332138, 0.036000000000000004, 0.98, 0.096, 192.0, 1.0, 32.0, 30.0, 160.0, 3.0, 0.0, 0.0, 0.0, 0.0, 1.6878031688308768E9, 0.0, 2023-06-26 13:12:48.830
132.0, 48103.0551317996, 54436.71249588877, 59719.59200138951, 545.0025850537521, -3746.6888125763912, -6300.040340428393, 23543.338303963938, 16998.814582683397, 0.036000000000000004, 0.98, 0.096, 192.0, 0.0, 0.0, 0.0, 0.0, 0.0, 0.0, 0.0, 0.0, 0.0, 1.6878031688348725E9, 0.0, 2023-06-26 13:12:48.834
133.0, 48125.608041955005, 54467.08851660354, 58090.70862420901, 608.2803736067264, -3698.990189908766, -6239.981203076984, 23606.839609961466, 17082.968900557626, 0.036000000000000004, 0.98, 0.096, 192.0, 0.0, 0.0, 0.0, 0.0, 0.0, 0.0, 0.0, 0.0, 0.0, 1.687803168839902E9, 0.0, 2023-06-26 13:12:48.839
134.0, 48078.4458611543, 54424.12846376043, 59755.287737284634, 521.8238260535987, -3743.537216608193, -6304.667151530642, 23549.5073854336, 17000.535667006454, 0.036000000000000004, 0.98, 0.096, 192.0, 0.0, 0.0, 0.0, 0.0, 0.0, 0.0, 0.0, 0.0, 0.0, 1.6878031688439233E9, 0.0, 2023-06-26 13:12:48.843
135.0, 48075.65189309739, 54415.18776597831, 60414.53008824946, 505.0153142232078, -3783.7927083722007, -6310.813881255852, 23519.690158330224, 16965.06344855588, 0.036000000000000004, 0.98, 0.096, 192.0, 0.0, 0.0, 0.0, 0.0, 0.0, 0.0, 0.0, 0.0, 0.0, 1.6878031688479526E9, 0.0, 2023-06-26 13:12:48.847
136.0, 48098.92005907537, 54433.27032724266, 60135.8932418696, 533.9831750372857, -3772.169801255441, -6304.53304106391, 23533.14590849232, 16994.232475070057, 0.036000000000000004, 0.98, 0.096, 192.0, 0.0, 0.0, 0.0, 0.0, 0.0, 0.0, 0.0, 0.0, 0.0, 1.6878031688519964E9, 0.0, 2023-06-26 13:12:48.851
137.0, 48146.41751604289, 54484.411118556396, 58039.16550149507, 619.7915220012095, -3687.6131519810147, -6217.540051643855, 23609.745336740656, 17087.081621537403, 0.036000000000000004, 0.98, 0.096, 192.0, 0.0, 0.0, 0.0, 0.0, 0.0, 0.0, 0.0, 0.0, 0.0, 1.687803168855984E9, 0.0, 2023-06-26 13:12:48.855
138.0, 48093.82386133956, 54442.56865293606, 59496.52159172554, 547.3495182215594, -3706.410969067928, -6262.087078343282, 23567.925222864775, 17022.66389401721, 0.036000000000000004, 0.98, 0.096, 192.0, 0.0, 0.0, 0.0, 0.0, 0.0, 0.0, 0.0, 0.0, 0.0, 1.687803168861034E9, 0.0, 2023-06-26 13:12:48.861
139.0, 48091.58868689403, 54433.40443770939, 60261.89002536417, 516.6829248288781, -3776.5507431686815, -6311.909116734161, 23539.158527750795, 16976.373431250267, 0.036000000000000004, 0.98, 0.096, 192.0, 0.0, 0.0, 0.0, 0.0, 0.0, 0.0, 0.0, 0.0, 0.0, 1.6878031688640332E9, 0.0, 2023-06-26 13:12:48.864
140.0, 48093.71210261728, 54434.23145225424, 60413.4572045156, 522.0249917536964, -3813.56523198667, -6317.675866803631, 23536.141042249328, 16988.73394593405, 0.036000000000000004, 0.98, 0.096, 192.0, 0.0, 0.0, 0.0, 0.0, 0.0, 0.0, 0.0, 0.0, 0.0, 1.6878031688670578E9, 0.0, 2023-06-26 13:12:48.867
141.0, 48144.22704508627, 54483.80762145611, 58153.71819182851, 616.6399260330112, -3665.753145903724, -6215.394284176145, 23577.625879958377, 17065.020449760013, 0.036000000000000004, 0.984, 0.092, 192.0, 1.0, 32.0, 30.0, 192.0, 2.0, 224.0, 0.0, 0.0, 0.0, 1.6878031688710883E9, 0.0, 2023-06-26 13:12:48.871
142.0, 48094.94144856232, 54448.91654836137, 59225.730207649496, 570.8188498996318, -3725.432303599394, -6264.5234184889105, 23575.971850868686, 17046.915536751218, 0.036000000000000004, 0.984, 0.092, 192.0, 0.0, 0.0, 0.0, 0.0, 0.0, 0.0, 0.0, 0.0, 0.0, 1.6878031688750868E9, 0.0, 2023-06-26 13:12:48.875
143.0, 48075.87541054194, 54419.83692882502, 60206.345940392726, 504.6800380563782, -3762.9385307953994, -6347.358983440278, 23502.166390677263, 16958.11205603028, 0.036000000000000004, 0.984, 0.092, 192.0, 0.0, 0.0, 0.0, 0.0, 0.0, 0.0, 0.0, 0.0, 0.0, 1.6878031688791044E9, 0.0, 2023-06-26 13:12:48.879
144.0, 48080.41281466637, 54419.5463561471, 60616.76867208108, 515.2747649281937, -3774.4496791898823, -6367.877884850251, 23512.31408265997, 16974.16060854919, 0.036000000000000004, 0.984, 0.092, 192.0, 0.0, 0.0, 0.0, 0.0, 0.0, 0.0, 0.0, 0.0, 0.0, 1.6878031688832154E9, 0.0, 2023-06-26 13:12:48.883
145.0, 48133.52055949218, 54461.612339211984, 58456.20434954219, 594.6905129778997, -3735.848216515567, -6272.480639515, 23570.04863858803, 17045.306211150433, 0.036000000000000004, 0.984, 0.092, 192.0, 0.0, 0.0, 0.0, 0.0, 0.0, 0.0, 0.0, 0.0, 0.0, 1.68780316888619E9, 0.0, 2023-06-26 13:12:48.886
146.0, 48100.70819863179, 54442.032211069134, 58907.776642772755, 572.5175824782351, -3757.2835394482067, -6223.619726135698, 23599.821162202497, 17064.215786959623, 0.036000000000000004, 0.984, 0.092, 192.0, 0.0, 0.0, 0.0, 0.0, 0.0, 0.0, 0.0, 0.0, 0.0, 1.687803168890196E9, 0.0, 2023-06-26 13:12:48.890
147.0, 48084.145555990406, 54413.377274677434, 60116.67074163804, 502.82484326658766, -3768.4147081869496, -6335.244337945502, 23518.46081238518, 16965.286966000436, 0.036000000000000004, 0.984, 0.092, 192.0, 0.0, 0.0, 0.0, 0.0, 0.0, 0.0, 0.0, 0.0, 0.0, 1.6878031688941987E9, 0.0, 2023-06-26 13:12:48.894
148.0, 48090.53815490463, 54415.94772528979, 60670.39050702936, 512.8831282714758, -3767.654748875469, -6338.373582169245, 23519.31017867448, 16981.69314643063, 0.036000000000000004, 0.984, 0.092, 192.0, 0.0, 0.0, 0.0, 0.0, 0.0, 0.0, 0.0, 0.0, 0.0, 1.6878031688981848E9, 0.0, 2023-06-26 13:12:48.898
149.0, 48144.67407997538, 54460.87473164496, 58840.83316812911, 587.940286152397, -3742.7772572967124, -6253.258139283435, 23551.586097667947, 17038.600687813843, 0.036000000000000004, 0.984, 0.092, 192.0, 0.0, 0.0, 0.0, 0.0, 0.0, 0.0, 0.0, 0.0, 0.0, 1.687803168902214E9, 0.0, 2023-06-26 13:12:48.902
150.0, 48127.44088500034, 54459.62303395546, 58551.512187899614, 599.3396758246035, -3732.1601786804413, -6217.89767955514, 23603.419793059802, 17087.81922910443, 0.036000000000000004, 0.984, 0.092, 192.0, 0.0, 0.0, 0.0, 0.0, 0.0, 0.0, 0.0, 0.0, 0.0, 1.6878031689072058E9, 0.0, 2023-06-26 13:12:48.907
151.0, 48096.03668404063, 54423.61437363796, 60030.88474641857, 522.0473434981518, -3788.9336095969215, -6320.112206949259, 23542.108958018896, 16991.63967271324, 0.036000000000000004, 0.984, 0.092, 192.0, 0.0, 0.0, 0.0, 0.0, 0.0, 0.0, 0.0, 0.0, 0.0, 1.6878031689112403E9, 0.0, 2023-06-26 13:12:48.911
