%OpenBCI Raw EEG Data
%Number of channels = 8
%Sample Rate = 250 Hz
%Board = OpenBCI_GUI$BoardCytonSerial
Sample Index, EXG Channel 0, EXG Channel 1, EXG Channel 2, EXG Channel 3, EXG Channel 4, EXG Channel 5, EXG Channel 6, EXG Channel 7, Accel Channel 0, Accel Channel 1, Accel Channel 2, Other, Other, Other, Other, Other, Other, Other, Analog Channel 0, Analog Channel 1, Analog Channel 2, Timestamp, Other, Timestamp (Formatted)
69.0, 48159.69445224934, 54318.56117469802, 60882.46385842131, 601.6642572479556, -3686.5179165027043, -6221.295144712347, 23576.91062413581, 17159.277756128045, 0.0, 0.0, 0.0, 192.0, 0.0, 0.0, 0.0, 0.0, 0.0, 0.0, 0.0, 0.0, 0.0, 1.6878032051716585E9, 0.0, 2023-06-26 13:13:25.171
70.0, 48172.5690570556, 54329.58058471449, 60678.61594898891, 623.0772284361396, -3667.4518784823276, -6201.402092147123, 23586.94655739624, 17178.656718570797, 0.0, 0.0, 0.0, 192.0, 0.0, 0.0, 0.0, 0.0, 0.0, 0.0, 0.0, 0.0, 0.0, 1.68780320517169E9, 0.0, 2023-06-26 13:13:25.171
71.0, 48220.40179018996, 54374.015852691635, 59139.07249439627, 683.5386971877452, -3636.382953689451, -6138.481931505434, 23610.61705477441, 17224.567201681995, 0.032, 0.984, 0.066, 192.0, 1.0, 0.0, 30.0, 192.0, 2.0, 16.0, 0.0, 0.0, 0.0, 1.687803205171708E9, 0.0, 2023-06-26 13:13:25.171
72.0, 48202.006304503244, 54373.54646605808, 59182.23371293947, 702.5376799747563, -3603.637648062426, -6108.552945679778, 23662.696619355276, 17284.291062866578, 0.032, 0.984, 0.066, 192.0, 0.0, 0.0, 0.0, 0.0, 0.0, 0.0, 0.0, 0.0, 0.0, 1.6878032051717267E9, 0.0, 2023-06-26 13:13:25.171
73.0, 48152.60894925701, 54313.330866495475, 60970.663842041955, 598.6244200020337, -3688.909553159422, -6218.411769677612, 23573.58021421197, 17165.715058531172, 0.032, 0.984, 0.066, 192.0, 0.0, 0.0, 0.0, 0.0, 0.0, 0.0, 0.0, 0.0, 0.0, 1.6878032051717455E9, 0.0, 2023-06-26 13:13:25.171
77.0, 48171.183248899375, 54326.18311955728, 60080.84089527618, 670.9770168038627, -3646.374183460973, -6145.410972286579, 23640.6801510668, 17257.312507309023, 0.032, 0.984, 0.066, 192.0, 0.0, 0.0, 0.0, 0.0, 0.0, 0.0, 0.0, 0.0, 0.0, 1.6878032051717637E9, 0.0, 2023-06-26 13:13:25.171
0.0, 0.0, 0.0, 0.0, 0.0, 0.0, 0.0, 0.0, 0.0, 0.03, 0.984, 0.084, 192.0, 0.0, 240.0, 30.0, 192.0, 2.0, 160.0, 0.0, 0.0, 0.0, 1.6878032051717813E9, 0.0, 2023-06-26 13:13:25.171
0.0, 0.0, 0.0, 0.0, 0.0, 0.0, 0.0, 0.0, 0.0, 0.03, 0.984, 0.084, 195.0, 0.0, 0.0, 0.0, 12.0, 127.0, 227.0, 0.0, 0.0, 0.0, 1.6878032051717973E9, 0.0, 2023-06-26 13:13:25.171
0.0, 0.0, 0.0, 0.0, 0.0, 0.0, 0.0, 0.0, 0.0, 0.03, 0.984, 0.084, 196.0, 0.0, 0.0, 0.0, 12.0, 214.0, 208.0, 0.0, 0.0, 0.0, 1.6878032052722397E9, 0.0, 2023-06-26 13:13:25.272
1.0, 48344.677489361464, 54705.961609597405, 66356.87546215957, 757.3665091236245, -3177.523991766452, -5957.745725839821, 23908.543456619198, 17200.606131625907, 0.03, 0.984, 0.084, 196.0, 0.0, 0.0, 0.0, 12.0, 214.0, 223.0, 0.0, 0.0, 0.0, 1.6878032052932413E9, 0.0, 2023-06-26 13:13:25.293
2.0, 48244.7875433907, 54607.1892508494, 69091.27612009956, 628.2851848942262, -3293.775414678504, -6062.083668957194, 23812.945045583852, 17094.681214652206, 0.03, 0.984, 0.084, 196.0, 0.0, 0.0, 0.0, 12.0, 214.0, 227.0, 0.0, 0.0, 0.0, 1.6878032052972548E9, 0.0, 2023-06-26 13:13:25.297
3.0, 48207.43777840588, 54570.15241028696, 70630.48429852538, 578.4854982478021, -3351.554674095473, -6075.874695286119, 23761.60308857001, 17055.297440921957, 0.03, 0.984, 0.084, 196.0, 0.0, 0.0, 0.0, 12.0, 214.0, 230.0, 0.0, 0.0, 0.0, 1.6878032053002636E9, 0.0, 2023-06-26 13:13:25.300
4.0, 48310.03228545574, 54671.31640569168, 67756.25112727299, 694.8039763932201, -3273.345920246353, -5943.84294078862, 23835.922638883905, 17157.400209593798, 0.03, 0.984, 0.084, 196.0, 0.0, 0.0, 0.0, 12.0, 214.0, 234.0, 0.0, 0.0, 0.0, 1.6878032053032565E9, 0.0, 2023-06-26 13:13:25.303
5.0, 48334.17216946747, 54696.03743505925, 66156.55912835112, 766.7542417948534, -3222.652163821717, -5919.278373632237, 23906.665910084954, 17212.98899805415, 0.03, 0.984, 0.084, 196.0, 0.0, 0.0, 0.0, 12.0, 214.0, 238.0, 0.0, 0.0, 0.0, 1.6878032053072796E9, 0.0, 2023-06-26 13:13:25.307
6.0, 48274.31419781616, 54650.61869032606, 68570.0334394018, 676.6543598955107, -3273.301216757443, -6071.002014994862, 23843.566935487623, 17111.132098571314, 0.03, 0.984, 0.084, 196.0, 0.0, 0.0, 0.0, 12.0, 214.0, 242.0, 0.0, 0.0, 0.0, 1.687803205310292E9, 0.0, 2023-06-26 13:13:25.310
7.0, 48237.99261307628, 54601.48955601329, 70745.5957824702, 626.7205627823547, -3325.090208660389, -6041.318898358214, 23801.61271114501, 17079.772601100518, 0.03, 0.984, 0.084, 196.0, 255.0, 224.0, 0.0, 12.0, 214.0, 246.0, 0.0, 0.0, 0.0, 1.6878032053133166E9, 0.0, 2023-06-26 13:13:25.313
8.0, 48301.002180695796, 54660.364050908574, 68361.60342235607, 700.9060026295189, -3308.773435208015, -5991.429804733969, 23820.14230729846, 17128.09707261289, 0.03, 0.984, 0.084, 196.0, 30.0, 208.0, 0.0, 12.0, 214.0, 250.0, 0.0, 0.0, 0.0, 1.6878032053173387E9, 0.0, 2023-06-26 13:13:25.317
9.0, 48342.442314915934, 54705.961609597405, 66105.1501161039, 765.4578406164457, -3225.848463278826, -5940.98191749834, 23896.317052402148, 17208.004559040615, 0.03, 0.984, 0.084, 196.0, 3.0, 16.0, 0.0, 12.0, 214.0, 254.0, 0.0, 0.0, 0.0, 1.6878032053203485E9, 0.0, 2023-06-26 13:13:25.320
10.0, 48265.17233433394, 54640.448646598896, 67960.05433321647, 694.289886270748, -3281.7054726726383, -6032.3111453427255, 23864.130540386504, 17136.3448663169, 0.03, 0.984, 0.084, 196.0, 0.0, 0.0, 0.0, 12.0, 215.0, 2.0, 0.0, 0.0, 0.0, 1.6878032053253791E9, 0.0, 2023-06-26 13:13:25.325
11.0, 48206.744874327764, 54573.43811672189, 70616.98384487437, 583.6263994725227, -3400.348532241408, -6129.965916867962, 23789.81099007261, 17066.942699783172, 0.03, 0.984, 0.084, 196.0, 0.0, 0.0, 0.0, 12.0, 215.0, 6.0, 0.0, 0.0, 0.0, 1.6878032053293896E9, 0.0, 2023-06-26 13:13:25.329
12.0, 48299.97400045085, 54657.43597238493, 68969.48146456259, 719.4132470385131, -3292.9931036225685, -5985.484240708857, 23855.77098796022, 17159.3001078725, 0.03, 0.984, 0.084, 196.0, 0.0, 0.0, 0.0, 12.0, 215.0, 10.0, 0.0, 0.0, 0.0, 1.6878032053334463E9, 0.0, 2023-06-26 13:13:25.333
13.0, 48353.10409702112, 54714.902307379525, 66173.03236401467, 819.9513935984843, -3238.54425412944, -5886.197791838383, 23944.082730303136, 17253.155082840334, 0.03, 0.984, 0.084, 196.0, 0.0, 0.0, 0.0, 12.0, 215.0, 14.0, 0.0, 0.0, 0.0, 1.6878032053364527E9, 0.0, 2023-06-26 13:13:25.336
14.0, 48283.36665432056, 54661.213417197876, 67402.1100881231, 688.2325635233598, -3259.487838684063, -6007.858336908619, 23882.280156884215, 17163.368125363366, 0.03, 0.984, 0.084, 196.0, 0.0, 0.0, 0.0, 12.0, 215.0, 18.0, 0.0, 0.0, 0.0, 1.6878032053398173E9, 0.0, 2023-06-26 13:13:25.339
15.0, 48209.002400517755, 54582.69173892638, 70356.98835337024, 603.8994316934862, -3329.8287784849144, -6078.668663343033, 23793.163751740904, 17081.828961590407, 0.03, 0.984, 0.084, 196.0, 0.0, 0.0, 0.0, 12.0, 215.0, 22.0, 0.0, 0.0, 0.0, 1.6878032053434472E9, 0.0, 2023-06-26 13:13:25.343
16.0, 48273.50953501577, 54635.73242851883, 69487.86312197008, 692.9934850923402, -3307.0299991405013, -6028.131369129583, 23808.85467634853, 17123.71613069965, 0.03, 0.984, 0.084, 196.0, 0.0, 0.0, 0.0, 12.0, 215.0, 26.0, 0.0, 0.0, 0.0, 1.6878032053504846E9, 0.0, 2023-06-26 13:13:25.350
17.0, 48356.94859706743, 54721.07138884919, 66348.3594475221, 808.5520039262777, -3239.907710541214, -5930.990687726819, 23894.193636678894, 17228.07642556148, 0.03, 0.984, 0.084, 196.0, 255.0, 176.0, 0.0, 12.0, 215.0, 30.0, 0.0, 0.0, 0.0, 1.6878032053545191E9, 0.0, 2023-06-26 13:13:25.354
18.0, 48317.296602403716, 54692.28234199075, 66904.2920356145, 744.8718839731079, -3244.623928621284, -5950.74962982531, 23901.45795362687, 17183.127067461857, 0.03, 0.984, 0.084, 196.0, 31.0, 96.0, 0.0, 12.0, 215.0, 34.0, 0.0, 0.0, 0.0, 1.6878032053575275E9, 0.0, 2023-06-26 13:13:25.357
19.0, 48227.71081062684, 54607.85980318306, 69973.54417723944, 647.8876647815305, -3331.7957319969814, -6067.693956815477, 23824.031510833684, 17100.045633321482, 0.03, 0.984, 0.084, 196.0, 3.0, 144.0, 0.0, 12.0, 215.0, 38.0, 0.0, 0.0, 0.0, 1.6878032053605225E9, 0.0, 2023-06-26 13:13:25.360
20.0, 48245.52515095773, 54611.078454384624, 69966.27986029147, 662.0363190217399, -3343.1727699247326, -6059.714384044932, 23792.359088940513, 17096.312891997444, 0.03, 0.984, 0.084, 196.0, 0.0, 0.0, 0.0, 12.0, 215.0, 42.0, 0.0, 0.0, 0.0, 1.687803205364562E9, 0.0, 2023-06-26 13:13:25.364
21.0, 48338.888387547544, 54698.96551358289, 66672.19152119059, 796.6385241315991, -3253.5646264034067, -5926.989725469319, 23886.01289820825, 17213.59249515444, 0.03, 0.984, 0.084, 196.0, 0.0, 0.0, 0.0, 12.0, 215.0, 46.0, 0.0, 0.0, 0.0, 1.6878032053675773E9, 0.0, 2023-06-26 13:13:25.367
22.0, 48323.46568387338, 54694.830440858655, 66478.11132408516, 760.1604771805379, -3231.97284125958, -5937.293879663215, 23904.229569939325, 17212.229038742666, 0.03, 0.984, 0.084, 196.0, 0.0, 0.0, 0.0, 12.0, 215.0, 50.0, 0.0, 0.0, 0.0, 1.6878032053715868E9, 0.0, 2023-06-26 13:13:25.371
23.0, 48236.80797062015, 54611.52548927373, 69520.58607585264, 656.8283625636534, -3328.331211606409, -6042.905872214541, 23818.19770553085, 17108.71811017014, 0.03, 0.984, 0.084, 196.0, 0.0, 0.0, 0.0, 12.0, 215.0, 54.0, 0.0, 0.0, 0.0, 1.6878032053755937E9, 0.0, 2023-06-26 13:13:25.375
24.0, 48224.179235002906, 54589.88900064099, 70412.46538310831, 645.0489932357066, -3374.644026117805, -6069.39268939408, 23776.22112944378, 17072.24006321908, 0.03, 0.984, 0.084, 196.0, 0.0, 0.0, 0.0, 12.0, 215.0, 58.0, 0.0, 0.0, 0.0, 1.687803205379641E9, 0.0, 2023-06-26 13:13:25.379
25.0, 48327.53370136425, 54692.21528675739, 67210.39917592992, 783.3839396696019, -3275.335225502876, -5962.953682297908, 23866.276307854216, 17196.135782734847, 0.03, 0.984, 0.084, 196.0, 0.0, 0.0, 0.0, 12.0, 215.0, 62.0, 0.0, 0.0, 0.0, 1.6878032053846605E9, 0.0, 2023-06-26 13:13:25.384
26.0, 48335.71443983489, 54707.92856310947, 66194.08770729158, 784.5238786368226, -3228.8883005247476, -5959.332699696148, 23914.19844796639, 17226.623562171884, 0.03, 0.984, 0.084, 196.0, 0.0, 0.0, 0.0, 12.0, 215.0, 66.0, 0.0, 0.0, 0.0, 1.68780320538767E9, 0.0, 2023-06-26 13:13:25.387
27.0, 48245.413392235445, 54623.595431279595, 68994.22484567462, 668.2948074692258, -3309.3098770749425, -6055.266386898325, 23836.168508072915, 17117.971732374637, 0.03, 0.984, 0.084, 196.0, 255.0, 240.0, 0.0, 12.0, 215.0, 70.0, 0.0, 0.0, 0.0, 1.6878032053916755E9, 0.0, 2023-06-26 13:13:25.391
28.0, 48217.07138026612, 54586.22331455032, 70624.85165892263, 635.5047983532904, -3370.687767349216, -6059.803791022753, 23784.446571403336, 17085.472295936623, 0.03, 0.984, 0.084, 196.0, 31.0, 96.0, 0.0, 12.0, 215.0, 74.0, 0.0, 0.0, 0.0, 1.6878032053967004E9, 0.0, 2023-06-26 13:13:25.396
29.0, 48306.456006342894, 54667.31544343418, 67750.95376383708, 747.867017730119, -3311.9473829206686, -5966.932292810952, 23842.47170000931, 17174.991032480124, 0.03, 0.984, 0.084, 196.0, 3.0, 240.0, 0.0, 12.0, 215.0, 78.0, 0.0, 0.0, 0.0, 1.6878032053997383E9, 0.0, 2023-06-26 13:13:25.399
30.0, 48328.89715777602, 54697.5126501933, 66019.31941739553, 776.2984366772696, -3306.202984595655, -5974.487182436846, 23920.680453858433, 17237.978248355183, 0.03, 0.984, 0.084, 196.0, 0.0, 0.0, 0.0, 12.0, 215.0, 82.0, 0.0, 0.0, 0.0, 1.6878032054037569E9, 0.0, 2023-06-26 13:13:25.403
31.0, 48237.813799120646, 54616.30876258716, 68440.61683900557, 661.1422492435277, -3337.9871652111015, -6079.875657543619, 23859.235508350794, 17139.45175879619, 0.03, 0.984, 0.084, 196.0, 0.0, 0.0, 0.0, 12.0, 215.0, 86.0, 0.0, 0.0, 0.0, 1.6878032054077785E9, 0.0, 2023-06-26 13:13:25.407
32.0, 48195.18902244437, 54570.86766610952, 70718.48311644592, 624.0383534477179, -3329.649964529272, -6025.6726772394995, 23773.404809642412, 17066.85329280535, 0.03, 0.984, 0.084, 196.0, 0.0, 0.0, 0.0, 12.0, 215.0, 90.0, 0.0, 0.0, 0.0, 1.6878032054128375E9, 0.0, 2023-06-26 13:13:25.412
33.0, 48291.010950924276, 54656.56425435117, 68403.2000187874, 739.6862792594766, -3265.902789342736, -5946.79337105672, 23814.91199909592, 17149.085360656423, 0.03, 0.984, 0.084, 196.0, 0.0, 0.0, 0.0, 12.0, 215.0, 94.0, 0.0, 0.0, 0.0, 1.6878032054168093E9, 0.0, 2023-06-26 13:13:25.416
34.0, 48338.687221847445, 54710.72253116638, 66006.40010910036, 809.7142946379537, -3196.6570850201947, -5885.236666826805, 23914.243151455303, 17239.632277444874, 0.03, 0.984, 0.084, 196.0, 0.0, 0.0, 0.0, 12.0, 215.0, 98.0, 0.0, 0.0, 0.0, 1.687803205419808E9, 0.0, 2023-06-26 13:13:25.419
35.0, 48259.65145345348, 54643.15320767799, 67863.49479716955, 699.5648979622005, -3264.896960842247, -5998.448252492935, 23849.66896172392, 17146.00081992159, 0.03, 0.984, 0.084, 196.0, 0.0, 0.0, 0.0, 12.0, 215.0, 102.0, 0.0, 0.0, 0.0, 1.6878032054268813E9, 0.0, 2023-06-26 13:13:25.426
36.0, 48193.66910382141, 54575.06979406712, 70627.69033046847, 622.8537109915866, -3358.1037352208778, -6071.069070228228, 23780.42325740138, 17077.246853977067, 0.03, 0.984, 0.084, 196.0, 0.0, 0.0, 0.0, 12.0, 215.0, 106.0, 0.0, 0.0, 0.0, 1.6878032054308825E9, 0.0, 2023-06-26 13:13:25.430
37.0, 48274.31419781616, 54640.582757065626, 69020.75636634306, 709.7349416893652, -3324.5761185379174, -6016.553165501734, 23812.274493250192, 17131.941572659205, 0.03, 0.984, 0.084, 196.0, 0.0, 48.0, 0.0, 12.0, 215.0, 110.0, 0.0, 0.0, 0.0, 1.687803205433896E9, 0.0, 2023-06-26 13:13:25.433
38.0, 48339.581291625655, 54709.15790905451, 66123.67971225736, 812.798835372786, -3227.5024923685187, -5897.485422788313, 23913.416136910455, 17242.42624550179, 0.03, 0.984, 0.084, 196.0, 31.0, 96.0, 0.0, 12.0, 215.0, 114.0, 0.0, 0.0, 0.0, 1.6878032054369032E9, 0.0, 2023-06-26 13:13:25.436
39.0, 48286.45119505539, 54667.94129227893, 67316.391148137, 732.6454797560549, -3250.7036031131274, -5971.447345190924, 23886.86226449755, 17178.232035426146, 0.03, 0.984, 0.084, 196.0, 3.0, 240.0, 0.0, 12.0, 215.0, 118.0, 0.0, 0.0, 0.0, 1.6878032054399107E9, 0.0, 2023-06-26 13:13:25.439
40.0, 48197.804176545644, 54580.680081925406, 70359.71526619379, 631.1015046955949, -3348.604243827372, -6073.147782462572, 23799.28812972166, 17080.219635989622, 0.03, 0.984, 0.084, 196.0, 0.0, 0.0, 0.0, 12.0, 215.0, 122.0, 0.0, 0.0, 0.0, 1.6878032054439158E9, 0.0, 2023-06-26 13:13:25.443
41.0, 48240.54071194419, 54609.983218906316, 69611.35651008565, 681.2364675088487, -3346.1008484483777, -6024.95742141693, 23797.365879698504, 17103.845429878882, 0.03, 0.984, 0.084, 196.0, 0.0, 0.0, 0.0, 12.0, 215.0, 126.0, 0.0, 0.0, 0.0, 1.6878032054479525E9, 0.0, 2023-06-26 13:13:25.447
42.0, 48327.39959089751, 54695.29982749222, 66391.11833466511, 798.8066433437638, -3240.131227985767, -5908.348370593592, 23898.127543703027, 17221.102681291424, 0.03, 0.984, 0.084, 196.0, 0.0, 0.0, 0.0, 12.0, 215.0, 130.0, 0.0, 0.0, 0.0, 1.6878032054519632E9, 0.0, 2023-06-26 13:13:25.451
43.0, 48286.42884331094, 54666.33196667814, 66857.26396528054, 734.4336193124794, -3242.098181497834, -5962.774868342265, 23895.512389601754, 17182.523570361565, 0.03, 0.984, 0.084, 196.0, 0.0, 0.0, 0.0, 12.0, 215.0, 134.0, 0.0, 0.0, 0.0, 1.6878032054549873E9, 0.0, 2023-06-26 13:13:25.454
44.0, 48205.44847314936, 54585.88803838349, 70001.75207874204, 629.2239581613492, -3328.5323773065065, -6069.549151605267, 23808.742917626252, 17095.687043152695, 0.03, 0.984, 0.084, 196.0, 0.0, 0.0, 0.0, 12.0, 215.0, 138.0, 0.0, 0.0, 0.0, 1.6878032054590173E9, 0.0, 2023-06-26 13:13:25.459
45.0, 48230.10244728356, 54596.99685537778, 70114.27076033005, 651.5757026166561, -3354.683918319216, -6064.788230036286, 23785.608862115012, 17099.173915287724, 0.03, 0.984, 0.084, 196.0, 0.0, 0.0, 0.0, 12.0, 215.0, 142.0, 0.0, 0.0, 0.0, 1.6878032054630332E9, 0.0, 2023-06-26 13:13:25.463
46.0, 48313.07212270166, 54674.57976038215, 66803.39626114324, 767.5365528507892, -3262.1253445297893, -5934.321097650659, 23882.30250862867, 17208.78687009655, 0.03, 0.984, 0.084, 196.0, 0.0, 0.0, 0.0, 12.0, 215.0, 146.0, 0.0, 0.0, 0.0, 1.6878032054680274E9, 0.0, 2023-06-26 13:13:25.468
47.0, 48302.052712685196, 54677.373728439066, 66486.35911778916, 752.6502910435547, -3231.25758543701, -5929.493120848313, 23907.4929246298, 17206.2611229731, 0.03, 0.984, 0.084, 196.0, 0.0, 16.0, 0.0, 12.0, 215.0, 150.0, 0.0, 0.0, 0.0, 1.6878032054730773E9, 0.0, 2023-06-26 13:13:25.473
48.0, 48204.9790865158, 54587.60912270655, 69550.49270993385, 629.8274552616424, -3313.1096736323448, -6056.182808420994, 23826.4231474904, 17097.877514109317, 0.03, 0.984, 0.084, 196.0, 31.0, 0.0, 0.0, 12.0, 215.0, 154.0, 0.0, 0.0, 0.0, 1.6878032054760838E9, 0.0, 2023-06-26 13:13:25.476
49.0, 48192.03742647618, 54563.066907294626, 70513.94230293541, 617.422237088947, -3369.838401059914, -6066.621073081622, 23783.016059758196, 17065.66865034922, 0.03, 0.984, 0.084, 196.0, 4.0, 0.0, 0.0, 12.0, 215.0, 158.0, 0.0, 0.0, 0.0, 1.6878032054821124E9, 0.0, 2023-06-26 13:13:25.482
50.0, 48298.99052369482, 54662.174542209454, 67328.66225584297, 755.6454248005658, -3259.0184520505018, -5927.436760358425, 23881.944880717383, 17188.513837875587, 0.03, 0.984, 0.084, 196.0, 0.0, 0.0, 0.0, 12.0, 215.0, 162.0, 0.0, 0.0, 0.0, 1.6878032054862409E9, 0.0, 2023-06-26 13:13:25.486
51.0, 48315.396704125014, 54689.75659486731, 66197.99926257125, 768.8553057736524, -3206.223631647066, -5916.17148115295, 23941.378169224045, 17233.530251208576, 0.03, 0.984, 0.084, 196.0, 0.0, 0.0, 0.0, 12.0, 215.0, 166.0, 0.0, 0.0, 0.0, 1.6878032054901967E9, 0.0, 2023-06-26 13:13:25.490
52.0, 48227.64375539348, 54610.29614332869, 68982.42312460222, 653.1403247285277, -3272.2059812791326, -6030.634764508577, 23867.662116010444, 17135.11552037186, 0.03, 0.984, 0.084, 196.0, 0.0, 0.0, 0.0, 12.0, 215.0, 170.0, 0.0, 0.0, 0.0, 1.687803205493197E9, 0.0, 2023-06-26 13:13:25.493
53.0, 48199.86053703553, 54573.86279986654, 70713.5433809213, 626.5864523156229, -3339.0824006894113, -6051.555997318745, 23808.09471703705, 17087.23808374859, 0.03, 0.984, 0.084, 196.0, 0.0, 0.0, 0.0, 12.0, 215.0, 174.0, 0.0, 0.0, 0.0, 1.6878032054961772E9, 0.0, 2023-06-26 13:13:25.496
54.0, 48290.36275033507, 54653.12208570506, 67897.13417257478, 737.9204914475074, -3275.0223010805016, -5954.8847025495415, 23866.34336308758, 17174.745163291118, 0.03, 0.984, 0.084, 196.0, 0.0, 0.0, 0.0, 12.0, 215.0, 178.0, 0.0, 0.0, 0.0, 1.687803205502205E9, 0.0, 2023-06-26 13:13:25.502
55.0, 48315.262593658284, 54683.229885486355, 66064.6934586398, 774.3761866541132, -3215.7678265294826, -5908.616591527056, 23931.83397434163, 17231.719759907694, 0.03, 0.984, 0.084, 196.0, 0.0, 0.0, 0.0, 12.0, 215.0, 182.0, 0.0, 0.0, 0.0, 1.6878032055072284E9, 0.0, 2023-06-26 13:13:25.507
56.0, 48230.97416531732, 54606.76456770475, 68431.11734761207, 665.4337841789466, -3278.0621383264233, -6032.24409010936, 23864.175243875416, 17131.025151136535, 0.03, 0.984, 0.084, 196.0, 0.0, 0.0, 0.0, 12.0, 215.0, 186.0, 0.0, 0.0, 0.0, 1.687803205511244E9, 0.0, 2023-06-26 13:13:25.511
57.0, 48180.99566471525, 54551.533407155686, 70801.18457093055, 608.1015596510839, -3369.413717915263, -6105.06607354475, 23784.93830978135, 17059.879548535293, 0.03, 0.984, 0.084, 196.0, 255.0, 80.0, 0.0, 12.0, 215.0, 190.0, 0.0, 0.0, 0.0, 1.6878032055142446E9, 0.0, 2023-06-26 13:13:25.514
58.0, 48270.91673265895, 54629.18336739342, 68541.49026173238, 715.4569882699237, -3320.932784191702, -5989.619313433089, 23825.417318989912, 17137.216584350655, 0.03, 0.984, 0.084, 196.0, 30.0, 224.0, 0.0, 12.0, 215.0, 194.0, 0.0, 0.0, 0.0, 1.6878032055182726E9, 0.0, 2023-06-26 13:13:25.518
59.0, 48326.796093797224, 54691.07534779017, 66074.52822620014, 792.2799339628142, -3239.9971175190353, -5902.5816205241235, 23919.58521838012, 17239.632277444874, 0.03, 0.984, 0.084, 196.0, 4.0, 0.0, 0.0, 12.0, 215.0, 198.0, 0.0, 0.0, 0.0, 1.6878032055213032E9, 0.0, 2023-06-26 13:13:25.521
60.0, 48258.2432935528, 54630.5468238052, 67886.60650093634, 692.4346914809574, -3297.798728680459, -6022.588136504667, 23871.976002690317, 17150.314706601468, 0.03, 0.984, 0.084, 196.0, 0.0, 0.0, 0.0, 12.0, 215.0, 202.0, 0.0, 0.0, 0.0, 1.6878032055243442E9, 0.0, 2023-06-26 13:13:25.524
61.0, 48184.79546127265, 54555.46731417982, 70688.53177887581, 612.5719085421454, -3365.6362731023164, -6092.258523971859, 23783.686612091853, 17067.255624205547, 0.03, 0.984, 0.084, 196.0, 0.0, 0.0, 0.0, 12.0, 215.0, 206.0, 0.0, 0.0, 0.0, 1.687803205527342E9, 0.0, 2023-06-26 13:13:25.527
62.0, 48249.36965100404, 54604.8870211705, 69160.90180407785, 690.1548135465162, -3334.3438308648865, -6008.461834008913, 23798.148190754437, 17113.926066628228, 0.03, 0.984, 0.084, 196.0, 0.0, 0.0, 0.0, 12.0, 215.0, 210.0, 0.0, 0.0, 0.0, 1.6878032055323455E9, 0.0, 2023-06-26 13:13:25.532
63.0, 48323.62214608457, 54684.68274887595, 66191.40549795693, 795.7444543533867, -3225.759056301005, -5894.35617856457, 23907.15764846297, 17234.513727964608, 0.03, 0.984, 0.084, 196.0, 0.0, 0.0, 0.0, 12.0, 215.0, 214.0, 0.0, 0.0, 0.0, 1.687803205536368E9, 0.0, 2023-06-26 13:13:25.536
64.0, 48268.301578557686, 54641.5438820772, 67325.53301161922, 708.1703195774936, -3253.4081641922194, -5987.250028520826, 23874.993488191783, 17169.313689388477, 0.03, 0.984, 0.084, 196.0, 0.0, 0.0, 0.0, 12.0, 215.0, 218.0, 0.0, 0.0, 0.0, 1.687803205539379E9, 0.0, 2023-06-26 13:13:25.539
65.0, 48183.543763583155, 54555.53436941319, 70404.26229289321, 607.810986973165, -3350.459438617163, -6109.312904991259, 23806.261873991716, 17084.779391858505, 0.03, 0.984, 0.084, 196.0, 0.0, 0.0, 0.0, 12.0, 215.0, 222.0, 0.0, 0.0, 0.0, 1.6878032055433967E9, 0.0, 2023-06-26 13:13:25.543
66.0, 48229.43189494991, 54591.61008496405, 69734.8051947123, 669.8594295810974, -3333.963851209146, -6009.8252904206865, 23812.632121161478, 17109.61217994835, 0.03, 0.984, 0.084, 196.0, 0.0, 0.0, 0.0, 12.0, 215.0, 226.0, 0.0, 0.0, 0.0, 1.687803205547431E9, 0.0, 2023-06-26 13:13:25.547
67.0, 48322.549262350716, 54685.174487253964, 66463.98502158941, 794.5374601528001, -3227.524844112974, -5888.92470466193, 23913.192619465903, 17232.211498285713, 0.03, 0.984, 0.084, 196.0, 255.0, 96.0, 0.0, 12.0, 215.0, 230.0, 0.0, 0.0, 0.0, 1.687803205551438E9, 0.0, 2023-06-26 13:13:25.551
68.0, 48283.254895598286, 54655.62548108405, 66845.05991280793, 730.8126367107197, -3235.4373616501525, -5956.516379894779, 23901.904988515973, 17191.196047210222, 0.03, 0.984, 0.084, 196.0, 30.0, 240.0, 0.0, 12.0, 215.0, 234.0, 0.0, 0.0, 0.0, 1.6878032055554817E9, 0.0, 2023-06-26 13:13:25.555
69.0, 48183.43200486088, 54559.73649737078, 70013.86672423682, 611.8790044640308, -3322.966792937135, -6075.561770863745, 23808.005310059227, 17075.03403127599, 0.03, 0.984, 0.084, 196.0, 4.0, 32.0, 0.0, 12.0, 215.0, 238.0, 0.0, 0.0, 0.0, 1.6878032055604868E9, 0.0, 2023-06-26 13:13:25.560
70.0, 48199.79348180217, 54563.60334916155, 70211.05381382153, 626.3629348710698, -3361.0094620000677, -6079.24980869887, 23793.879007563475, 17087.506304682054, 0.03, 0.984, 0.084, 196.0, 0.0, 0.0, 0.0, 12.0, 215.0, 242.0, 0.0, 0.0, 0.0, 1.687803205564514E9, 0.0, 2023-06-26 13:13:25.564
71.0, 48300.33162836214, 54656.608957840086, 66881.42620103672, 760.6969190474653, -3259.8007631064374, -5914.048065429695, 23897.63580532501, 17215.69355913324, 0.03, 0.984, 0.084, 196.0, 0.0, 0.0, 0.0, 12.0, 215.0, 246.0, 0.0, 0.0, 0.0, 1.6878032055685377E9, 0.0, 2023-06-26 13:13:25.568
72.0, 48287.68054100043, 54655.35726015059, 66482.82754216524, 744.4695525729123, -3208.749378770516, -5917.937268964919, 23921.17219223645, 17209.010387541104, 0.03, 0.984, 0.084, 196.0, 0.0, 0.0, 0.0, 12.0, 215.0, 250.0, 0.0, 0.0, 0.0, 1.6878032055735703E9, 0.0, 2023-06-26 13:13:25.573
73.0, 48198.69824632386, 54572.924026599416, 69540.72499760689, 627.6593360494776, -3308.6616764857386, -6048.717325772921, 23837.375502273502, 17103.376043245324, 0.03, 0.984, 0.084, 196.0, 0.0, 0.0, 0.0, 12.0, 215.0, 254.0, 0.0, 0.0, 0.0, 1.6878032055775871E9, 0.0, 2023-06-26 13:13:25.577
74.0, 48192.238592176276, 54554.28267172369, 70554.19779469942, 621.8031790021872, -3356.5614648534615, -6061.4801718569015, 23792.649661618434, 17071.591862629874, 0.03, 0.984, 0.084, 196.0, 0.0, 0.0, 0.0, 12.0, 216.0, 2.0, 0.0, 0.0, 0.0, 1.6878032055806098E9, 0.0, 2023-06-26 13:13:25.580
75.0, 48295.70481725989, 54646.41656236846, 67371.86817787506, 750.772744509309, -3263.3099869859207, -5942.211263443382, 23873.96530794684, 17179.34962264891, 0.03, 0.984, 0.084, 196.0, 0.0, 0.0, 0.0, 12.0, 216.0, 6.0, 0.0, 0.0, 0.0, 1.6878032055856116E9, 0.0, 2023-06-26 13:13:25.585
76.0, 48308.825291255154, 54669.99765276881, 66179.8272943291, 762.4850586038898, -3213.420893361675, -5924.486330090324, 23923.899105059994, 17216.11824227789, 0.03, 0.984, 0.084, 196.0, 0.0, 0.0, 0.0, 12.0, 216.0, 10.0, 0.0, 0.0, 0.0, 1.6878032055896456E9, 0.0, 2023-06-26 13:13:25.589
77.0, 48221.29585996817, 54591.09599484158, 68939.95481013713, 641.2715484227597, -3293.4401385116744, -6050.170189162515, 23850.540679757676, 17111.44502299369, 0.03, 0.984, 0.084, 196.0, 254.0, 96.0, 0.0, 12.0, 216.0, 14.0, 0.0, 0.0, 0.0, 1.687803205592668E9, 0.0, 2023-06-26 13:13:25.592
78.0, 48191.99272298726, 54556.204921746845, 70726.99913108339, 614.8517864765867, -3361.836476544914, -6069.750317305365, 23794.683670363866, 17065.400429415757, 0.03, 0.984, 0.084, 196.0, 30.0, 192.0, 0.0, 12.0, 216.0, 18.0, 0.0, 0.0, 0.0, 1.6878032055956695E9, 0.0, 2023-06-26 13:13:25.595
79.0, 48290.34039859062, 54645.03075421223, 67969.03973448751, 739.4404100704683, -3291.3837780217864, -5958.773906084765, 23854.4298832929, 17158.87542472785, 0.03, 0.984, 0.084, 196.0, 4.0, 32.0, 0.0, 12.0, 216.0, 22.0, 0.0, 0.0, 0.0, 1.6878032055996811E9, 0.0, 2023-06-26 13:13:25.599
80.0, 48315.15083493601, 54678.98305403985, 66060.02194404864, 776.4101953995462, -3226.0272772344683, -5919.45718758788, 23923.362663193067, 17220.07450104648, 0.03, 0.984, 0.084, 196.0, 0.0, 0.0, 0.0, 12.0, 216.0, 26.0, 0.0, 0.0, 0.0, 1.6878032056037092E9, 0.0, 2023-06-26 13:13:25.603
81.0, 48235.556272930655, 54611.54784101818, 68396.51684719525, 663.0197957777734, -3281.6384174392724, -6023.281040582781, 23861.448331051866, 17123.090281854904, 0.03, 0.984, 0.084, 196.0, 0.0, 0.0, 0.0, 12.0, 216.0, 30.0, 0.0, 0.0, 0.0, 1.687803205607724E9, 0.0, 2023-06-26 13:13:25.607
82.0, 48195.501946866745, 54568.47602945281, 70788.33231786876, 618.6739347784442, -3348.581892082917, -6072.834858040197, 23800.04808903314, 17072.977670786106, 0.03, 0.984, 0.084, 196.0, 0.0, 0.0, 0.0, 12.0, 216.0, 34.0, 0.0, 0.0, 0.0, 1.6878032056117408E9, 0.0, 2023-06-26 13:13:25.611
83.0, 48277.53284901773, 54635.397152351994, 68602.443468862, 714.7864359362645, -3308.03582764099, -5996.391892003047, 23841.354112786546, 17146.82783446644, 0.03, 0.984, 0.084, 196.0, 0.0, 0.0, 0.0, 12.0, 216.0, 38.0, 0.0, 0.0, 0.0, 1.6878032056157753E9, 0.0, 2023-06-26 13:13:25.615
84.0, 48331.557015366205, 54694.22694375837, 66079.35620300248, 789.7988903282751, -3236.845521550837, -5926.676801046944, 23942.696922146908, 17240.146367567348, 0.03, 0.984, 0.084, 196.0, 0.0, 0.0, 0.0, 12.0, 216.0, 42.0, 0.0, 0.0, 0.0, 1.6878032056197865E9, 0.0, 2023-06-26 13:13:25.619
85.0, 48266.73695644581, 54638.43698959792, 67826.48030835156, 696.0109705938066, -3241.651146608728, -5978.75636562781, 23887.73398253131, 17149.130064145334, 0.03, 0.984, 0.084, 196.0, 0.0, 0.0, 0.0, 12.0, 216.0, 46.0, 0.0, 0.0, 0.0, 1.6878032056228044E9, 0.0, 2023-06-26 13:13:25.622
86.0, 48202.52039462572, 54570.64414866497, 70663.54252857478, 627.0558389491844, -3314.674295744216, -6036.66973551151, 23804.00434780173, 17079.43732493369, 0.03, 0.984, 0.084, 196.0, 0.0, 0.0, 0.0, 12.0, 216.0, 50.0, 0.0, 0.0, 0.0, 1.6878032056288333E9, 0.0, 2023-06-26 13:13:25.628
87.0, 48267.67572971294, 54622.679009756925, 69231.8909444679, 702.1353485745608, -3296.03294086849, -5978.376385972069, 23828.47950798029, 17131.00279939208, 0.03, 0.984, 0.084, 196.0, 254.0, 96.0, 0.0, 12.0, 216.0, 54.0, 0.0, 0.0, 0.0, 1.6878032056318452E9, 0.0, 2023-06-26 13:13:25.631
88.0, 48342.665832360486, 54703.0111793293, 66248.76007422926, 808.4178934595459, -3200.7027507666053, -5874.507829488258, 23930.26935222976, 17244.41555075831, 0.03, 0.984, 0.084, 196.0, 30.0, 128.0, 0.0, 12.0, 216.0, 58.0, 0.0, 0.0, 0.0, 1.687803205636871E9, 0.0, 2023-06-26 13:13:25.636
89.0, 48292.329703847136, 54663.314481176676, 67327.43290989792, 730.4103053105242, -3221.6016318323177, -5957.253987461804, 23903.06727922765, 17181.942425005727, 0.03, 0.984, 0.084, 196.0, 4.0, 64.0, 0.0, 12.0, 216.0, 62.0, 0.0, 0.0, 0.0, 1.687803205640902E9, 0.0, 2023-06-26 13:13:25.640
90.0, 48204.75556907125, 54576.343843501076, 70400.30603412462, 633.8507692635977, -3320.128121391311, -6045.6327850380885, 23831.899324881953, 17097.47518270912, 0.03, 0.984, 0.084, 196.0, 0.0, 0.0, 0.0, 12.0, 216.0, 66.0, 0.0, 0.0, 0.0, 1.6878032056459107E9, 0.0, 2023-06-26 13:13:25.645
91.0, 48244.02758407922, 54602.540088002694, 69799.73701235498, 676.6096564066, -3315.4342550556967, -6009.199441575938, 23838.33662728508, 17118.508174241564, 0.03, 0.984, 0.084, 196.0, 0.0, 0.0, 0.0, 12.0, 216.0, 70.0, 0.0, 0.0, 0.0, 1.6878032056489284E9, 0.0, 2023-06-26 13:13:25.648
92.0, 48334.909777034496, 54694.6069234141, 66558.42114191307, 800.7065416224649, -3197.3052856093987, -5882.621512725534, 23945.245021014813, 17245.577841469985, 0.03, 0.984, 0.084, 196.0, 0.0, 0.0, 0.0, 12.0, 216.0, 74.0, 0.0, 0.0, 0.0, 1.6878032056539464E9, 0.0, 2023-06-26 13:13:25.653
93.0, 48302.09741617411, 54675.33971969363, 66894.3902128208, 752.382070110091, -3196.433567575642, -5928.979030725841, 23947.68136116044, 17217.68286438976, 0.03, 0.984, 0.084, 196.0, 0.0, 0.0, 0.0, 12.0, 216.0, 78.0, 0.0, 0.0, 0.0, 1.6878032056579757E9, 0.0, 2023-06-26 13:13:25.657
94.0, 48211.59520287457, 54587.743233173285, 70032.06104422343, 639.0587257216843, -3294.513022245529, -6047.286814127781, 23855.256897837746, 17108.00285434757, 0.03, 0.984, 0.084, 196.0, 0.0, 0.0, 0.0, 12.0, 216.0, 82.0, 0.0, 0.0, 0.0, 1.6878032056650076E9, 0.0, 2023-06-26 13:13:25.665
95.0, 48231.868235095535, 54597.600352478075, 70288.48025661473, 666.5960748906225, -3320.999839425068, -6013.245107322348, 23826.44549923486, 17107.488764225098, 0.03, 0.984, 0.084, 196.0, 0.0, 0.0, 0.0, 12.0, 216.0, 86.0, 0.0, 0.0, 0.0, 1.6878032056690123E9, 0.0, 2023-06-26 13:13:25.669
96.0, 48325.410285640995, 54685.889743076536, 66981.40555398531, 794.5821636417107, -3222.205128932611, -5878.7546609347655, 23923.16149749297, 17224.03075981507, 0.03, 0.984, 0.084, 196.0, 0.0, 0.0, 0.0, 12.0, 216.0, 90.0, 0.0, 0.0, 0.0, 1.6878032056720333E9, 0.0, 2023-06-26 13:13:25.672
97.0, 48313.94384073542, 54685.040376787234, 66551.9614877655, 773.0574337312501, -3191.5161837954743, -5905.174422880938, 23950.11770130607, 17228.255239517122, 0.03, 0.984, 0.084, 196.0, 253.0, 224.0, 0.0, 12.0, 216.0, 94.0, 0.0, 0.0, 0.0, 1.6878032056750593E9, 0.0, 2023-06-26 13:13:25.675
98.0, 48213.29393545317, 54588.12321282902, 69553.91252683551, 644.8254757911534, -3283.493612229063, -6034.680430254988, 23858.00616240575, 17108.785165403508, 0.03, 0.984, 0.084, 196.0, 30.0, 32.0, 0.0, 12.0, 216.0, 98.0, 0.0, 0.0, 0.0, 1.6878032056790757E9, 0.0, 2023-06-26 13:13:25.679
99.0, 48210.09763599606, 54575.494477211774, 70638.08389164018, 642.6350048345333, -3336.9142814772467, -6050.192540906971, 23809.52522868219, 17080.66667087873, 0.03, 0.984, 0.084, 196.0, 4.0, 80.0, 0.0, 12.0, 216.0, 102.0, 0.0, 0.0, 0.0, 1.6878032056820908E9, 0.0, 2023-06-26 13:13:25.682
100.0, 48308.1547389215, 54668.745955079314, 67515.67930170051, 773.5044686203562, -3258.0796787833788, -5924.151053923494, 23881.229624894815, 17192.87242804437, 0.03, 0.984, 0.084, 196.0, 0.0, 0.0, 0.0, 12.0, 216.0, 106.0, 0.0, 0.0, 0.0, 1.68780320568611E9, 0.0, 2023-06-26 13:13:25.686
101.0, 48326.77374205276, 54698.09379554913, 66305.6005603791, 797.0408555317946, -3189.884506450237, -5896.770166965744, 23949.53655595023, 17239.69933267824, 0.03, 0.984, 0.084, 196.0, 0.0, 0.0, 0.0, 12.0, 216.0, 110.0, 0.0, 0.0, 0.0, 1.6878032056891856E9, 0.0, 2023-06-26 13:13:25.689
102.0, 48238.6855171544, 54618.767454477245, 68997.95758699866, 677.8166506071867, -3263.6676148972056, -6012.127520099583, 23869.00322067776, 17126.86772666785, 0.03, 0.984, 0.084, 196.0, 0.0, 0.0, 0.0, 12.0, 216.0, 114.0, 0.0, 0.0, 0.0, 1.6878032056921952E9, 0.0, 2023-06-26 13:13:25.692
103.0, 48204.19677545986, 54576.70147141236, 70809.27590242338, 644.356089157592, -3329.649964529272, -6046.951537960951, 23807.602978659033, 17083.684156380197, 0.03, 0.984, 0.084, 196.0, 0.0, 0.0, 0.0, 12.0, 216.0, 118.0, 0.0, 0.0, 0.0, 1.6878032056961837E9, 0.0, 2023-06-26 13:13:25.696
104.0, 48298.36467485007, 54658.57591135215, 68085.15704693283, 758.4840963463898, -3253.1846467476666, -5941.339545409625, 23877.87686322652, 17176.60035808091, 0.03, 0.984, 0.084, 196.0, 0.0, 0.0, 0.0, 12.0, 216.0, 122.0, 0.0, 0.0, 0.0, 1.6878032057002015E9, 0.0, 2023-06-26 13:13:25.700
105.0, 48333.38985841154, 54703.16764154049, 66184.5211606647, 813.379980728624, -3170.1926195851115, -5881.727442947322, 23969.94369863793, 17258.675963720794, 0.03, 0.984, 0.084, 196.0, 0.0, 0.0, 0.0, 12.0, 216.0, 126.0, 0.0, 0.0, 0.0, 1.6878032057031915E9, 0.0, 2023-06-26 13:13:25.703
106.0, 48252.56595046115, 54630.926803460934, 68444.68485649645, 700.9954096073401, -3234.4538848941193, -5988.3452639991365, 23898.552226847678, 17162.541110818518, 0.03, 0.984, 0.084, 196.0, 0.0, 0.0, 0.0, 12.0, 216.0, 130.0, 0.0, 0.0, 0.0, 1.687803205707208E9, 0.0, 2023-06-26 13:13:25.707
107.0, 48196.977162000796, 54569.37009923102, 70819.78122231737, 636.9129582539748, -3324.9337464492023, -6053.165322919527, 23816.610731674522, 17083.013604046537, 0.03, 0.984, 0.084, 196.0, 253.0, 144.0, 0.0, 12.0, 216.0, 134.0, 0.0, 0.0, 0.0, 1.6878032057112448E9, 0.0, 2023-06-26 13:13:25.711
108.0, 48277.108165873076, 54637.05118144169, 68684.09439135724, 732.7348867338761, -3276.877495870292, -5962.5737026421675, 23854.13931061498, 17158.629555538842, 0.03, 0.984, 0.084, 196.0, 30.0, 80.0, 0.0, 12.0, 216.0, 138.0, 0.0, 0.0, 0.0, 1.6878032057152507E9, 0.0, 2023-06-26 13:13:25.715
109.0, 48328.91950952048, 54695.188068769945, 66204.54832369665, 812.5529661837777, -3186.621151759762, -5876.988873122797, 23950.631791428543, 17269.203635359245, 0.03, 0.984, 0.084, 196.0, 4.0, 48.0, 0.0, 12.0, 216.0, 142.0, 0.0, 0.0, 0.0, 1.6878032057212868E9, 0.0, 2023-06-26 13:13:25.721
110.0, 48272.03431988172, 54649.14347519201, 67887.03118408099, 718.385066793569, -3214.404370117709, -5975.4930109373345, 23917.148878234493, 17183.998785495616, 0.03, 0.984, 0.084, 196.0, 0.0, 0.0, 0.0, 12.0, 216.0, 146.0, 0.0, 0.0, 0.0, 1.687803205724288E9, 0.0, 2023-06-26 13:13:25.724
111.0, 48209.22591796231, 54586.9832738618, 70640.36376957461, 642.679708323444, -3303.1184438608225, -6048.359697861636, 23833.28513303818, 17106.259418280057, 0.03, 0.984, 0.084, 196.0, 0.0, 0.0, 0.0, 12.0, 216.0, 150.0, 0.0, 0.0, 0.0, 1.6878032057283192E9, 0.0, 2023-06-26 13:13:25.728
112.0, 48267.76513669075, 54630.52447206074, 69256.72373255774, 708.8855754000635, -3280.498478472052, -5986.110089553606, 23848.260801823235, 17155.92499445975, 0.03, 0.984, 0.084, 196.0, 0.0, 0.0, 0.0, 12.0, 216.0, 154.0, 0.0, 0.0, 0.0, 1.6878032057323475E9, 0.0, 2023-06-26 13:13:25.732
113.0, 48333.434561900445, 54698.58553392715, 66345.29725853172, 809.0884457932051, -3183.9836459140356, -5876.720652189333, 23953.6045734411, 17263.213367845223, 0.03, 0.984, 0.084, 196.0, 0.0, 0.0, 0.0, 12.0, 216.0, 158.0, 0.0, 0.0, 0.0, 1.6878032057363524E9, 0.0, 2023-06-26 13:13:25.736
114.0, 48292.687331758425, 54672.322234192165, 67396.38804154254, 738.5910437811666, -3208.1235299257673, -5945.474618133858, 23922.15566899248, 17199.06386125849, 0.03, 0.984, 0.084, 196.0, 0.0, 0.0, 0.0, 12.0, 216.0, 162.0, 0.0, 0.0, 0.0, 1.6878032057404242E9, 0.0, 2023-06-26 13:13:25.740
115.0, 48209.49413889577, 54590.69366344139, 70382.87167344948, 641.5397693562234, -3301.7326357045936, -6044.068162926217, 23833.083967338083, 17106.751156658072, 0.03, 0.984, 0.084, 196.0, 0.0, 0.0, 0.0, 12.0, 216.0, 166.0, 0.0, 0.0, 0.0, 1.6878032057444043E9, 0.0, 2023-06-26 13:13:25.744
116.0, 48251.51541847175, 54618.007495165766, 69809.28120723739, 686.064444311195, -3303.7889961944816, -6004.594982218145, 23827.518382968712, 17123.738482444107, 0.03, 0.984, 0.084, 196.0, 0.0, 0.0, 0.0, 12.0, 216.0, 170.0, 0.0, 0.0, 0.0, 1.6878032057504516E9, 0.0, 2023-06-26 13:13:25.750
117.0, 48338.41900091398, 54703.45821421841, 66607.90790413713, 806.8085678587637, -3199.1828321436446, -5882.465050514347, 23934.98557030983, 17243.119149579903, 0.03, 0.984, 0.084, 196.0, 253.0, 128.0, 0.0, 12.0, 216.0, 174.0, 0.0, 0.0, 0.0, 1.687803205753439E9, 0.0, 2023-06-26 13:13:25.753
118.0, 48310.7028377894, 54685.71092912089, 66959.97023105266, 758.3723376241134, -3193.7737099854603, -5928.55434758119, 23934.270314487258, 17209.97151255268, 0.03, 0.984, 0.084, 196.0, 30.0, 96.0, 0.0, 12.0, 216.0, 178.0, 0.0, 0.0, 0.0, 1.6878032057584753E9, 0.0, 2023-06-26 13:13:25.758
119.0, 48225.52033967023, 54602.405977535964, 69982.77544769949, 648.8934932820193, -3280.8561063833367, -6037.675564011999, 23846.249144822257, 17108.29342702549, 0.03, 0.984, 0.084, 196.0, 4.0, 32.0, 0.0, 12.0, 216.0, 182.0, 0.0, 0.0, 0.0, 1.6878032057624876E9, 0.0, 2023-06-26 13:13:25.762
120.0, 48249.07907832612, 54613.00070440778, 70240.13343335789, 669.6359121365443, -3303.1854990941883, -6018.900098669541, 23829.08300508058, 17107.824040391926, 0.03, 0.984, 0.084, 196.0, 0.0, 0.0, 0.0, 12.0, 216.0, 186.0, 0.0, 0.0, 0.0, 1.6878032057654977E9, 0.0, 2023-06-26 13:13:25.765
121.0, 48337.30141369122, 54697.713815893396, 66987.12760056587, 789.3742071836242, -3204.4801955795524, -5897.083091388117, 23917.774727079242, 17222.756710381116, 0.03, 0.984, 0.084, 196.0, 0.0, 0.0, 0.0, 12.0, 216.0, 190.0, 0.0, 0.0, 0.0, 1.6878032057695637E9, 0.0, 2023-06-26 13:13:25.769
122.0, 48321.766951294776, 54696.03743505925, 66594.5192092084, 767.7377185508869, -3185.9953029150133, -5916.238536386316, 23934.829108098642, 17218.576934167973, 0.03, 0.984, 0.084, 196.0, 0.0, 0.0, 0.0, 12.0, 216.0, 194.0, 0.0, 0.0, 0.0, 1.6878032057725568E9, 0.0, 2023-06-26 13:13:25.772
123.0, 48239.490179954795, 54620.443835311395, 69459.78933093422, 660.8516765656086, -3271.334263245376, -6021.872880682097, 23850.67479022441, 17117.47999399662, 0.03, 0.984, 0.084, 196.0, 0.0, 0.0, 0.0, 12.0, 216.0, 198.0, 0.0, 0.0, 0.0, 1.6878032057785592E9, 0.0, 2023-06-26 13:13:25.778
124.0, 48234.4833891968, 54605.24464908179, 70520.22314312734, 655.0849264961394, -3311.7909207094817, -6005.421996762991, 23815.269627007205, 17098.77158388753, 0.03, 0.984, 0.084, 196.0, 0.0, 0.0, 0.0, 12.0, 216.0, 202.0, 0.0, 0.0, 0.0, 1.6878032057815614E9, 0.0, 2023-06-26 13:13:25.781
125.0, 48320.98464023884, 54684.72745236486, 67461.99041151887, 769.6376168295881, -3238.4101436627084, -5903.654504257978, 23890.05856395466, 17199.801468825517, 0.03, 0.984, 0.084, 196.0, 0.0, 0.0, 0.0, 12.0, 216.0, 206.0, 0.0, 0.0, 0.0, 1.687803205800661E9, 0.0, 2023-06-26 13:13:25.800
126.0, 48327.7572188088, 54702.74295839584, 66360.78701743926, 782.2216489579259, -3182.173154613156, -5898.5359547777125, 23946.40731172649, 17236.771254154595, 0.03, 0.984, 0.084, 196.0, 0.0, 0.0, 0.0, 12.0, 216.0, 210.0, 0.0, 0.0, 0.0, 1.6878032058046849E9, 0.0, 2023-06-26 13:13:25.804
127.0, 48249.16848530394, 54633.69841977339, 68934.70215019013, 674.0839092831504, -3256.112725271312, -5998.783528659765, 23862.655325252454, 17135.383741305322, 0.03, 0.984, 0.084, 196.0, 253.0, 80.0, 0.0, 12.0, 216.0, 214.0, 0.0, 0.0, 0.0, 1.687803205807701E9, 0.0, 2023-06-26 13:13:25.807
128.0, 48212.75749358624, 54592.213582064345, 70701.60754938216, 636.6894408094216, -3310.449816042163, -6035.641555266566, 23810.553408927135, 17093.51892394053, 0.03, 0.984, 0.084, 196.0, 30.0, 16.0, 0.0, 12.0, 216.0, 218.0, 0.0, 0.0, 0.0, 1.687803205810732E9, 0.0, 2023-06-26 13:13:25.810
129.0, 48309.62995405555, 54677.61959762807, 68002.58970291492, 755.801887011753, -3228.195396446633, -5920.619478299556, 23873.227700379815, 17187.26214018609, 0.03, 0.984, 0.084, 196.0, 4.0, 0.0, 0.0, 12.0, 216.0, 222.0, 0.0, 0.0, 0.0, 1.687803205814747E9, 0.0, 2023-06-26 13:13:25.814
130.0, 48342.665832360486, 54719.88674639306, 66193.32774798009, 810.4295504605235, -3158.2120845570666, -5854.30185250066, 23975.17400684047, 17272.779914472096, 0.03, 0.984, 0.084, 196.0, 0.0, 0.0, 0.0, 12.0, 216.0, 226.0, 0.0, 0.0, 0.0, 1.687803205817754E9, 0.0, 2023-06-26 13:13:25.817
131.0, 48263.58536047761, 54649.27758565874, 68378.68015511992, 699.2296217953708, -3221.556928343407, -5971.804973102209, 23902.01674723825, 17169.134875432836, 0.03, 0.984, 0.084, 196.0, 0.0, 0.0, 0.0, 12.0, 216.0, 230.0, 0.0, 0.0, 0.0, 1.687803205821784E9, 0.0, 2023-06-26 13:13:25.821
132.0, 48206.566060372126, 54588.2349715513, 70687.70476433096, 637.9634902433742, -3308.9298974192025, -6040.313069857725, 23824.791470145163, 17103.152525800768, 0.03, 0.984, 0.084, 196.0, 0.0, 0.0, 0.0, 12.0, 216.0, 234.0, 0.0, 0.0, 0.0, 1.6878032058247764E9, 0.0, 2023-06-26 13:13:25.824
133.0, 48279.45509904088, 54647.86942575806, 68618.58142835872, 727.7280959758873, -3276.6986819146496, -5959.265644462782, 23847.232621578292, 17156.372029348855, 0.03, 0.984, 0.084, 196.0, 0.0, 0.0, 0.0, 12.0, 216.0, 238.0, 0.0, 0.0, 0.0, 1.6878032058277965E9, 0.0, 2023-06-26 13:13:25.827
134.0, 48332.04875374422, 54706.45334797542, 66254.07978940962, 804.7745591133308, -3186.8223174598597, -5878.844067912587, 23948.620134427565, 17266.61083300243, 0.03, 0.984, 0.084, 196.0, 0.0, 0.0, 0.0, 12.0, 216.0, 242.0, 0.0, 0.0, 0.0, 1.6878032058318124E9, 0.0, 2023-06-26 13:13:25.831
135.0, 48267.76513669075, 54650.238710670325, 67905.89605640127, 701.9565346189183, -3243.774562331982, -5986.154793042516, 23906.39768915149, 17183.328233161956, 0.03, 0.984, 0.084, 196.0, 0.0, 0.0, 0.0, 12.0, 216.0, 246.0, 0.0, 0.0, 0.0, 1.6878032058348227E9, 0.0, 2023-06-26 13:13:25.834
136.0, 48207.750702828256, 54589.95605587436, 70500.21833183985, 641.3833071450362, -3307.4993857740624, -6050.48311358489, 23833.218077804813, 17112.584961960907, 0.03, 0.984, 0.084, 196.0, 0.0, 0.0, 0.0, 12.0, 216.0, 250.0, 0.0, 0.0, 0.0, 1.6878032058378444E9, 0.0, 2023-06-26 13:13:25.837
137.0, 48274.023625138245, 54644.918995489956, 69114.92426573328, 719.256784827326, -3268.428536466186, -5966.261740477293, 23844.975095388305, 17157.199043893703, 0.03, 0.984, 0.084, 196.0, 253.0, 144.0, 0.0, 12.0, 216.0, 254.0, 0.0, 0.0, 0.0, 1.6878032058408604E9, 0.0, 2023-06-26 13:13:25.840
138.0, 48335.51327413479, 54711.08015907767, 66357.83658717116, 817.5821086862218, -3178.909799922681, -5849.20565476485, 23939.478270945343, 17263.906271923337, 0.03, 0.984, 0.084, 196.0, 30.0, 96.0, 0.0, 12.0, 217.0, 2.0, 0.0, 0.0, 0.0, 1.6878032058529365E9, 0.0, 2023-06-26 13:13:25.852
139.0, 48279.76802346326, 54663.940330021425, 67549.96687769495, 729.5832907656778, -3214.5831840733513, -5956.382269428047, 23898.284005914215, 17185.362241907387, 0.03, 0.984, 0.084, 196.0, 4.0, 16.0, 0.0, 12.0, 217.0, 6.0, 0.0, 0.0, 0.0, 1.6878032058569293E9, 0.0, 2023-06-26 13:13:25.856
140.0, 48208.62242086201, 54593.554686731666, 70271.29176512858, 645.0266414912512, -3295.809423423937, -6044.828122237697, 23823.33860675557, 17102.4372699782, 0.03, 0.984, 0.084, 196.0, 0.0, 0.0, 0.0, 12.0, 217.0, 10.0, 0.0, 0.0, 0.0, 1.6878032058599467E9, 0.0, 2023-06-26 13:13:25.859
141.0, 48249.66022368196, 54623.14839639049, 69631.47308009543, 691.4288629804687, -3298.93866764768, -6006.003142118829, 23825.082042823084, 17124.543145244497, 0.03, 0.984, 0.084, 196.0, 0.0, 0.0, 0.0, 12.0, 217.0, 14.0, 0.0, 0.0, 0.0, 1.687803205863964E9, 0.0, 2023-06-26 13:13:25.863
142.0, 48330.573538610166, 54706.49805146433, 66572.92742406458, 808.7531696263754, -3199.2275356325554, -5889.170573850939, 23923.00503528178, 17246.002524614636, 0.03, 0.984, 0.084, 196.0, 0.0, 0.0, 0.0, 12.0, 217.0, 18.0, 0.0, 0.0, 0.0, 1.6878032058669803E9, 0.0, 2023-06-26 13:13:25.866
143.0, 48297.67177077196, 54684.95096980941, 67171.26127138869, 749.6998607754542, -3204.7260647685607, -5945.385211156036, 23916.43362241192, 17211.267913731088, 0.03, 0.984, 0.084, 196.0, 0.0, 0.0, 0.0, 12.0, 217.0, 22.0, 0.0, 0.0, 0.0, 1.6878032058699837E9, 0.0, 2023-06-26 13:13:25.869
144.0, 48219.284202967196, 54608.75387296127, 69901.66096707118, 653.9226357844634, -3294.7588914345374, -6038.077895412194, 23832.748691171255, 17113.188459061203, 0.03, 0.984, 0.084, 196.0, 0.0, 0.0, 0.0, 12.0, 217.0, 26.0, 0.0, 0.0, 0.0, 1.6878032058740091E9, 0.0, 2023-06-26 13:13:25.874
145.0, 48234.90807234145, 54613.82771895263, 70059.039599781, 678.934237829952, -3317.2447463565763, -6003.209174061915, 23821.349301499045, 17120.832755664916, 0.03, 0.984, 0.084, 196.0, 0.0, 0.0, 0.0, 12.0, 217.0, 30.0, 0.0, 0.0, 0.0, 1.687803205877023E9, 0.0, 2023-06-26 13:13:25.877
146.0, 48322.03517222824, 54696.14919378152, 66890.00927090755, 793.4645764189454, -3204.9272304686583, -5892.769204708244, 23910.085726986617, 17236.23481228767, 0.03, 0.984, 0.084, 196.0, 0.0, 0.0, 0.0, 12.0, 217.0, 34.0, 0.0, 0.0, 0.0, 1.6878032058800387E9, 0.0, 2023-06-26 13:13:25.880
147.0, 48301.53862256272, 54686.87321983257, 66805.3185111664, 763.96027373794, -3179.870924934259, -5937.4503418744025, 23928.30239871769, 17235.474852976186, 0.03, 0.984, 0.084, 196.0, 253.0, 192.0, 0.0, 12.0, 217.0, 38.0, 0.0, 0.0, 0.0, 1.6878032058840775E9, 0.0, 2023-06-26 13:13:25.884
148.0, 48219.418313433926, 54609.04444563919, 69487.97488069236, 664.0703277671728, -3262.974710819091, -5999.968171115896, 23854.474586781813, 17132.790938948507, 0.03, 0.984, 0.084, 196.0, 30.0, 176.0, 0.0, 12.0, 217.0, 42.0, 0.0, 0.0, 0.0, 1.6878032058870792E9, 0.0, 2023-06-26 13:13:25.887
149.0, 48213.897432553465, 54596.125137344025, 70415.01348197622, 653.4308974064467, -3300.682103715194, -6015.569688745701, 23806.10541178053, 17103.2866362675, 0.03, 0.984, 0.084, 196.0, 4.0, 160.0, 0.0, 12.0, 217.0, 46.0, 0.0, 0.0, 0.0, 1.6878032058901005E9, 0.0, 2023-06-26 13:13:25.890
150.0, 48308.13238717704, 54683.162830252986, 67358.79240736872, 770.6434453300769, -3223.97091674458, -5897.97716116633, 23869.517310800235, 17199.108564747403, 0.03, 0.984, 0.084, 196.0, 0.0, 0.0, 0.0, 12.0, 217.0, 50.0, 0.0, 0.0, 0.0, 1.6878032058931992E9, 0.0, 2023-06-26 13:13:25.893
151.0, 48313.56386107968, 54701.06657756169, 66532.51547008938, 784.0768437477165, -3176.5405150104184, -5878.262922556749, 23941.378169224045, 17244.393199013855, 0.03, 0.984, 0.084, 196.0, 0.0, 0.0, 0.0, 12.0, 217.0, 54.0, 0.0, 0.0, 0.0, 1.6878032058971956E9, 0.0, 2023-06-26 13:13:25.897
152.0, 48245.212226535354, 54638.52639657574, 68987.87695024931, 679.805955863709, -3235.102085483323, -5992.078005323173, 23872.69125851289, 17147.87836645584, 0.03, 0.984, 0.084, 196.0, 0.0, 0.0, 0.0, 12.0, 217.0, 58.0, 0.0, 0.0, 0.0, 1.6878032059001992E9, 0.0, 2023-06-26 13:13:25.900
153.0, 48215.77497908771, 54601.37779729102, 70573.53205365325, 647.5523886147009, -3301.3750077933087, -6017.067255624206, 23809.927560082386, 17107.24289503609, 0.03, 0.984, 0.084, 196.0, 0.0, 0.0, 0.0, 12.0, 217.0, 62.0, 0.0, 0.0, 0.0, 1.6878032059031975E9, 0.0, 2023-06-26 13:13:25.903
154.0, 48300.711608017875, 54675.25031271581, 67893.44613473966, 746.190636895971, -3243.8192658208927, -5916.596164297601, 23849.892479168473, 17185.339890162933, 0.03, 0.984, 0.084, 196.0, 0.0, 0.0, 0.0, 12.0, 217.0, 66.0, 0.0, 0.0, 0.0, 1.6878032059071808E9, 0.0, 2023-06-26 13:13:25.907
155.0, 48323.13040770655, 54709.06850207669, 66326.20886876689, 790.8270705732192, -3175.3782242987427, -5864.673061927922, 23939.74649187881, 17260.486455021673, 0.03, 0.984, 0.084, 196.0, 0.0, 0.0, 0.0, 12.0, 217.0, 70.0, 0.0, 0.0, 0.0, 1.6878032059102032E9, 0.0, 2023-06-26 13:13:25.910
156.0, 48251.850694638575, 54644.00257396729, 68475.59731907814, 681.7058541424101, -3235.459713394608, -5984.277246508271, 23887.376354620024, 17160.842378239915, 0.03, 0.984, 0.084, 196.0, 0.0, 0.0, 0.0, 12.0, 217.0, 74.0, 0.0, 0.0, 0.0, 1.6878032059132073E9, 0.0, 2023-06-26 13:13:25.913
157.0, 48206.25313594975, 54595.789861177196, 70582.09277177963, 631.0120977177737, -3299.2739438145095, -6038.81550297922, 23816.878952607985, 17104.024243834527, 0.03, 0.984, 0.084, 196.0, 253.0, 224.0, 0.0, 12.0, 217.0, 78.0, 0.0, 0.0, 0.0, 1.68780320591624E9, 0.0, 2023-06-26 13:13:25.916
158.0, 48284.26072409877, 54663.06861198767, 68481.74404880335, 723.6600784850215, -3287.7627954200266, -5950.07907749165, 23854.631048993, 17168.374916121356, 0.03, 0.984, 0.084, 196.0, 30.0, 80.0, 0.0, 12.0, 217.0, 82.0, 0.0, 0.0, 0.0, 1.6878032059202611E9, 0.0, 2023-06-26 13:13:25.920
159.0, 48324.96325075188, 54709.7614061548, 66258.34897260058, 787.8766403051186, -3174.8417824318153, -5895.205544853872, 23941.042893057216, 17255.50201600814, 0.03, 0.984, 0.084, 196.0, 4.0, 160.0, 0.0, 12.0, 217.0, 86.0, 0.0, 0.0, 0.0, 1.687803205923257E9, 0.0, 2023-06-26 13:13:25.923
160.0, 48261.79722092119, 54652.98797523833, 67986.295281207, 683.0916622986391, -3208.4141026036864, -6009.981752631874, 23870.880767212006, 17156.3496776044, 0.03, 0.984, 0.084, 196.0, 0.0, 0.0, 0.0, 12.0, 217.0, 90.0, 0.0, 0.0, 0.0, 1.687803205926279E9, 0.0, 2023-06-26 13:13:25.926
161.0, 48194.49611836626, 54583.87638138251, 70451.20095624936, 616.3046498661816, -3299.2515920700544, -6080.836782555197, 23794.95189129733, 17080.44315343418, 0.03, 0.984, 0.084, 196.0, 0.0, 0.0, 0.0, 12.0, 217.0, 94.0, 0.0, 0.0, 0.0, 1.6878032059303007E9, 0.0, 2023-06-26 13:13:25.930
162.0, 48264.591188978105, 54642.3485448776, 69091.6113962664, 705.3763515205803, -3270.194324278155, -5947.821551301665, 23833.307484782636, 17135.58490700542, 0.03, 0.984, 0.084, 196.0, 0.0, 0.0, 0.0, 12.0, 217.0, 98.0, 0.0, 0.0, 0.0, 1.6878032059333196E9, 0.0, 2023-06-26 13:13:25.933
163.0, 48335.04388750123, 54717.87508939208, 66328.10876704559, 812.5082626948671, -3170.7961166854047, -5835.146407502461, 23937.399558711, 17248.79649267155, 0.03, 0.984, 0.084, 196.0, 0.0, 0.0, 0.0, 12.0, 217.0, 102.0, 0.0, 0.0, 0.0, 1.6878032059363225E9, 0.0, 2023-06-26 13:13:25.936
164.0, 48286.182974121926, 54679.25127497331, 67500.16719104853, 735.6182617686108, -3196.1206431532673, -5926.877966747042, 23911.940921776408, 17194.705271089708, 0.03, 0.984, 0.084, 196.0, 0.0, 0.0, 0.0, 12.0, 217.0, 106.0, 0.0, 0.0, 0.0, 1.6878032059394004E9, 0.0, 2023-06-26 13:13:25.939
165.0, 48216.333772699094, 54608.53035551672, 70201.44256370576, 649.4746386378573, -3291.003798366046, -6019.5706510032005, 23840.57180173061, 17111.020339849038, 0.03, 0.984, 0.084, 196.0, 0.0, 0.0, 0.0, 12.0, 217.0, 110.0, 0.0, 0.0, 0.0, 1.6878032059433756E9, 0.0, 2023-06-26 13:13:25.943
166.0, 48250.57664520462, 54629.33982960461, 69656.28351644082, 685.8856303555525, -3323.9502696931686, -5999.387025760058, 23829.552391714144, 17124.3419795444, 0.03, 0.984, 0.084, 196.0, 0.0, 0.0, 0.0, 12.0, 217.0, 114.0, 0.0, 0.0, 0.0, 1.6878032059474025E9, 0.0, 2023-06-26 13:13:25.947
167.0, 48326.61727984158, 54703.30175200722, 66558.86817680218, 798.7172363659425, -3184.5424395254186, -5874.418422510436, 23933.197430753404, 17240.32518152299, 0.03, 0.984, 0.084, 196.0, 253.0, 224.0, 0.0, 12.0, 217.0, 118.0, 0.0, 0.0, 0.0, 1.6878032059524188E9, 0.0, 2023-06-26 13:13:25.952
168.0, 48296.62123878256, 54682.3581674526, 67053.19935717575, 748.6940322749654, -3177.903971422192, -5921.625306800045, 23926.626017883544, 17209.524477663574, 0.03, 0.984, 0.084, 196.0, 30.0, 48.0, 0.0, 12.0, 217.0, 122.0, 0.0, 0.0, 0.0, 1.68780320595542E9, 0.0, 2023-06-26 13:13:25.955
169.0, 48216.51258665474, 54605.11053861506, 69795.22195997501, 637.9411384989189, -3266.6627486542166, -6088.257561714359, 23845.444482021867, 17116.272999796034, 0.03, 0.984, 0.084, 196.0, 4.0, 144.0, 0.0, 12.0, 217.0, 126.0, 0.0, 0.0, 0.0, 1.6878032059604585E9, 0.0, 2023-06-26 13:13:25.960
170.0, 48224.55921465865, 54604.507041514764, 70101.798486924, 656.4930863968237, -3306.9182404182247, -6041.654174525043, 23832.927505126896, 17118.82109866394, 0.03, 0.984, 0.084, 196.0, 0.0, 0.0, 0.0, 12.0, 217.0, 130.0, 0.0, 0.0, 0.0, 1.6878032059634836E9, 0.0, 2023-06-26 13:13:25.963
171.0, 48321.52108210577, 54694.22694375837, 66927.4484428702, 805.8474428471856, -3198.8922594657256, -5803.988075731764, 23929.576448151645, 17223.203745270224, 0.03, 0.984, 0.084, 196.0, 0.0, 0.0, 0.0, 12.0, 217.0, 134.0, 0.0, 0.0, 0.0, 1.687803205968494E9, 0.0, 2023-06-26 13:13:25.968
172.0, 48310.34520987811, 54693.645798402526, 66692.82218132284, 775.9631605104399, -3178.239247589022, -5884.700224959877, 23956.443244986924, 17223.65078015933, 0.03, 0.984, 0.084, 196.0, 0.0, 0.0, 0.0, 12.0, 217.0, 138.0, 0.0, 0.0, 0.0, 1.6878032059725063E9, 0.0, 2023-06-26 13:13:25.972
173.0, 48226.57087165963, 54618.23101261032, 69374.11509443702, 660.6281591210555, -3236.778466317471, -6006.740749685854, 23871.19369163438, 17108.20402004767, 0.03, 0.984, 0.084, 196.0, 0.0, 0.0, 0.0, 12.0, 217.0, 142.0, 0.0, 0.0, 0.0, 1.6878032059755096E9, 0.0, 2023-06-26 13:13:25.975
174.0, 48211.97518253031, 54598.226201322825, 70430.59264786156, 656.5601416301896, -3304.9512869061577, -6003.5444502287455, 23838.694255196366, 17098.615121676343, 0.03, 0.984, 0.084, 196.0, 0.0, 0.0, 0.0, 12.0, 217.0, 146.0, 0.0, 0.0, 0.0, 1.6878032059795554E9, 0.0, 2023-06-26 13:13:25.979
175.0, 48304.04201794172, 54678.58072263965, 67409.01677715979, 776.8125267997417, -3222.0933702103343, -5893.998550653285, 23913.796116566198, 17208.004559040615, 0.03, 0.984, 0.084, 196.0, 0.0, 0.0, 0.0, 12.0, 217.0, 150.0, 0.0, 0.0, 0.0, 1.6878032059835749E9, 0.0, 2023-06-26 13:13:25.983
176.0, 48304.82432899765, 54683.788679097735, 66324.15250827701, 772.6774540755099, -3156.2227793005445, -5906.828451970631, 23958.231384543345, 17237.955896610725, 0.03, 0.984, 0.084, 196.0, 0.0, 0.0, 0.0, 12.0, 217.0, 154.0, 0.0, 0.0, 0.0, 1.6878032059885805E9, 0.0, 2023-06-26 13:13:25.988
177.0, 48235.5339211862, 54619.30389634418, 68717.28673187336, 659.5776271316561, -3233.6045186048173, -6045.38691584908, 23892.58431107811, 17140.278773341033, 0.03, 0.984, 0.084, 196.0, 253.0, 96.0, 0.0, 12.0, 217.0, 158.0, 0.0, 0.0, 0.0, 1.687803205992602E9, 0.0, 2023-06-26 13:13:25.992
178.0, 48199.36879865752, 54577.61789293503, 70535.66819854596, 651.3521851721031, -3287.293408786465, -6032.936994187474, 23822.28807476617, 17079.593787144877, 0.03, 0.984, 0.084, 196.0, 30.0, 96.0, 0.0, 12.0, 217.0, 162.0, 0.0, 0.0, 0.0, 1.6878032059986217E9, 0.0, 2023-06-26 13:13:25.998
179.0, 48289.69219800141, 54659.2017601969, 68006.21068551668, 767.3577388951468, -3219.813492275893, -5876.050099855674, 23880.11203767205, 17169.336041132934, 0.03, 0.984, 0.084, 196.0, 4.0, 160.0, 0.0, 12.0, 217.0, 166.0, 0.0, 0.0, 0.0, 1.6878032060016503E9, 0.0, 2023-06-26 13:13:26.001
180.0, 48312.245108156814, 54693.06465304669, 66235.66195197844, 810.3177917382469, -3162.6377299592177, -5860.046250825674, 23952.64344842952, 17242.78387341307, 0.03, 0.984, 0.084, 196.0, 0.0, 0.0, 0.0, 12.0, 217.0, 170.0, 0.0, 0.0, 0.0, 1.6878032060066557E9, 0.0, 2023-06-26 13:13:26.006
181.0, 48246.039241080194, 54635.17363490744, 68256.37140946048, 707.6338777105663, -3222.49570161053, -5981.639740662545, 23892.070220955637, 17144.59266002091, 0.03, 0.984, 0.084, 196.0, 0.0, 0.0, 0.0, 12.0, 217.0, 174.0, 0.0, 0.0, 0.0, 1.6878032060096748E9, 0.0, 2023-06-26 13:13:26.009
182.0, 48188.41644387441, 54575.44977372287, 70574.49317866482, 651.3968886610137, -3300.4809380150964, -6044.850473982153, 23824.635007933975, 17082.387755201788, 0.03, 0.984, 0.084, 196.0, 0.0, 0.0, 0.0, 12.0, 217.0, 178.0, 0.0, 0.0, 0.0, 1.6878032060137198E9, 0.0, 2023-06-26 13:13:26.013
183.0, 48250.889569627, 54624.98123943582, 68649.09155954022, 728.3986483095465, -3274.93289410268, -5972.6096359026005, 23842.829327920597, 17136.90365992828, 0.03, 0.984, 0.084, 196.0, 0.0, 0.0, 0.0, 12.0, 217.0, 182.0, 0.0, 0.0, 0.0, 1.6878032060167053E9, 0.0, 2023-06-26 13:13:26.016
184.0, 48314.72615179136, 54693.44463270243, 66274.62104256405, 805.1768905135264, -3189.236305861033, -5904.056835658173, 23937.578372666645, 17231.36213199641, 0.03, 0.984, 0.084, 196.0, 0.0, 0.0, 0.0, 12.0, 217.0, 186.0, 0.0, 0.0, 0.0, 1.6878032060197308E9, 0.0, 2023-06-26 13:13:26.019
185.0, 48263.942988388895, 54651.60216708209, 67776.16653158267, 730.9243954329962, -3222.6968673106276, -5962.216074730883, 23901.368546649046, 17174.029907468546, 0.03, 0.984, 0.084, 196.0, 0.0, 0.0, 0.0, 12.0, 217.0, 190.0, 0.0, 0.0, 0.0, 1.6878032060237403E9, 0.0, 2023-06-26 13:13:26.023
186.0, 48176.05592919063, 54563.335128228086, 70427.91043852693, 649.8993217825082, -3312.6402869987833, -6023.258688838326, 23813.347376984046, 17082.14188601278, 0.03, 0.984, 0.084, 196.0, 0.0, 0.0, 0.0, 12.0, 217.0, 194.0, 0.0, 0.0, 0.0, 1.6878032060277689E9, 0.0, 2023-06-26 13:13:26.027
187.0, 48243.44643872338, 54620.19796612239, 69281.37770669196, 722.6989534734432, -3273.1671062907108, -5966.440554432936, 23833.687464438375, 17127.180651090224, 0.03, 0.984, 0.084, 196.0, 253.0, 64.0, 0.0, 12.0, 217.0, 198.0, 0.0, 0.0, 0.0, 1.6878032060307963E9, 0.0, 2023-06-26 13:13:26.030
188.0, 48317.94480299292, 54697.691464148935, 66443.84609983518, 823.8405971337077, -3197.7299687540494, -5875.111326588551, 23936.684302888432, 17246.22604205919, 0.03, 0.984, 0.084, 196.0, 30.0, 240.0, 0.0, 12.0, 217.0, 202.0, 0.0, 0.0, 0.0, 1.6878032060348113E9, 0.0, 2023-06-26 13:13:26.034
189.0, 48266.826363423635, 54649.23288216983, 67360.6476021585, 737.4734565584013, -3231.8834342817586, -5979.985711572852, 23910.510410131268, 17173.694631301718, 0.03, 0.984, 0.084, 196.0, 4.0, 208.0, 0.0, 12.0, 217.0, 206.0, 0.0, 0.0, 0.0, 1.6878032060398316E9, 0.0, 2023-06-26 13:13:26.039
190.0, 48186.404786873434, 54569.52656144221, 70118.6517022433, 652.6038828616003, -3253.721088614594, -6030.165377875016, 23820.164659042915, 17079.14675225577, 0.03, 0.984, 0.084, 196.0, 0.0, 0.0, 0.0, 12.0, 217.0, 210.0, 0.0, 0.0, 0.0, 1.6878032060438452E9, 0.0, 2023-06-26 13:13:26.043
191.0, 48225.02860129221, 54605.490518270795, 69780.17923595659, 699.2966770287368, -3250.6365478797616, -5982.3549964851145, 23812.766231628208, 17107.77933690302, 0.03, 0.984, 0.084, 196.0, 0.0, 0.0, 0.0, 12.0, 217.0, 214.0, 0.0, 0.0, 0.0, 1.6878032060468624E9, 0.0, 2023-06-26 13:13:26.046
192.0, 48301.22569814035, 54680.0559377737, 66718.25846651298, 814.2740505068363, -3184.5871430143293, -5881.2804080582155, 23906.73296531832, 17224.656608659818, 0.03, 0.984, 0.084, 196.0, 0.0, 0.0, 0.0, 12.0, 217.0, 218.0, 0.0, 0.0, 0.0, 1.6878032060508733E9, 0.0, 2023-06-26 13:13:26.050
193.0, 48258.913845886455, 54643.08615244462, 67100.56270367655, 750.4821718313899, -3186.844669204315, -5952.135437981539, 23903.424907138935, 17184.22230294017, 0.03, 0.984, 0.084, 196.0, 0.0, 0.0, 0.0, 12.0, 217.0, 222.0, 0.0, 0.0, 0.0, 1.6878032060559032E9, 0.0, 2023-06-26 13:13:26.055
194.0, 48183.85668800553, 54573.192247532876, 69814.75738462895, 655.8225340631645, -3277.3468825038535, -6033.7193052434095, 23820.23171427628, 17083.86297033584, 0.03, 0.984, 0.084, 196.0, 0.0, 0.0, 0.0, 12.0, 217.0, 226.0, 0.0, 0.0, 0.0, 1.6878032060599167E9, 0.0, 2023-06-26 13:13:26.059
195.0, 48214.4785779093, 54592.772375675726, 70209.62330217639, 680.7894326197426, -3274.351748746842, -6003.47739499538, 23816.297807252147, 17100.447964721676, 0.03, 0.984, 0.084, 196.0, 0.0, 0.0, 0.0, 12.0, 217.0, 230.0, 0.0, 0.0, 0.0, 1.687803206065958E9, 0.0, 2023-06-26 13:13:26.065
196.0, 48296.28596261573, 54671.852847558606, 67047.49966233966, 805.6686288915431, -3197.104119909301, -5890.265809329249, 23901.726174560332, 17211.379672453364, 0.03, 0.984, 0.084, 196.0, 0.0, 0.0, 0.0, 12.0, 217.0, 234.0, 0.0, 0.0, 0.0, 1.687803206068964E9, 0.0, 2023-06-26 13:13:26.068
197.0, 48279.119822874054, 54665.90728353349, 66751.83078668485, 774.7561663098534, -3204.033160690446, -5936.288051162726, 23916.523029389744, 17200.852000814917, 0.03, 0.984, 0.084, 196.0, 253.0, 208.0, 0.0, 12.0, 217.0, 238.0, 0.0, 0.0, 0.0, 1.6878032060739996E9, 0.0, 2023-06-26 13:13:26.073
198.0, 48199.145281212965, 54588.74906167377, 69310.47967797276, 657.387156175036, -3321.6703917587274, -6070.778497550309, 23840.05771160814, 17088.512133182543, 0.03, 0.984, 0.084, 196.0, 30.0, 208.0, 0.0, 12.0, 217.0, 242.0, 0.0, 0.0, 0.0, 1.6878032060770032E9, 0.0, 2023-06-26 13:13:26.077
199.0, 48188.103519452045, 54565.25737825124, 70461.39335172098, 659.2423509648265, -3405.221212532665, -6002.180993816972, 23821.058728821128, 17077.04568827697, 0.03, 0.984, 0.084, 196.0, 4.0, 192.0, 0.0, 12.0, 217.0, 246.0, 0.0, 0.0, 0.0, 1.6878032060810373E9, 0.0, 2023-06-26 13:13:26.081
200.0, 48272.30254081518, 54644.0472774562, 67513.46647899944, 773.0574337312501, -3164.4258695156423, -5898.670065244444, 23868.77970323321, 17171.63827081183, 0.03, 0.984, 0.084, 196.0, 0.0, 0.0, 0.0, 12.0, 217.0, 250.0, 0.0, 0.0, 0.0, 1.6878032060850604E9, 0.0, 2023-06-26 13:13:26.085
201.0, 48261.23842730981, 54649.188178680924, 66535.42119686857, 766.86600051713, -3164.8058491713823, -5910.40473108348, 23898.507523358767, 17195.12995423436, 0.03, 0.984, 0.084, 196.0, 0.0, 0.0, 0.0, 12.0, 217.0, 254.0, 0.0, 0.0, 0.0, 1.6878032060880628E9, 0.0, 2023-06-26 13:13:26.088
202.0, 48191.14335669796, 54580.41186099194, 68850.5478323159, 650.0557839936953, -3253.83284733687, -6032.109979642628, 23825.95376085684, 17087.975691315616, 0.03, 0.984, 0.084, 196.0, 0.0, 0.0, 0.0, 12.0, 218.0, 2.0, 0.0, 0.0, 0.0, 1.6878032060930636E9, 0.0, 2023-06-26 13:13:26.093
203.0, 48162.91310345091, 54544.13497974098, 70593.02277481828, 614.7400277543102, -3331.1251796633223, -6071.761974306342, 23764.46411186029, 17037.818376757907, 0.03, 0.984, 0.084, 196.0, 0.0, 0.0, 0.0, 12.0, 218.0, 6.0, 0.0, 0.0, 0.0, 1.6878032060970836E9, 0.0, 2023-06-26 13:13:26.097
204.0, 48257.17040981894, 54631.217376138855, 68071.47777932617, 742.9943374388621, -3242.2769954534765, -5943.08298147714, 23845.15390934395, 17140.099959385392, 0.03, 0.984, 0.084, 196.0, 0.0, 0.0, 0.0, 12.0, 218.0, 10.0, 0.0, 0.0, 0.0, 1.6878032061001787E9, 0.0, 2023-06-26 13:13:26.100
205.0, 48290.586267779625, 54674.11037374859, 66407.9268464955, 805.7580358693643, -3168.9185701511587, -5869.881018386009, 23933.756224364784, 17224.70131214873, 0.03, 0.984, 0.084, 196.0, 0.0, 0.0, 0.0, 12.0, 218.0, 14.0, 0.0, 0.0, 0.0, 1.6878032061031907E9, 0.0, 2023-06-26 13:13:26.103
206.0, 48224.35804895855, 54612.196041607385, 68336.21184065484, 687.450252467424, -3247.350841444831, -5995.944857113941, 23864.57757527561, 17118.217601563647, 0.03, 0.984, 0.084, 196.0, 0.0, 0.0, 0.0, 12.0, 218.0, 18.0, 0.0, 0.0, 0.0, 1.6878032061071844E9, 0.0, 2023-06-26 13:13:26.107
207.0, 48175.58654255707, 54560.965843315826, 70524.73819550732, 641.1374379560278, -3302.067911871423, -6050.550168818256, 23804.04905129064, 17064.215786959623, 0.03, 0.984, 0.084, 196.0, 254.0, 112.0, 0.0, 12.0, 218.0, 22.0, 0.0, 0.0, 0.0, 1.6878032061111994E9, 0.0, 2023-06-26 13:13:26.111
208.0, 48231.06357229514, 54600.77430019073, 68623.54351562781, 703.2082323084155, -3285.0805860853898, -5991.653322178522, 23821.215191032315, 17113.05434859447, 0.03, 0.984, 0.084, 196.0, 30.0, 144.0, 0.0, 12.0, 218.0, 26.0, 0.0, 0.0, 0.0, 1.6878032061151917E9, 0.0, 2023-06-26 13:13:26.115
209.0, 48264.54648548919, 54641.65564079949, 66419.99678850136, 772.2751226753144, -3201.708579267094, -5929.671934803955, 23919.40640442448, 17203.668320616285, 0.03, 0.984, 0.084, 196.0, 4.0, 160.0, 0.0, 12.0, 218.0, 30.0, 0.0, 0.0, 0.0, 1.6878032061202114E9, 0.0, 2023-06-26 13:13:26.120
210.0, 48215.015019776234, 54598.494422256284, 67929.81242296845, 680.968246575385, -3248.9825187900688, -5987.294732009737, 23875.194653891882, 17119.402244019777, 0.03, 0.984, 0.084, 196.0, 0.0, 0.0, 0.0, 12.0, 218.0, 34.0, 0.0, 0.0, 0.0, 1.6878032061232119E9, 0.0, 2023-06-26 13:13:26.123
211.0, 48162.91310345091, 54541.877453550995, 70351.57923121205, 613.8236062316425, -3341.5634443239505, -6072.723099317921, 23814.643778162455, 17052.86110077633, 0.03, 0.984, 0.084, 196.0, 0.0, 0.0, 0.0, 12.0, 218.0, 38.0, 0.0, 0.0, 0.0, 1.6878032061272423E9, 0.0, 2023-06-26 13:13:26.127
212.0, 48236.42799096442, 54603.52356475873, 69184.9299293673, 683.7175111433877, -3274.396452235753, -5969.368632956581, 23841.220002319813, 17105.410051990755, 0.03, 0.984, 0.084, 196.0, 0.0, 0.0, 0.0, 12.0, 218.0, 42.0, 0.0, 0.0, 0.0, 1.6878032061312494E9, 0.0, 2023-06-26 13:13:26.131
213.0, 48285.646532255, 54659.35822240809, 66529.96737122147, 777.5948378556774, -3185.39180581472, -5892.970370408341, 23914.131392733027, 17192.20187571071, 0.03, 0.984, 0.084, 196.0, 0.0, 0.0, 0.0, 12.0, 218.0, 46.0, 0.0, 0.0, 0.0, 1.6878032061352928E9, 0.0, 2023-06-26 13:13:26.135
214.0, 48267.00517737927, 54646.036582712724, 67532.82308969773, 733.3160320897141, -3190.8009279729044, -5945.720487322866, 23898.95455824787, 17152.192253135712, 0.03, 0.984, 0.084, 196.0, 0.0, 0.0, 0.0, 12.0, 218.0, 50.0, 0.0, 0.0, 0.0, 1.6878032061393063E9, 0.0, 2023-06-26 13:13:26.139
215.0, 48198.60883934604, 54580.05423308066, 70040.80057630547, 656.7613073302874, -3274.284693513476, -6025.963249917419, 23835.4756039948, 17078.051516777457, 0.03, 0.984, 0.084, 196.0, 0.0, 0.0, 0.0, 12.0, 218.0, 54.0, 0.0, 0.0, 0.0, 1.6878032061433268E9, 0.0, 2023-06-26 13:13:26.143
216.0, 48210.52231914071, 54582.356462759555, 69705.77027866486, 671.3346447151476, -3303.677237472205, -6012.395741033047, 23806.798315858643, 17076.352784198854, 0.03, 0.984, 0.084, 196.0, 0.0, 0.0, 0.0, 12.0, 218.0, 58.0, 0.0, 0.0, 0.0, 1.6878032061483657E9, 0.0, 2023-06-26 13:13:26.148
217.0, 48285.89240144401, 54658.10652471859, 66909.09766067239, 787.6754746050209, -3163.1518200816895, -5877.122983589528, 23899.558055348167, 17185.362241907387, 0.03, 0.984, 0.084, 196.0, 254.0, 128.0, 0.0, 12.0, 218.0, 62.0, 0.0, 0.0, 0.0, 1.687803206151362E9, 0.0, 2023-06-26 13:13:26.151
218.0, 48245.99453759129, 54626.188233636414, 67608.01435804539, 727.2810610867812, -3196.4782710645522, -5950.928443780952, 23893.724250045332, 17143.989162920614, 0.03, 0.984, 0.084, 196.0, 29.0, 208.0, 0.0, 12.0, 218.0, 66.0, 0.0, 0.0, 0.0, 1.6878032061563964E9, 0.0, 2023-06-26 13:13:26.156
219.0, 48153.32420507958, 54531.84152029056, 69767.23757591697, 624.4406848479134, -3304.9512869061577, -6076.478192386412, 23802.95381581233, 17041.104083192837, 0.03, 0.984, 0.084, 196.0, 4.0, 32.0, 0.0, 12.0, 218.0, 70.0, 0.0, 0.0, 0.0, 1.687803206160418E9, 0.0, 2023-06-26 13:13:26.160
220.0, 48181.934437982374, 54551.98044204479, 70047.97548627562, 656.2025137189047, -3327.0795139169118, -6065.145857947571, 23802.082097778573, 17057.80083630095, 0.03, 0.984, 0.084, 196.0, 0.0, 0.0, 0.0, 12.0, 218.0, 74.0, 0.0, 0.0, 0.0, 1.687803206164417E9, 0.0, 2023-06-26 13:13:26.164
221.0, 48259.27147379774, 54628.982201693325, 67116.56655270656, 756.67360504551, -3270.9319318451803, -5939.953737253397, 23871.283098612203, 17159.367163105868, 0.03, 0.984, 0.084, 196.0, 0.0, 0.0, 0.0, 12.0, 218.0, 78.0, 0.0, 0.0, 0.0, 1.6878032061684475E9, 0.0, 2023-06-26 13:13:26.168
222.0, 48245.25693002426, 54625.11534990255, 67337.67000885845, 739.9097967040296, -3224.3732481447755, -5958.103353751106, 23896.942901246894, 17159.92595671725, 0.03, 0.984, 0.084, 196.0, 0.0, 0.0, 0.0, 12.0, 218.0, 82.0, 0.0, 0.0, 0.0, 1.6878032061714644E9, 0.0, 2023-06-26 13:13:26.171
223.0, 48196.418368389415, 54568.83365736409, 69416.09167052408, 649.8322665491422, -3257.029146793979, -6026.656153995533, 23846.606772733543, 17078.655013877753, 0.03, 0.984, 0.084, 196.0, 0.0, 0.0, 0.0, 12.0, 218.0, 86.0, 0.0, 0.0, 0.0, 1.687803206174532E9, 0.0, 2023-06-26 13:13:26.174
224.0, 48191.90331600944, 54564.29625323966, 70344.35961775298, 657.6553771084997, -3306.650019484761, -6051.488942085379, 23813.70500489533, 17067.792066072474, 0.03, 0.984, 0.084, 196.0, 0.0, 0.0, 0.0, 12.0, 218.0, 90.0, 0.0, 0.0, 0.0, 1.6878032061784844E9, 0.0, 2023-06-26 13:13:26.178
225.0, 48281.24323859731, 54647.645908313505, 67537.60636301117, 813.961126084462, -3218.0253527194686, -5900.726425734333, 23884.91766272994, 17178.343794148423, 0.03, 0.984, 0.084, 196.0, 0.0, 0.0, 0.0, 12.0, 218.0, 94.0, 0.0, 0.0, 0.0, 1.687803206182515E9, 0.0, 2023-06-26 13:13:26.182
226.0, 48251.157790560464, 54628.75868424877, 67017.28010383608, 767.8941807620741, -3199.048721676913, -5930.901280748997, 23923.988512037817, 17189.027927998057, 0.03, 0.984, 0.084, 196.0, 0.0, 0.0, 0.0, 12.0, 218.0, 97.0, 0.0, 0.0, 0.0, 1.687803206186542E9, 0.0, 2023-06-26 13:13:26.186
227.0, 48166.422327330394, 54546.25839546423, 68970.06260991843, 630.1850831729273, -3313.9813916661014, -6047.711497272432, 23824.255028278236, 17070.653089362753, 0.03, 0.984, 0.084, 196.0, 255.0, 16.0, 0.0, 12.0, 218.0, 101.0, 0.0, 0.0, 0.0, 1.6878032062056298E9, 0.0, 2023-06-26 13:13:26.205
228.0, 48140.851931673526, 54521.76088354122, 70439.8239183216, 616.3270016106369, -3383.8752965778467, -6065.279968414303, 23777.69634457783, 17031.64929528824, 0.03, 0.984, 0.084, 196.0, 30.0, 240.0, 0.0, 12.0, 218.0, 105.0, 0.0, 0.0, 0.0, 1.6878032062096393E9, 0.0, 2023-06-26 13:13:26.209
229.0, 48220.84882507907, 54584.21165754934, 67991.63734813182, 696.1003775716279, -3319.7928452244814, -5962.126667753061, 23823.56212420012, 17119.156374830767, 0.03, 0.984, 0.084, 196.0, 4.0, 80.0, 0.0, 12.0, 218.0, 109.0, 0.0, 0.0, 0.0, 1.687803206212662E9, 0.0, 2023-06-26 13:13:26.212
230.0, 48277.80106995119, 54653.01032698278, 66788.10766793581, 773.5491721092668, -3201.1274339112565, -5922.519376578257, 23933.800927853696, 17216.40881495581, 0.03, 0.984, 0.084, 196.0, 0.0, 0.0, 0.0, 12.0, 218.0, 113.0, 0.0, 0.0, 0.0, 1.687803206216676E9, 0.0, 2023-06-26 13:13:26.216
231.0, 48175.54183906816, 54553.63447113449, 68593.63688154661, 626.6982110378995, -3265.2769404979877, -6086.737643091398, 23842.33758954258, 17085.919330825727, 0.03, 0.984, 0.084, 196.0, 0.0, 0.0, 0.0, 12.0, 218.0, 117.0, 0.0, 0.0, 0.0, 1.687803206219702E9, 0.0, 2023-06-26 13:13:26.219
232.0, 48157.72749873728, 54533.71906682481, 70424.2224006918, 593.1929460993941, -3297.552859491451, -6046.169226905015, 23794.080173263574, 17043.093388449357, 0.03, 0.984, 0.084, 196.0, 0.0, 0.0, 0.0, 12.0, 218.0, 121.0, 0.0, 0.0, 0.0, 1.6878032062227192E9, 0.0, 2023-06-26 13:13:26.222
233.0, 48262.065441854655, 54630.144492405, 68571.17337836903, 742.5025990608453, -3247.59671063384, -5958.863313062587, 23847.366732045026, 17123.291447555, 0.03, 0.984, 0.084, 196.0, 0.0, 0.0, 0.0, 12.0, 218.0, 125.0, 0.0, 0.0, 0.0, 1.687803206226725E9, 0.0, 2023-06-26 13:13:26.226
234.0, 48259.31617728665, 54633.0949226731, 66667.96704148853, 746.3023956182475, -3211.520995082974, -5922.675838789444, 23900.787401293208, 17180.198988938213, 0.03, 0.984, 0.084, 196.0, 0.0, 0.0, 0.0, 12.0, 218.0, 129.0, 0.0, 0.0, 0.0, 1.6878032062297454E9, 0.0, 2023-06-26 13:13:26.229
235.0, 48227.48729318229, 54601.86953566904, 68200.78262100014, 687.1373280450497, -3259.8007631064374, -5971.581455657656, 23865.359886331546, 17107.399357247275, 0.03, 0.984, 0.084, 196.0, 0.0, 0.0, 0.0, 12.0, 218.0, 133.0, 0.0, 0.0, 0.0, 1.6878032062327476E9, 0.0, 2023-06-26 13:13:26.232
236.0, 48169.082184920575, 54550.41581993292, 70240.06637812452, 650.8604467940863, -3333.226243642121, -6046.683317027488, 23807.200647258836, 17046.736722795573, 0.03, 0.984, 0.084, 196.0, 0.0, 0.0, 0.0, 12.0, 218.0, 137.0, 0.0, 0.0, 0.0, 1.687803206236781E9, 0.0, 2023-06-26 13:13:26.236
237.0, 48222.39109544648, 54583.541105215685, 69082.17896010625, 685.9303338444631, -3336.936633221702, -6019.324781814192, 23810.911036838417, 17075.682231865198, 0.03, 0.984, 0.084, 196.0, 255.0, 32.0, 0.0, 12.0, 218.0, 141.0, 0.0, 0.0, 0.0, 1.687803206239772E9, 0.0, 2023-06-26 13:13:26.239
238.0, 48275.632950739026, 54638.16876866446, 66637.56866902932, 783.0039600138617, -3235.25854769451, -5930.74481853781, 23911.404479909477, 17182.702384317206, 0.03, 0.984, 0.084, 196.0, 30.0, 128.0, 0.0, 12.0, 218.0, 145.0, 0.0, 0.0, 0.0, 1.6878032062427847E9, 0.0, 2023-06-26 13:13:26.242
239.0, 48217.183138988396, 54600.68489321291, 67817.6513692917, 678.0178163072844, -3211.364532871787, -5984.5901709306445, 23867.4833020548, 17111.377967760323, 0.03, 0.984, 0.084, 196.0, 4.0, 48.0, 0.0, 12.0, 218.0, 149.0, 0.0, 0.0, 0.0, 1.6878032062468207E9, 0.0, 2023-06-26 13:13:26.246
240.0, 48180.21335365932, 54547.13011349799, 69983.15542735523, 638.6563943214887, -3276.1845917921773, -6060.988433478884, 23824.746766656255, 17045.574432083897, 0.03, 0.984, 0.084, 196.0, 0.0, 0.0, 0.0, 12.0, 218.0, 153.0, 0.0, 0.0, 0.0, 1.687803206249843E9, 0.0, 2023-06-26 13:13:26.249
241.0, 48216.82551107711, 54575.04744232267, 69601.14176286958, 687.5620111897006, -3304.683065972694, -6034.009877921329, 23834.492127238766, 17069.71431609563, 0.03, 0.984, 0.084, 196.0, 0.0, 0.0, 0.0, 12.0, 218.0, 157.0, 0.0, 0.0, 0.0, 1.6878032062538629E9, 0.0, 2023-06-26 13:13:26.253
242.0, 48277.868125184556, 54642.16973092195, 66698.38776569221, 769.9728929964177, -3224.485006867052, -5928.442588858913, 23918.154706734982, 17177.673241814762, 0.03, 0.984, 0.084, 196.0, 0.0, 0.0, 0.0, 12.0, 218.0, 161.0, 0.0, 0.0, 0.0, 1.687803206256873E9, 0.0, 2023-06-26 13:13:26.256
243.0, 48221.96641230183, 54603.545916503186, 67312.34548239059, 686.5338309447565, -3234.7221058275827, -6003.186822317461, 23894.26069191226, 17136.00959015007, 0.03, 0.984, 0.084, 196.0, 0.0, 0.0, 0.0, 12.0, 218.0, 165.0, 0.0, 0.0, 0.0, 1.6878032062599018E9, 0.0, 2023-06-26 13:13:26.259
244.0, 48190.91983925341, 54567.26903525222, 69658.58574611972, 635.0801152086395, -3269.9931585780573, -6053.545302575267, 23836.079101095092, 17062.002964258547, 0.03, 0.984, 0.084, 196.0, 0.0, 0.0, 0.0, 12.0, 218.0, 169.0, 0.0, 0.0, 0.0, 1.6878032062639036E9, 0.0, 2023-06-26 13:13:26.263
245.0, 48204.64381034897, 54571.35940448754, 70105.55357999248, 677.5931331626336, -3298.6927984586714, -6039.95544194644, 23827.42897599089, 17072.79885683046, 0.03, 0.984, 0.084, 196.0, 0.0, 0.0, 0.0, 12.0, 218.0, 173.0, 0.0, 0.0, 0.0, 1.6878032062669492E9, 0.0, 2023-06-26 13:13:26.266
246.0, 48251.224845793826, 54609.84910843958, 67090.0350320381, 736.3111658467252, -3235.7055825836164, -5965.367670699081, 23889.16449417645, 17151.611107779874, 0.03, 0.984, 0.084, 196.0, 0.0, 0.0, 0.0, 12.0, 218.0, 177.0, 0.0, 0.0, 0.0, 1.687803206269968E9, 0.0, 2023-06-26 13:13:26.269
247.0, 48248.90026437047, 54614.632381753014, 66993.11786807989, 750.124543920105, -3219.25469866451, -5911.164690394961, 23919.07112825765, 17168.866654499372, 0.03, 0.984, 0.084, 196.0, 255.0, 16.0, 0.0, 12.0, 218.0, 181.0, 0.0, 0.0, 0.0, 1.6878032062739692E9, 0.0, 2023-06-26 13:13:26.273
248.0, 48186.11421419552, 54557.85895083654, 69197.29044405109, 638.0081937322848, -3292.7919379224704, -6076.411137153046, 23847.76906344522, 17068.95435678415, 0.03, 0.984, 0.084, 196.0, 30.0, 160.0, 0.0, 12.0, 218.0, 185.0, 0.0, 0.0, 0.0, 1.6878032062769995E9, 0.0, 2023-06-26 13:13:26.276
249.0, 48159.917969693895, 54532.48972087976, 70329.6968733903, 606.7381032393102, -3339.0153454560455, -6085.01655876834, 23811.916865338906, 17045.797949528453, 0.03, 0.984, 0.084, 196.0, 4.0, 0.0, 0.0, 12.0, 218.0, 189.0, 0.0, 0.0, 0.0, 1.6878032062809992E9, 0.0, 2023-06-26 13:13:26.280
250.0, 48230.70594438386, 54602.137756602504, 67523.03302562631, 737.4734565584013, -3304.973638650613, -5927.280298147238, 23865.87397645402, 17135.361389560865, 0.03, 0.984, 0.084, 196.0, 0.0, 0.0, 0.0, 12.0, 218.0, 193.0, 0.0, 0.0, 0.0, 1.6878032062840085E9, 0.0, 2023-06-26 13:13:26.284
251.0, 48230.34831647257, 54607.23395433831, 66692.4422016671, 725.6717354859991, -3260.8065916069263, -5945.809894300687, 23895.937072746405, 17157.936651460728, 0.03, 0.984, 0.084, 196.0, 0.0, 0.0, 0.0, 12.0, 218.0, 197.0, 0.0, 0.0, 0.0, 1.687803206288034E9, 0.0, 2023-06-26 13:13:26.288
252.0, 48203.5262231262, 54579.696605169374, 68734.72109254851, 629.2686616502598, -3215.656067807206, -6051.421886852013, 23849.378389046004, 17078.744420855575, 0.03, 0.984, 0.084, 196.0, 0.0, 0.0, 0.0, 12.0, 218.0, 201.0, 0.0, 0.0, 0.0, 1.6878032062920678E9, 0.0, 2023-06-26 13:13:26.292
253.0, 48166.19880988584, 54524.2195754313, 70409.35849062902, 647.485333381335, -3309.3322288193976, -6051.555997318745, 23816.118993296506, 17058.516092123522, 0.03, 0.984, 0.084, 196.0, 0.0, 0.0, 0.0, 12.0, 218.0, 205.0, 0.0, 0.0, 0.0, 1.6878032062960777E9, 0.0, 2023-06-26 13:13:26.296
254.0, 48227.241423993284, 54578.62372143552, 68010.77044138557, 688.8584123681084, -3277.9503796041467, -6013.558031744723, 23844.796281432664, 17108.76281365905, 0.03, 0.984, 0.084, 196.0, 0.0, 0.0, 0.0, 12.0, 218.0, 209.0, 0.0, 0.0, 0.0, 1.687803206300086E9, 0.0, 2023-06-26 13:13:26.300
255.0, 48262.132497088016, 54630.85974822757, 66515.05875766979, 701.6883136854547, -3228.9330040136583, -5939.551405853201, 23911.87386654304, 17179.617843582375, 0.03, 0.984, 0.084, 196.0, 0.0, 0.0, 0.0, 12.0, 218.0, 213.0, 0.0, 0.0, 0.0, 1.6878032063051908E9, 0.0, 2023-06-26 13:13:26.305
0.0, 48239.98191833281, 54603.121233358535, 68337.46353834434, 716.1051888591277, -3237.203149462122, -6013.222755577893, 23876.62516553702, 17110.461546237653, 0.03, 0.984, 0.084, 196.0, 0.0, 0.0, 0.0, 12.0, 218.0, 217.0, 0.0, 0.0, 0.0, 1.6878032063082082E9, 0.0, 2023-06-26 13:13:26.308
1.0, 48196.50777536724, 54566.26320675173, 70386.93969094034, 657.7000805974103, -3309.6004497528616, -6031.260613353326, 23827.317217268614, 17070.98836552958, 0.03, 0.984, 0.084, 196.0, 0.0, 0.0, 0.0, 12.0, 218.0, 221.0, 0.0, 0.0, 0.0, 1.687803206311188E9, 0.0, 2023-06-26 13:13:26.311
2.0, 48226.07913328161, 54601.82483218013, 68596.74377402589, 684.9915605773402, -3322.966792937135, -5999.52113622679, 23836.48143249529, 17100.827944377415, 0.03, 0.984, 0.084, 196.0, 0.0, 0.0, 0.0, 12.0, 218.0, 225.0, 0.0, 0.0, 0.0, 1.6878032063161871E9, 0.0, 2023-06-26 13:13:26.316
3.0, 48302.99148595232, 54670.04235625772, 66473.30569902727, 813.4917394509006, -3256.8950363272475, -5919.166614909961, 23944.21684076987, 17207.132841006856, 0.03, 0.984, 0.084, 196.0, 0.0, 0.0, 0.0, 12.0, 218.0, 229.0, 0.0, 0.0, 0.0, 1.6878032063202019E9, 0.0, 2023-06-26 13:13:26.320
4.0, 48243.31232825665, 54606.36223630455, 67939.04369342848, 695.3404182601474, -3230.2741086809765, -5985.104261053117, 23897.836971025106, 17117.927028885726, 0.03, 0.984, 0.084, 196.0, 0.0, 0.0, 0.0, 12.0, 218.0, 233.0, 0.0, 0.0, 0.0, 1.6878032063242333E9, 0.0, 2023-06-26 13:13:26.324
5.0, 48164.65653951842, 54518.63163931747, 70198.04509854855, 611.2755073637376, -3312.8861561877916, -6094.49369841739, 23802.015042545205, 17033.61624880031, 0.03, 0.984, 0.084, 196.0, 0.0, 0.0, 0.0, 12.0, 218.0, 237.0, 0.0, 0.0, 0.0, 1.6878032063282385E9, 0.0, 2023-06-26 13:13:26.328
6.0, 48238.37259273203, 54581.64120693698, 69222.48086005222, 711.1878050789601, -3270.4401934671637, -5999.655246693522, 23837.621371462512, 17092.021357062025, 0.03, 0.984, 0.084, 196.0, 0.0, 0.0, 0.0, 12.0, 218.0, 241.0, 0.0, 0.0, 0.0, 1.6878032063322637E9, 0.0, 2023-06-26 13:13:26.332
7.0, 48301.22569814035, 54670.936426035936, 66583.85742710321, 826.2545855348809, -3214.11379743979, -5867.042346840185, 23925.12845100504, 17193.69944258922, 0.03, 0.984, 0.084, 196.0, 254.0, 224.0, 0.0, 12.0, 218.0, 245.0, 0.0, 0.0, 0.0, 1.6878032063363073E9, 0.0, 2023-06-26 13:13:26.336
8.0, 48266.78165993472, 54639.08519018712, 67606.67325337807, 765.5025441053563, -3159.307320035377, -5927.615574314067, 23939.67943664544, 17163.144607918814, 0.03, 0.984, 0.084, 196.0, 30.0, 176.0, 0.0, 12.0, 218.0, 249.0, 0.0, 0.0, 0.0, 1.6878032063392985E9, 0.0, 2023-06-26 13:13:26.339
9.0, 48151.67017598989, 54532.17679645739, 69910.28874043093, 600.9937049142962, -3299.1845368366885, -6075.785288308298, 23829.86531613652, 17039.09242619186, 0.03, 0.984, 0.084, 196.0, 4.0, 0.0, 0.0, 12.0, 218.0, 253.0, 0.0, 0.0, 0.0, 1.6878032063423176E9, 0.0, 2023-06-26 13:13:26.342
10.0, 48229.58835716109, 54583.78697440469, 69698.88594137263, 660.1811242319494, -3308.6393247412834, -6061.100192201161, 23845.422130277413, 17066.294499193966, 0.03, 0.984, 0.084, 196.0, 0.0, 0.0, 0.0, 12.0, 219.0, 1.0, 0.0, 0.0, 0.0, 1.6878032063463268E9, 0.0, 2023-06-26 13:13:26.346
11.0, 48307.439483098926, 54658.57591135215, 66790.27578714798, 770.6210935856216, -3206.134224669245, -5918.540766065213, 23942.853384358095, 17191.799544310517, 0.03, 0.984, 0.084, 196.0, 0.0, 0.0, 0.0, 12.0, 219.0, 5.0, 0.0, 0.0, 0.0, 1.6878032063503537E9, 0.0, 2023-06-26 13:13:26.350
12.0, 48238.93138634341, 54581.2835790257, 67242.69744666785, 700.5707264626892, -3234.811512805404, -5976.677653393466, 23917.73002359033, 17146.760779233075, 0.03, 0.984, 0.084, 196.0, 0.0, 0.0, 0.0, 12.0, 219.0, 9.0, 0.0, 0.0, 0.0, 1.687803206355352E9, 0.0, 2023-06-26 13:13:26.355
13.0, 48139.04144037264, 54518.40812187292, 69536.45581441591, 586.9791611408187, -3315.4789585446074, -6138.839559416719, 23835.90028713945, 17036.589030812866, 0.03, 0.984, 0.084, 196.0, 0.0, 0.0, 0.0, 12.0, 219.0, 13.0, 0.0, 0.0, 0.0, 1.6878032063593912E9, 0.0, 2023-06-26 13:13:26.359
14.0, 48212.80219707516, 54570.19711377587, 70091.42727749674, 697.0167990942955, -3315.8589382003474, -6014.161528845016, 23846.427958777902, 17082.27599647951, 0.03, 0.984, 0.084, 196.0, 0.0, 0.0, 0.0, 12.0, 219.0, 17.0, 0.0, 0.0, 0.0, 1.6878032063624E9, 0.0, 2023-06-26 13:13:26.362
15.0, 48287.27820960024, 54643.8461117561, 67136.83958492751, 815.3692859851463, -3206.4695008360745, -5865.343614261582, 23922.043910270204, 17189.698480331717, 0.03, 0.984, 0.084, 196.0, 0.0, 0.0, 0.0, 12.0, 219.0, 21.0, 0.0, 0.0, 0.0, 1.6878032063664308E9, 0.0, 2023-06-26 13:13:26.366
16.0, 48242.99940383428, 54590.00075936327, 66974.16358878178, 741.6532327715437, -3172.427794030642, -5966.865237577586, 23940.819375612664, 17173.560520834984, 0.03, 0.984, 0.084, 196.0, 0.0, 0.0, 0.0, 12.0, 219.0, 25.0, 0.0, 0.0, 0.0, 1.6878032063704405E9, 0.0, 2023-06-26 13:13:26.370
17.0, 48196.68658932288, 54521.87264226349, 69189.10970558044, 663.5338859002454, -3274.843487124859, -6028.8466249521525, 23860.174281617914, 17074.89992080926, 0.03, 0.984, 0.084, 196.0, 254.0, 208.0, 0.0, 12.0, 219.0, 29.0, 0.0, 0.0, 0.0, 1.6878032063814907E9, 0.0, 2023-06-26 13:13:26.381
18.0, 48203.86149929303, 54573.63928242199, 70385.03979266164, 640.7351065558322, -3325.492540060585, -6043.621128037111, 23828.7253771693, 17060.974784013604, 0.03, 0.984, 0.084, 196.0, 30.0, 176.0, 0.0, 12.0, 219.0, 33.0, 0.0, 0.0, 0.0, 1.6878032063845062E9, 0.0, 2023-06-26 13:13:26.384
19.0, 48231.82353160662, 54591.99006461979, 67576.83367453024, 704.6163922090999, -3288.0757198424008, -6008.841813664653, 23866.566880532133, 17126.599505734386, 0.03, 0.984, 0.084, 196.0, 3.0, 240.0, 0.0, 12.0, 219.0, 37.0, 0.0, 0.0, 0.0, 1.6878032063885324E9, 0.0, 2023-06-26 13:13:26.388
20.0, 48238.10437179856, 54613.671256741436, 66700.19825699308, 703.6329154530663, -3288.388644264775, -5996.861278636608, 23917.50650614578, 17170.341869633423, 0.03, 0.984, 0.084, 196.0, 0.0, 0.0, 0.0, 12.0, 219.0, 41.0, 0.0, 0.0, 0.0, 1.6878032063915255E9, 0.0, 2023-06-26 13:13:26.391
21.0, 48187.83529851858, 54528.95814525583, 68705.73087998998, 566.3261492641151, -3317.7811882235037, -6054.126447931105, 23825.61848469001, 17054.403371143744, 0.03, 0.984, 0.084, 196.0, 0.0, 0.0, 0.0, 12.0, 219.0, 45.0, 0.0, 0.0, 0.0, 1.6878032063965476E9, 0.0, 2023-06-26 13:13:26.396
22.0, 48202.63215334799, 54565.570302673616, 70430.54794437265, 666.7301853573543, -3276.229295281088, -6041.922395458508, 23821.773984643696, 17053.397542643255, 0.03, 0.984, 0.084, 196.0, 0.0, 0.0, 0.0, 12.0, 219.0, 49.0, 0.0, 0.0, 0.0, 1.6878032064015818E9, 0.0, 2023-06-26 13:13:26.401
23.0, 48285.758290977275, 54638.30287913119, 68110.70509084524, 815.570451685244, -3226.787236545949, -5889.215277339849, 23893.478380856322, 17161.691744529217, 0.03, 0.984, 0.084, 196.0, 0.0, 0.0, 0.0, 12.0, 219.0, 53.0, 0.0, 0.0, 0.0, 1.6878032064046116E9, 0.0, 2023-06-26 13:13:26.404
24.0, 48249.23554053731, 54603.255343825265, 66566.22190072798, 735.6182617686108, -3203.9214019681694, -5914.964486952364, 23936.147861021505, 17197.901570546815, 0.03, 0.984, 0.084, 196.0, 0.0, 0.0, 0.0, 12.0, 219.0, 57.0, 0.0, 0.0, 0.0, 1.6878032064076169E9, 0.0, 2023-06-26 13:13:26.407
25.0, 48190.8751357645, 54572.96873008832, 68323.69486375987, 623.4348563474246, -3265.7016236426384, -6033.227566865393, 23876.602813792564, 17098.05632806496, 0.03, 0.984, 0.084, 196.0, 0.0, 0.0, 0.0, 12.0, 219.0, 61.0, 0.0, 0.0, 0.0, 1.6878032064116383E9, 0.0, 2023-06-26 13:13:26.411
26.0, 48184.750757783746, 54550.86285482203, 70353.99321961323, 699.5201944732898, -3347.777229282526, -6071.5831603506995, 23821.975150343795, 17051.877624020293, 0.03, 0.984, 0.084, 196.0, 0.0, 0.0, 0.0, 12.0, 219.0, 65.0, 0.0, 0.0, 0.0, 1.6878032064146533E9, 0.0, 2023-06-26 13:13:26.414
27.0, 48267.80984017967, 54608.37389330553, 68655.81943462127, 710.6513632120327, -3299.944496148169, -6020.732941714877, 23852.19470884737, 17102.839601378393, 0.03, 0.984, 0.084, 196.0, 254.0, 192.0, 0.0, 12.0, 219.0, 69.0, 0.0, 0.0, 0.0, 1.6878032064176707E9, 0.0, 2023-06-26 13:13:26.417
28.0, 48279.83507869662, 54638.14641692, 66527.82160375376, 751.4209450985128, -3235.102085483323, -5947.061591990184, 23927.96712255086, 17194.951140278714, 0.03, 0.984, 0.084, 196.0, 30.0, 176.0, 0.0, 12.0, 219.0, 73.0, 0.0, 0.0, 0.0, 1.68780320642069E9, 0.0, 2023-06-26 13:13:26.420
29.0, 48189.10934795253, 54569.481857953295, 67947.76087376605, 678.643665152033, -3308.6616764857386, -6023.772778960798, 23873.518273057733, 17102.325511255924, 0.03, 0.984, 0.084, 196.0, 3.0, 160.0, 0.0, 12.0, 219.0, 77.0, 0.0, 0.0, 0.0, 1.6878032064247034E9, 0.0, 2023-06-26 13:13:26.424
30.0, 48130.637184457446, 54487.67447324687, 70148.91596423578, 570.1930010548832, -3348.850113016381, -6073.505410373857, 23819.62821717599, 17031.023446443494, 0.03, 0.984, 0.084, 196.0, 0.0, 0.0, 0.0, 12.0, 219.0, 81.0, 0.0, 0.0, 0.0, 1.68780320642771E9, 0.0, 2023-06-26 13:13:26.427
31.0, 48174.13367916748, 54531.528595868185, 69207.99692964517, 640.0198507332624, -3319.032885913001, -6021.247031837348, 23829.32887426959, 17067.769714328017, 0.03, 0.984, 0.084, 196.0, 0.0, 0.0, 0.0, 12.0, 219.0, 85.0, 0.0, 0.0, 0.0, 1.6878032064307225E9, 0.0, 2023-06-26 13:13:26.430
32.0, 48268.346282046594, 54588.41378550694, 66622.1236136107, 692.4123397365022, -3196.6570850201947, -5902.425158312936, 23936.93017207744, 17198.192143224733, 0.03, 0.984, 0.084, 196.0, 0.0, 0.0, 0.0, 12.0, 219.0, 89.0, 0.0, 0.0, 0.0, 1.6878032064347496E9, 0.0, 2023-06-26 13:13:26.434
33.0, 48187.41061537393, 54605.15524210397, 67608.3049307233, 624.5077400812793, -3223.9932684890355, -6002.873897895086, 23896.5405698467, 17115.78126141802, 0.03, 0.984, 0.084, 196.0, 0.0, 0.0, 0.0, 12.0, 219.0, 93.0, 0.0, 0.0, 0.0, 1.6878032064387689E9, 0.0, 2023-06-26 13:13:26.438
34.0, 48270.64851172549, 54605.15524210397, 69858.3432863168, 708.2373748108596, -3262.8182486079036, -6057.05452645475, 23880.134389416504, 17085.360537214343, 0.03, 0.984, 0.084, 196.0, 0.0, 0.0, 0.0, 12.0, 219.0, 97.0, 0.0, 0.0, 0.0, 1.687803206442792E9, 0.0, 2023-06-26 13:13:26.442
35.0, 48217.16078724394, 54583.31758777113, 69704.16095306409, 781.6181518576327, -3285.1252895743, -5992.7485576568315, 23870.72430500082, 17108.38283400331, 0.03, 0.984, 0.084, 196.0, 0.0, 0.0, 0.0, 12.0, 219.0, 101.0, 0.0, 0.0, 0.0, 1.6878032064467938E9, 0.0, 2023-06-26 13:13:26.446
36.0, 48153.30185333513, 54543.620889618505, 66771.12034214978, 715.7475609478428, -3331.5051593190624, -5957.432801417447, 23876.44635158138, 17146.269040855055, 0.03, 0.984, 0.084, 196.0, 0.0, 0.0, 0.0, 12.0, 219.0, 105.0, 0.0, 0.0, 0.0, 1.6878032064498148E9, 0.0, 2023-06-26 13:13:26.449
37.0, 48177.464089091314, 54520.73270329627, 67239.7246646553, 602.0218851592405, -3272.2506847680434, -6055.53460783179, 23871.39485733448, 17102.683139167206, 0.03, 0.984, 0.084, 196.0, 254.0, 176.0, 0.0, 12.0, 219.0, 109.0, 0.0, 0.0, 0.0, 1.687803206453844E9, 0.0, 2023-06-26 13:13:26.453
38.0, 48185.10838569503, 54536.64714534845, 69487.79606673672, 679.3365692301476, -3256.783277604971, -6010.406435776525, 23864.86814795353, 17085.986386059092, 0.03, 0.984, 0.084, 196.0, 30.0, 160.0, 0.0, 12.0, 219.0, 113.0, 0.0, 0.0, 0.0, 1.6878032064598887E9, 0.0, 2023-06-26 13:13:26.459
39.0, 48080.7480908332, 54439.81938836806, 70016.90656148274, 528.7305150902886, -3358.99780499909, -6060.742564289876, 23799.556350655123, 17037.684266291173, 0.03, 0.984, 0.084, 196.0, 3.0, 176.0, 0.0, 12.0, 219.0, 117.0, 0.0, 0.0, 0.0, 1.6878032064628842E9, 0.0, 2023-06-26 13:13:26.462
40.0, 48249.99549984879, 54591.81125066415, 67086.99519479218, 660.002310276307, -3313.400246310264, -5991.18393554496, 23864.041133408682, 17128.789976691005, 0.03, 0.984, 0.084, 196.0, 0.0, 0.0, 0.0, 12.0, 219.0, 121.0, 0.0, 0.0, 0.0, 1.6878032064668984E9, 0.0, 2023-06-26 13:13:26.466
41.0, 48257.81861040815, 54647.53414959123, 67001.49977225062, 783.3839396696019, -3232.844559293337, -5941.898339021009, 23923.988512037817, 17164.26219514158, 0.03, 0.984, 0.084, 196.0, 0.0, 0.0, 0.0, 12.0, 219.0, 125.0, 0.0, 0.0, 0.0, 1.6878032064709253E9, 0.0, 2023-06-26 13:13:26.470
42.0, 48231.7341246288, 54586.46918373933, 69128.04473972855, 745.4530293289458, -3232.6657453376947, -5997.397720503535, 23886.951671475374, 17103.57720894542, 0.03, 0.984, 0.084, 196.0, 0.0, 0.0, 0.0, 12.0, 219.0, 129.0, 0.0, 0.0, 0.0, 1.6878032064749663E9, 0.0, 2023-06-26 13:13:26.474
43.0, 48118.47783547376, 54528.39935164444, 70276.3879628644, 676.2296767508599, -3320.7539702360596, -6031.640593009066, 23826.57960970159, 17057.823188045408, 0.03, 0.984, 0.084, 196.0, 0.0, 0.0, 0.0, 12.0, 219.0, 133.0, 0.0, 0.0, 0.0, 1.687803206480004E9, 0.0, 2023-06-26 13:13:26.480
44.0, 48247.82738063662, 54621.18144287842, 67551.7997207403, 722.1848633509712, -3235.616175605795, -5954.325908938159, 23910.242189197805, 17154.38272409233, 0.03, 0.984, 0.084, 196.0, 0.0, 0.0, 0.0, 12.0, 219.0, 137.0, 0.0, 0.0, 0.0, 1.6878032064850028E9, 0.0, 2023-06-26 13:13:26.485
45.0, 48165.8188302301, 54516.26235440521, 66746.26520231548, 597.7079984793662, -3234.655050594217, -6026.387933062069, 23928.280046973236, 17152.236956624623, 0.03, 0.984, 0.084, 196.0, 0.0, 0.0, 0.0, 12.0, 219.0, 141.0, 0.0, 0.0, 0.0, 1.68780320648902E9, 0.0, 2023-06-26 13:13:26.489
46.0, 48295.481299815336, 54625.02594292474, 68725.55687732183, 685.3938919775358, -3273.2118097796215, -6013.982714889374, 23890.01386046575, 17107.75698515856, 0.03, 0.984, 0.084, 196.0, 0.0, 0.0, 0.0, 12.0, 219.0, 145.0, 0.0, 0.0, 0.0, 1.6878032064930396E9, 0.0, 2023-06-26 13:13:26.493
47.0, 48216.132606998995, 54591.40891926395, 70358.9106033934, 758.7970207687641, -3337.830702999914, -6007.947743886441, 23853.044075136673, 17086.36636571483, 0.03, 0.984, 0.084, 196.0, 254.0, 240.0, 0.0, 12.0, 219.0, 149.0, 0.0, 0.0, 0.0, 1.6878032064980965E9, 0.0, 2023-06-26 13:13:26.498
48.0, 48219.39596168947, 54589.15139307397, 68082.49718934264, 742.4131920830241, -3282.4430802396632, -5981.170354028983, 23865.53870028719, 17115.311874784456, 0.03, 0.984, 0.084, 196.0, 30.0, 192.0, 0.0, 12.0, 219.0, 153.0, 0.0, 0.0, 0.0, 1.6878032065010624E9, 0.0, 2023-06-26 13:13:26.501
49.0, 48178.71578678081, 54551.93573855588, 66569.55231065182, 676.9449325734297, -3270.1719725336998, -5973.369595214081, 23885.319994130135, 17142.648058253297, 0.03, 0.984, 0.084, 196.0, 3.0, 176.0, 0.0, 12.0, 219.0, 157.0, 0.0, 0.0, 0.0, 1.6878032065142055E9, 0.0, 2023-06-26 13:13:26.514
50.0, 48212.89160405298, 54597.64505596698, 68311.379052565, 600.9490014253856, -3265.4110509647194, -6087.877582058619, 23854.184014103892, 17071.033069018493, 0.03, 0.984, 0.084, 196.0, 0.0, 0.0, 0.0, 12.0, 219.0, 161.0, 0.0, 0.0, 0.0, 1.6878032065172205E9, 0.0, 2023-06-26 13:13:26.517
51.0, 48228.91780482743, 54582.200000548364, 70308.21684696876, 722.9224709179963, -3282.487783728574, -6012.306334055225, 23859.459025795346, 17089.540313427486, 0.03, 0.984, 0.084, 196.0, 0.0, 0.0, 0.0, 12.0, 219.0, 165.0, 0.0, 0.0, 0.0, 1.6878032065211835E9, 0.0, 2023-06-26 13:13:26.521
53.0, 48320.649364072015, 54651.64687057101, 66551.87208078767, 751.286834631781, -3186.8893726932256, -5908.16955663795, 23935.320846476658, 17193.25240770011, 0.03, 0.984, 0.084, 196.0, 0.0, 0.0, 0.0, 12.0, 219.0, 173.0, 0.0, 0.0, 0.0, 1.6878032065241969E9, 0.0, 2023-06-26 13:13:26.524
54.0, 48339.603643370116, 54717.67392369198, 67980.41677241526, 707.4774154993792, -3214.359666628798, -6011.099339854639, 23928.682378373433, 17138.937668673716, 0.03, 0.984, 0.084, 196.0, 0.0, 0.0, 0.0, 12.0, 219.0, 177.0, 0.0, 0.0, 0.0, 1.6878032065282116E9, 0.0, 2023-06-26 13:13:26.528
55.0, 48159.82856271608, 54548.158293742934, 70079.0891145574, 633.4707896078575, -3343.8433222583917, -6053.232378152893, 23838.738958685277, 17058.98547875708, 0.03, 0.984, 0.084, 196.0, 0.0, 0.0, 0.0, 12.0, 219.0, 181.0, 0.0, 0.0, 0.0, 1.6878032065312345E9, 0.0, 2023-06-26 13:13:26.531
56.0, 48139.443771772836, 54554.61794789052, 69133.63267584237, 650.8604467940863, -3418.7216661836705, -6104.529631677822, 23766.296954905625, 17015.868963702796, 0.03, 0.984, 0.084, 196.0, 0.0, 0.0, 0.0, 12.0, 219.0, 185.0, 0.0, 0.0, 0.0, 1.6878032065342531E9, 0.0, 2023-06-26 13:13:26.534
57.0, 48175.43008034588, 54530.00867724523, 66526.56990606427, 649.3181764266702, -3274.8881906137694, -6018.162491102516, 23866.946860187873, 17114.82013640644, 0.03, 0.984, 0.084, 196.0, 254.0, 224.0, 0.0, 12.0, 219.0, 189.0, 0.0, 0.0, 0.0, 1.6878032065382657E9, 0.0, 2023-06-26 13:13:26.538
58.0, 48163.60600752902, 54510.16032816891, 67555.8453864867, 700.1013398291278, -3238.7007163406274, -5977.079984793661, 23884.62709005202, 17107.019377591536, 0.03, 0.984, 0.084, 196.0, 30.0, 224.0, 0.0, 12.0, 219.0, 193.0, 0.0, 0.0, 0.0, 1.6878032065412865E9, 0.0, 2023-06-26 13:13:26.541
59.0, 48278.40456705148, 54675.22796097135, 69801.83807633378, 729.8068082102309, -3255.5762834043844, -5975.090679537139, 23874.211177135847, 17094.14477278528, 0.03, 0.984, 0.084, 196.0, 3.0, 144.0, 0.0, 12.0, 219.0, 197.0, 0.0, 0.0, 0.0, 1.6878032065443008E9, 0.0, 2023-06-26 13:13:26.544
60.0, 48264.25591281127, 54603.16593684744, 69680.46810394146, 634.4766181083463, -3307.745254963071, -6034.166340132516, 23823.405661988934, 17059.745438068563, 0.03, 0.984, 0.084, 196.0, 0.0, 0.0, 0.0, 12.0, 219.0, 201.0, 0.0, 0.0, 0.0, 1.6878032065483236E9, 0.0, 2023-06-26 13:13:26.548
61.0, 48270.35793904757, 54602.696550213885, 66776.44005733014, 687.8078803787089, -3249.809533334915, -5978.354034227614, 23905.123639717538, 17158.450741583198, 0.03, 0.984, 0.084, 196.0, 0.0, 0.0, 0.0, 12.0, 219.0, 205.0, 0.0, 0.0, 0.0, 1.687803206552342E9, 0.0, 2023-06-26 13:13:26.552
62.0, 48394.00778937433, 54759.44933407895, 67343.14618625, 861.5032865409001, -3163.0847648483236, -5878.888771401497, 23984.47233253388, 17222.64495165884, 0.03, 0.984, 0.084, 196.0, 0.0, 0.0, 0.0, 12.0, 219.0, 209.0, 0.0, 0.0, 0.0, 1.6878032065553553E9, 0.0, 2023-06-26 13:13:26.555
63.0, 48229.834226350096, 54635.128931418534, 69458.02354312224, 677.7942988627314, -3273.5694376909064, -6078.579256365211, 23856.843871694073, 17075.391659187277, 0.03, 0.984, 0.084, 196.0, 0.0, 0.0, 0.0, 12.0, 219.0, 213.0, 0.0, 0.0, 0.0, 1.6878032065603797E9, 0.0, 2023-06-26 13:13:26.560
64.0, 48031.95423268727, 54446.3013942601, 69983.93773841116, 508.41277938041446, -3443.7556199736146, -6116.912498106062, 23741.30770460459, 16987.68341394465, 0.03, 0.984, 0.084, 196.0, 0.0, 0.0, 0.0, 12.0, 219.0, 217.0, 0.0, 0.0, 0.0, 1.6878032065643969E9, 0.0, 2023-06-26 13:13:26.564
65.0, 48255.292863284696, 54604.372931048034, 67103.15550603336, 749.610453797633, -3236.867873295292, -5920.865347488564, 23884.694145285386, 17146.134930388325, 0.03, 0.984, 0.084, 196.0, 0.0, 0.0, 0.0, 12.0, 219.0, 221.0, 0.0, 0.0, 0.0, 1.6878032065694287E9, 0.0, 2023-06-26 13:13:26.569
66.0, 48296.732997504834, 54665.01321375528, 66995.9118361368, 812.798835372786, -3207.6988467811166, -5915.858556730575, 23935.11968077656, 17178.63436682634, 0.03, 0.984, 0.084, 196.0, 0.0, 0.0, 0.0, 12.0, 219.0, 225.0, 0.0, 0.0, 0.0, 1.6878032065724275E9, 0.0, 2023-06-26 13:13:26.572
67.0, 48291.79326198021, 54615.14647187549, 69078.44621878222, 745.8553607291414, -3225.6025940898176, -5984.634874419556, 23891.645537810986, 17109.969807859638, 0.03, 0.984, 0.084, 196.0, 254.0, 208.0, 0.0, 12.0, 219.0, 229.0, 0.0, 0.0, 0.0, 1.687803206577464E9, 0.0, 2023-06-26 13:13:26.577
68.0, 48222.279336724205, 54548.00183153175, 70262.39577083537, 580.0054168707629, -3348.4254298717296, -6121.4946057194, 23810.106374038027, 17033.169213911202, 0.03, 0.984, 0.084, 196.0, 30.0, 208.0, 0.0, 12.0, 219.0, 233.0, 0.0, 0.0, 0.0, 1.6878032065814848E9, 0.0, 2023-06-26 13:13:26.581
69.0, 48204.21912720432, 54556.31668046912, 67554.37017135265, 651.12866772755, -3293.3954350227636, -6040.357773346636, 23848.551374501156, 17100.96205484415, 0.03, 0.984, 0.084, 196.0, 3.0, 144.0, 0.0, 12.0, 219.0, 237.0, 0.0, 0.0, 0.0, 1.6878032065854993E9, 0.0, 2023-06-26 13:13:26.585
70.0, 48293.871974214555, 54702.27357176228, 66739.91730689017, 833.3624402716686, -3276.1175365588115, -5948.380344913047, 23907.96231126336, 17166.49736958711, 0.03, 0.984, 0.084, 196.0, 0.0, 0.0, 0.0, 12.0, 219.0, 241.0, 0.0, 0.0, 0.0, 1.687803206588506E9, 0.0, 2023-06-26 13:13:26.588
71.0, 48206.94604002786, 54584.47987848281, 68643.59303040421, 624.0160017032625, -3279.2467807825547, -6071.270235928326, 23867.013915421237, 17090.121458783324, 0.03, 0.984, 0.084, 196.0, 0.0, 0.0, 0.0, 12.0, 219.0, 245.0, 0.0, 0.0, 0.0, 1.687803206594555E9, 0.0, 2023-06-26 13:13:26.594
72.0, 48222.59226114658, 54605.423463037434, 70331.61912341346, 679.6271419080665, -3278.0397865819677, -6053.120619430616, 23857.804996705654, 17077.80564758845, 0.03, 0.984, 0.084, 196.0, 0.0, 0.0, 0.0, 12.0, 219.0, 249.0, 0.0, 0.0, 0.0, 1.6878032065975604E9, 0.0, 2023-06-26 13:13:26.597
73.0, 48236.09271479758, 54588.570247718126, 68106.50296288765, 793.0622450187499, -3281.3254930168982, -5888.5000215172795, 23862.25299385226, 17127.53827900151, 0.03, 0.984, 0.084, 196.0, 0.0, 0.0, 0.0, 12.0, 219.0, 253.0, 0.0, 0.0, 0.0, 1.6878032066015835E9, 0.0, 2023-06-26 13:13:26.601
74.0, 48293.26847711426, 54641.81210301067, 66566.02073502788, 779.4053291565573, -3107.4512728990644, -5831.2125004783275, 23973.564681239688, 17227.02589357208, 0.03, 0.984, 0.084, 196.0, 0.0, 0.0, 0.0, 12.0, 220.0, 1.0, 0.0, 0.0, 0.0, 1.6878032066045704E9, 0.0, 2023-06-26 13:13:26.604
75.0, 48202.25217369225, 54544.64906986345, 68238.60177261851, 610.6720102634442, -3289.908562887736, -6059.110886944639, 23853.088778625584, 17069.267281206525, 0.03, 0.984, 0.084, 196.0, 0.0, 0.0, 0.0, 12.0, 220.0, 5.0, 0.0, 0.0, 0.0, 1.6878032066075883E9, 0.0, 2023-06-26 13:13:26.607
76.0, 48251.5377702162, 54549.52175015471, 70244.40261654886, 628.0169639607625, -3273.7258999020937, -6100.059282786761, 23839.34245578557, 17047.13905419577, 0.03, 0.984, 0.084, 196.0, 0.0, 0.0, 0.0, 12.0, 220.0, 9.0, 0.0, 0.0, 0.0, 1.6878032066115985E9, 0.0, 2023-06-26 13:13:26.611
77.0, 48224.82743559211, 54647.8470740136, 68685.07786811327, 734.5900815236666, -3299.1845368366885, -5989.038168077251, 23830.267647536715, 17076.308080709947, 0.03, 0.984, 0.084, 196.0, 254.0, 208.0, 0.0, 12.0, 220.0, 13.0, 0.0, 0.0, 0.0, 1.6878032066156416E9, 0.0, 2023-06-26 13:13:26.615
78.0, 48223.97806930281, 54623.05898941267, 66507.43681281053, 800.8853555781074, -3294.848298412359, -5920.6641817884665, 23886.459933097358, 17158.96483170567, 0.03, 0.984, 0.084, 196.0, 30.0, 192.0, 0.0, 12.0, 220.0, 17.0, 0.0, 0.0, 0.0, 1.6878032066196387E9, 0.0, 2023-06-26 13:13:26.619
79.0, 48247.96149110336, 54622.61195452356, 67891.03214633849, 589.035521630707, -3297.6422664692723, -6113.157405037571, 23859.660191495444, 17075.548121398464, 0.03, 0.984, 0.084, 196.0, 3.0, 224.0, 0.0, 12.0, 220.0, 21.0, 0.0, 0.0, 0.0, 1.6878032066226585E9, 0.0, 2023-06-26 13:13:26.622
80.0, 48304.08672143063, 54683.162830252986, 70059.55368990346, 785.06032050375, -3213.711466039594, -6007.120729341595, 23899.133372203516, 17117.703511441174, 0.03, 0.984, 0.084, 196.0, 0.0, 0.0, 0.0, 12.0, 220.0, 25.0, 0.0, 0.0, 0.0, 1.687803206627695E9, 0.0, 2023-06-26 13:13:26.627
81.0, 48222.145226257475, 54601.48955601329, 69247.44775860879, 768.6764918180099, -3229.8717772807813, -5896.770166965744, 23895.11005820156, 17144.994991421103, 0.03, 0.984, 0.084, 196.0, 0.0, 0.0, 0.0, 12.0, 220.0, 29.0, 0.0, 0.0, 0.0, 1.687803206632725E9, 0.0, 2023-06-26 13:13:26.632
82.0, 48259.204418564375, 54658.978242752346, 66569.97699379647, 778.4665558894344, -3238.9465855296357, -5904.056835658173, 23924.07791901564, 17190.681957087752, 0.03, 0.984, 0.084, 196.0, 0.0, 0.0, 0.0, 12.0, 220.0, 33.0, 0.0, 0.0, 0.0, 1.6878032066357353E9, 0.0, 2023-06-26 13:13:26.635
83.0, 48286.31708458866, 54673.01513827028, 67547.01644742685, 684.2092495214044, -3289.5062314875404, -5994.603752446622, 23893.25486341177, 17122.95617138817, 0.03, 0.984, 0.084, 196.0, 0.0, 0.0, 0.0, 12.0, 220.0, 37.0, 0.0, 0.0, 0.0, 1.6878032066407783E9, 0.0, 2023-06-26 13:13:26.640
84.0, 48173.86545823401, 54555.377907202, 69696.94133960502, 652.872103795064, -3307.298220073965, -6015.703799212432, 23851.613563491534, 17069.736667840083, 0.03, 0.984, 0.084, 196.0, 0.0, 0.0, 0.0, 12.0, 220.0, 41.0, 0.0, 0.0, 0.0, 1.687803206643754E9, 0.0, 2023-06-26 13:13:26.643
85.0, 48311.37339012306, 54676.367899938574, 69738.87321220318, 812.4635592059565, -3213.420893361675, -5970.307406223704, 23885.051773196672, 17126.778319690027, 0.03, 0.984, 0.084, 196.0, 0.0, 0.0, 0.0, 12.0, 220.0, 45.0, 0.0, 0.0, 0.0, 1.6878032066477988E9, 0.0, 2023-06-26 13:13:26.647
86.0, 48257.28216854122, 54635.821835496645, 66778.89874922023, 653.162676472983, -3318.6976097461716, -6007.143081086049, 23852.306467569648, 17129.661694724764, 0.03, 0.984, 0.084, 196.0, 0.0, 0.0, 0.0, 12.0, 220.0, 49.0, 0.0, 0.0, 0.0, 1.6878032066508E9, 0.0, 2023-06-26 13:13:26.650
87.0, 48357.88737033455, 54741.947918170445, 67283.71289774333, 710.6290114675775, -3113.6203543687293, -5884.811983682154, 23990.619062259088, 17218.845155101437, 0.03, 0.984, 0.084, 196.0, 254.0, 208.0, 0.0, 12.0, 220.0, 53.0, 0.0, 0.0, 0.0, 1.6878032066558151E9, 0.0, 2023-06-26 13:13:26.655
88.0, 48289.401625323495, 54649.43404786993, 69426.6863973959, 807.6355824036101, -3127.4113806976534, -5958.282167706749, 23948.866003616575, 17157.44491308271, 0.03, 0.984, 0.084, 196.0, 30.0, 208.0, 0.0, 12.0, 220.0, 57.0, 0.0, 0.0, 0.0, 1.6878032066598208E9, 0.0, 2023-06-26 13:13:26.659
89.0, 48202.073359736605, 54587.60912270655, 70054.72571310111, 711.8583574126193, -3292.970751878113, -6077.886352287096, 23843.790452932175, 17069.781371328994, 0.03, 0.984, 0.084, 196.0, 3.0, 208.0, 0.0, 12.0, 220.0, 61.0, 0.0, 0.0, 0.0, 1.6878032066779475E9, 0.0, 2023-06-26 13:13:26.677
90.0, 48200.21816494682, 54625.11534990255, 67128.27886680113, 738.8145612257197, -3358.394307898797, -5982.8243831186755, 23835.65441795044, 17111.020339849038, 0.03, 0.984, 0.084, 196.0, 0.0, 0.0, 0.0, 12.0, 220.0, 65.0, 0.0, 0.0, 0.0, 1.687803206680935E9, 0.0, 2023-06-26 13:13:26.680
91.0, 48353.84170458814, 54765.08197368169, 66996.42592625928, 873.9085047135956, -3184.654198247695, -5820.885994539976, 23957.203204298403, 17214.665378888294, 0.03, 0.984, 0.084, 196.0, 0.0, 0.0, 0.0, 12.0, 220.0, 69.0, 0.0, 0.0, 0.0, 1.6878032066839352E9, 0.0, 2023-06-26 13:13:26.683
92.0, 48216.44553142137, 54634.011344195766, 69016.10720349637, 713.2665173133037, -3253.9446060591467, -5966.440554432936, 23890.840875010595, 17103.532505456507, 0.03, 0.984, 0.084, 196.0, 0.0, 0.0, 0.0, 12.0, 220.0, 73.0, 0.0, 0.0, 0.0, 1.6878032066879659E9, 0.0, 2023-06-26 13:13:26.687
93.0, 48128.20084431182, 54534.30021218064, 70218.02755809159, 497.01338970820785, -3431.2386430786423, -6160.8560277051965, 23756.641001300934, 16973.825332382363, 0.03, 0.984, 0.084, 196.0, 0.0, 0.0, 0.0, 12.0, 220.0, 77.0, 0.0, 0.0, 0.0, 1.687803206690966E9, 0.0, 2023-06-26 13:13:26.690
94.0, 48285.355959577086, 54652.80916128268, 67616.01628256039, 700.4142642515021, -3257.297367727443, -6005.042017107251, 23883.509502829256, 17120.76570043155, 0.03, 0.984, 0.084, 196.0, 0.0, 0.0, 0.0, 12.0, 220.0, 81.0, 0.0, 0.0, 0.0, 1.6878032066950111E9, 0.0, 2023-06-26 13:13:26.695
95.0, 48344.8115998282, 54740.293889080756, 66781.84917948833, 829.6073472031769, -3171.690186463617, -5875.7595271777545, 23994.88824545005, 17231.987980841157, 0.03, 0.984, 0.084, 196.0, 0.0, 0.0, 0.0, 12.0, 220.0, 85.0, 0.0, 0.0, 0.0, 1.6878032066980247E9, 0.0, 2023-06-26 13:13:26.698
96.0, 48272.01196813727, 54636.671201785946, 68638.42977743504, 644.6019583466003, -3243.036954764957, -6035.663907011021, 23879.799113249675, 17095.016490819038, 0.03, 0.984, 0.084, 196.0, 0.0, 0.0, 0.0, 12.0, 220.0, 89.0, 0.0, 0.0, 0.0, 1.6878032067010238E9, 0.0, 2023-06-26 13:13:26.701
97.0, 48167.9198942089, 54604.99877989278, 70350.01460910018, 694.1110723151055, -3235.97380351708, -6042.548244303256, 23870.098456156073, 17082.454810435156, 0.03, 0.984, 0.084, 196.0, 254.0, 208.0, 0.0, 12.0, 220.0, 93.0, 0.0, 0.0, 0.0, 1.6878032067060428E9, 0.0, 2023-06-26 13:13:26.706
98.0, 48320.49290186082, 54674.33389119314, 68215.93710374083, 796.3032479647694, -3244.8921495547474, -5929.716638292866, 23903.82723853913, 17147.87836645584, 0.03, 0.984, 0.084, 196.0, 30.0, 144.0, 0.0, 12.0, 220.0, 97.0, 0.0, 0.0, 0.0, 1.687803206709066E9, 0.0, 2023-06-26 13:13:26.709
99.0, 48340.162436981496, 54749.68162175198, 66597.89432262116, 856.183571360537, -3206.715370025083, -5884.364948793048, 23951.771730395765, 17206.55169565102, 0.03, 0.984, 0.084, 196.0, 3.0, 208.0, 0.0, 12.0, 220.0, 101.0, 0.0, 0.0, 0.0, 1.6878032067130902E9, 0.0, 2023-06-26 13:13:26.713
100.0, 48229.99068856129, 54628.848091226595, 68244.81555757708, 710.1372730895607, -3219.7240852980717, -5983.964322085896, 23890.505598843767, 17101.699662411174, 0.03, 0.984, 0.084, 196.0, 0.0, 0.0, 0.0, 12.0, 220.0, 105.0, 0.0, 0.0, 0.0, 1.6878032067161083E9, 0.0, 2023-06-26 13:13:26.716
101.0, 48126.658573944405, 54549.007660032235, 70177.83912156094, 564.3815474965033, -3431.8197884344804, -6088.481079158912, 23758.451492601813, 16980.866131885785, 0.03, 0.984, 0.084, 196.0, 0.0, 0.0, 0.0, 12.0, 220.0, 109.0, 0.0, 0.0, 0.0, 1.6878032067192037E9, 0.0, 2023-06-26 13:13:26.719
102.0, 48253.30355802817, 54659.51468461927, 68744.06412173083, 680.7000256419213, -3341.6304995573164, -5975.51536268179, 23825.79729864565, 17069.08846725088, 0.03, 0.984, 0.084, 196.0, 0.0, 0.0, 0.0, 12.0, 220.0, 113.0, 0.0, 0.0, 0.0, 1.6878032067221997E9, 0.0, 2023-06-26 13:13:26.722
103.0, 48372.237190274864, 54784.14801170207, 66582.40456371363, 915.9074325451176, -3085.6359703106846, -5813.889898525465, 24029.71226331142, 17272.332879582988, 0.03, 0.984, 0.084, 196.0, 0.0, 0.0, 0.0, 12.0, 220.0, 117.0, 0.0, 0.0, 0.0, 1.687803206726184E9, 0.0, 2023-06-26 13:13:26.726
104.0, 48277.59990425109, 54686.023853543265, 67893.2226172951, 750.1021921756497, -3161.430735758631, -6009.847642165142, 23968.110855592593, 17161.334116617934, 0.03, 0.984, 0.084, 196.0, 0.0, 0.0, 0.0, 12.0, 220.0, 121.0, 0.0, 0.0, 0.0, 1.6878032067291806E9, 0.0, 2023-06-26 13:13:26.729
105.0, 48202.006304503244, 54599.63436122351, 69989.3245088249, 634.7001355528994, -3275.1564115472333, -6031.484130797879, 23863.6835054974, 17063.075847992404, 0.03, 0.984, 0.084, 196.0, 0.0, 0.0, 0.0, 12.0, 220.0, 125.0, 0.0, 0.0, 0.0, 1.687803206732181E9, 0.0, 2023-06-26 13:13:26.732
106.0, 48271.855505926076, 54601.48955601329, 69261.21643319326, 640.9139205114748, -3283.3818535067862, -6028.868976696608, 23865.941031687384, 17091.57432217292, 0.03, 0.984, 0.084, 196.0, 0.0, 0.0, 0.0, 12.0, 220.0, 129.0, 0.0, 0.0, 0.0, 1.6878032067362092E9, 0.0, 2023-06-26 13:13:26.736
107.0, 48304.57845980865, 54720.0655603487, 66612.40060477264, 827.6627454355652, -3205.0166374464798, -5921.1335684220285, 23960.913593877984, 17210.68676837525, 0.03, 0.984, 0.084, 196.0, 254.0, 176.0, 0.0, 12.0, 220.0, 133.0, 0.0, 0.0, 0.0, 1.6878032067392173E9, 0.0, 2023-06-26 13:13:26.739
108.0, 48238.4843514543, 54700.0607490612, 67531.61609549714, 781.4616896464455, -3302.2020223381546, -5911.45526307288, 23873.71943875783, 17110.953284615673, 0.03, 0.984, 0.084, 196.0, 30.0, 160.0, 0.0, 12.0, 220.0, 137.0, 0.0, 0.0, 0.0, 1.6878032067422345E9, 0.0, 2023-06-26 13:13:26.742
109.0, 48237.36676423154, 54627.1940621369, 69714.37570028016, 682.4658134538905, -3250.0777542683786, -5995.0954908246395, 23866.499825298768, 17073.268243464023, 0.03, 0.984, 0.084, 196.0, 3.0, 208.0, 0.0, 12.0, 220.0, 141.0, 0.0, 0.0, 0.0, 1.6878032067462676E9, 0.0, 2023-06-26 13:13:26.746
110.0, 48233.45520895186, 54623.327210346135, 69737.01801741339, 649.3405281711255, -3298.5810397363953, -6036.8261977226975, 23834.46977549431, 17057.66672583422, 0.03, 0.984, 0.084, 196.0, 0.0, 0.0, 0.0, 12.0, 220.0, 145.0, 0.0, 0.0, 0.0, 1.6878032067492652E9, 0.0, 2023-06-26 13:13:26.749
111.0, 48300.3986835955, 54704.82167063018, 66847.96563958713, 810.3401434827023, -3188.1634221271784, -5939.6855163199325, 23946.161442537483, 17184.82580004046, 0.03, 0.984, 0.084, 196.0, 0.0, 0.0, 0.0, 12.0, 220.0, 149.0, 0.0, 0.0, 0.0, 1.6878032067522988E9, 0.0, 2023-06-26 13:13:26.752
112.0, 48260.34435753159, 54677.977225539355, 67228.10175753853, 774.286779676292, -3224.6638208226946, -5937.673859318956, 23955.012733341784, 17174.92397724676, 0.03, 0.984, 0.084, 196.0, 0.0, 0.0, 0.0, 12.0, 220.0, 153.0, 0.0, 0.0, 0.0, 1.687803206756317E9, 0.0, 2023-06-26 13:13:26.756
113.0, 48220.35708670105, 54635.46420758536, 69338.8216899421, 661.969263788374, -3259.0855072838676, -6079.361567421147, 23857.939107172384, 17054.112798465827, 0.03, 0.984, 0.084, 196.0, 0.0, 0.0, 0.0, 12.0, 220.0, 157.0, 0.0, 0.0, 0.0, 1.687803206759318E9, 0.0, 2023-06-26 13:13:26.759
114.0, 48184.616647317016, 54573.79574463317, 70079.46909421314, 657.9459497864187, -3318.5411475349842, -6056.451029354457, 23814.95670258483, 17043.629830316288, 0.03, 0.984, 0.084, 196.0, 0.0, 0.0, 0.0, 12.0, 220.0, 161.0, 0.0, 0.0, 0.0, 1.687803206762323E9, 0.0, 2023-06-26 13:13:26.762
115.0, 48271.900209414984, 54680.659434873996, 67196.11641122299, 763.3567766376468, -3256.8503328383367, -5896.099614632084, 23894.215988423348, 17148.86184321187, 0.03, 0.984, 0.084, 196.0, 0.0, 0.0, 0.0, 12.0, 220.0, 165.0, 0.0, 0.0, 0.0, 1.687803206766359E9, 0.0, 2023-06-26 13:13:26.766
116.0, 48256.52220922973, 54650.08224845913, 66908.22594263863, 701.2189270518932, -3279.0456150824566, -5975.269493492782, 23913.97493052184, 17144.369142576354, 0.03, 0.984, 0.084, 196.0, 0.0, 0.0, 0.0, 12.0, 220.0, 169.0, 0.0, 0.0, 0.0, 1.6878032067703793E9, 0.0, 2023-06-26 13:13:26.770
117.0, 48226.749685615265, 54628.02107668175, 68942.70407470514, 638.678746065944, -3325.4031330827634, -6094.583105395211, 23829.552391714144, 17042.37813262679, 0.03, 0.984, 0.084, 196.0, 254.0, 176.0, 0.0, 12.0, 220.0, 173.0, 0.0, 0.0, 0.0, 1.6878032067744095E9, 0.0, 2023-06-26 13:13:26.774
118.0, 48245.81572363564, 54674.46800165987, 70296.45982938526, 729.2927180877589, -3244.3780594322757, -6006.740749685854, 23871.372505590025, 17092.446040206676, 0.03, 0.984, 0.084, 196.0, 30.0, 96.0, 0.0, 12.0, 220.0, 177.0, 0.0, 0.0, 0.0, 1.6878032067774055E9, 0.0, 2023-06-26 13:13:26.777
119.0, 48370.02436757379, 54760.477514323895, 67708.28428367189, 820.6442976765989, -3158.681471190628, -5879.604027224068, 23957.069093831673, 17198.63917811384, 0.03, 0.984, 0.084, 196.0, 4.0, 32.0, 0.0, 12.0, 220.0, 181.0, 0.0, 0.0, 0.0, 1.6878032067834291E9, 0.0, 2023-06-26 13:13:26.783
120.0, 48222.79342684668, 54650.73044904834, 66687.21189346456, 792.0340647738058, -3249.4295536791747, -5911.812890984165, 23931.610456897077, 17172.040602212026, 0.03, 0.984, 0.084, 196.0, 0.0, 0.0, 0.0, 12.0, 220.0, 185.0, 0.0, 0.0, 0.0, 1.6878032067874644E9, 0.0, 2023-06-26 13:13:26.787
121.0, 48226.10148502606, 54642.72852453334, 68587.98189019941, 667.4230894354689, -3266.238065509566, -6012.060464866217, 23894.193636678894, 17095.977615830616, 0.03, 0.984, 0.084, 196.0, 0.0, 0.0, 0.0, 12.0, 220.0, 189.0, 0.0, 0.0, 0.0, 1.687803206790552E9, 0.0, 2023-06-26 13:13:26.790
122.0, 48192.46210962083, 54594.739329187796, 70303.5453323776, 574.9762743683189, -3339.9541187231684, -6084.100137245672, 23811.067499049605, 17029.145899909247, 0.03, 0.984, 0.084, 196.0, 0.0, 0.0, 0.0, 12.0, 220.0, 193.0, 0.0, 0.0, 0.0, 1.6878032067944856E9, 0.0, 2023-06-26 13:13:26.794
123.0, 48258.10918308606, 54677.507838905796, 68226.9565137573, 756.0701079452167, -3271.1107458008228, -5983.4725837078795, 23869.00322067776, 17112.160278816256, 0.03, 0.984, 0.084, 196.0, 0.0, 0.0, 0.0, 12.0, 220.0, 197.0, 0.0, 0.0, 0.0, 1.6878032068005335E9, 0.0, 2023-06-26 13:13:26.800
124.0, 48323.443332128925, 54726.21229007391, 66544.74187430643, 830.5014169813892, -3163.1965235706, -5924.285164390227, 23989.881454692062, 17215.179469010767, 0.03, 0.984, 0.084, 196.0, 0.0, 0.0, 0.0, 12.0, 220.0, 201.0, 0.0, 0.0, 0.0, 1.6878032068035343E9, 0.0, 2023-06-26 13:13:26.803
125.0, 48260.679633698426, 54666.175504466955, 68176.70979222177, 716.5745754926892, -3232.0175447484908, -6005.153775829527, 23926.178982994436, 17126.48774701211, 0.03, 0.984, 0.084, 196.0, 0.0, 0.0, 0.0, 12.0, 220.0, 205.0, 0.0, 0.0, 0.0, 1.687803206807556E9, 0.0, 2023-06-26 13:13:26.807
126.0, 48145.67990847587, 54600.55078274618, 70172.98879301416, 704.2140608089043, -3306.3147433179315, -6026.186767361971, 23859.6825432399, 17065.087504993382, 0.03, 0.984, 0.084, 196.0, 0.0, 0.0, 0.0, 12.0, 220.0, 209.0, 0.0, 0.0, 0.0, 1.6878032068115816E9, 0.0, 2023-06-26 13:13:26.811
127.0, 48217.87604306651, 54607.21160259385, 68767.55580515334, 680.2306390083598, -3367.491467892107, -5985.774813386776, 23818.86825786451, 17062.94173752567, 0.03, 0.984, 0.084, 196.0, 254.0, 128.0, 0.0, 12.0, 220.0, 213.0, 0.0, 0.0, 0.0, 1.6878032068165886E9, 0.0, 2023-06-26 13:13:26.816
128.0, 48289.17810787894, 54683.721623864374, 66506.9450744325, 770.3752243966132, -3188.6104570162843, -5927.056780702685, 23930.40346269649, 17178.276738915058, 0.03, 0.984, 0.084, 196.0, 30.0, 128.0, 0.0, 12.0, 220.0, 217.0, 0.0, 0.0, 0.0, 1.6878032068206117E9, 0.0, 2023-06-26 13:13:26.820
129.0, 48220.26767972323, 54621.18144287842, 67812.24224713353, 655.1743334739606, -3194.578372785851, -6020.487072525868, 23906.487096129313, 17107.309950269457, 0.03, 0.984, 0.084, 196.0, 4.0, 16.0, 0.0, 12.0, 220.0, 221.0, 0.0, 0.0, 0.0, 1.6878032068246427E9, 0.0, 2023-06-26 13:13:26.824
130.0, 48149.43500154436, 54580.65773018095, 69928.93009530666, 541.2251402408052, -3283.806536651437, -6121.6510679305875, 23851.188880346883, 17035.4714435901, 0.03, 0.984, 0.084, 196.0, 0.0, 0.0, 0.0, 12.0, 220.0, 225.0, 0.0, 0.0, 0.0, 1.6878032068276513E9, 0.0, 2023-06-26 13:13:26.827
131.0, 48246.97801434732, 54659.469981130365, 69352.79153022666, 736.3782210800912, -3304.995990395068, -5970.217999245882, 23864.130540386504, 17090.993176817083, 0.03, 0.984, 0.084, 196.0, 0.0, 0.0, 0.0, 12.0, 220.0, 229.0, 0.0, 0.0, 0.0, 1.687803206832661E9, 0.0, 2023-06-26 13:13:26.832
132.0, 48313.31799189067, 54718.59034521465, 66641.81550047583, 808.8202248597414, -3195.3830355862424, -5886.980102894318, 23965.18277706895, 17207.177544495768, 0.03, 0.984, 0.084, 196.0, 0.0, 0.0, 0.0, 12.0, 220.0, 233.0, 0.0, 0.0, 0.0, 1.6878032068356917E9, 0.0, 2023-06-26 13:13:26.835
133.0, 48259.472639497835, 54666.28726318923, 67471.55695814574, 717.2451278263484, -3255.26335898201, -6014.250935822837, 23913.527895632735, 17118.351712030377, 0.03, 0.984, 0.084, 196.0, 0.0, 0.0, 0.0, 12.0, 220.0, 237.0, 0.0, 0.0, 0.0, 1.6878032068387227E9, 0.0, 2023-06-26 13:13:26.838
134.0, 48261.864276154556, 54681.39704244102, 69656.23881295191, 726.3422878196583, -3201.39565484472, -6000.973999616385, 23921.082785258626, 17112.450851494177, 0.03, 0.984, 0.084, 196.0, 0.0, 0.0, 0.0, 12.0, 220.0, 241.0, 0.0, 0.0, 0.0, 1.6878032068417263E9, 0.0, 2023-06-26 13:13:26.841
135.0, 48206.20843246084, 54640.35923962107, 69783.6214046027, 679.8283076081643, -3282.063100583923, -6006.383121774569, 23864.264650853238, 17079.057345277946, 0.03, 0.984, 0.084, 196.0, 0.0, 0.0, 0.0, 12.0, 220.0, 245.0, 0.0, 0.0, 0.0, 1.687803206846758E9, 0.0, 2023-06-26 13:13:26.846
136.0, 48322.14693095052, 54720.93727838246, 66878.49812251308, 803.0087713013615, -3197.685265265139, -5921.155920166483, 23941.26641050177, 17177.986166237137, 0.03, 0.984, 0.084, 196.0, 0.0, 0.0, 0.0, 12.0, 220.0, 249.0, 0.0, 0.0, 0.0, 1.6878032068507895E9, 0.0, 2023-06-26 13:13:26.850
137.0, 48283.32195083165, 54694.33870248064, 67145.15443386488, 763.1779626820044, -3246.590882133351, -5980.253932506315, 23927.2965702172, 17144.480901298633, 0.03, 0.984, 0.084, 196.0, 254.0, 80.0, 0.0, 12.0, 220.0, 253.0, 0.0, 0.0, 0.0, 1.687803206854786E9, 0.0, 2023-06-26 13:13:26.854
138.0, 48201.55926961414, 54620.68970450041, 69263.4963111277, 656.0460515077176, -3226.9213470126806, -6030.008915663829, 23901.01091873776, 17090.009700061048, 0.03, 0.984, 0.084, 196.0, 30.0, 176.0, 0.0, 12.0, 221.0, 1.0, 0.0, 0.0, 0.0, 1.6878032068590057E9, 0.0, 2023-06-26 13:13:26.859
139.0, 48181.599161815546, 54584.61398894954, 70076.51866394504, 637.3599931430809, -3324.6655255157384, -6021.04586613725, 23838.470737751813, 17057.353801411846, 0.03, 0.984, 0.084, 196.0, 4.0, 16.0, 0.0, 12.0, 221.0, 5.0, 0.0, 0.0, 0.0, 1.6878032068628137E9, 0.0, 2023-06-26 13:13:26.862
140.0, 48268.45804076887, 54688.16962101098, 67208.45457416232, 813.5587946842664, -3268.6967573996494, -5916.305591619682, 23904.58719785061, 17154.40507583679, 0.03, 0.984, 0.084, 196.0, 0.0, 0.0, 0.0, 12.0, 221.0, 9.0, 0.0, 0.0, 0.0, 1.6878032068668325E9, 0.0, 2023-06-26 13:13:26.866
141.0, 48215.30559245415, 54658.30769041869, 66850.15611054374, 694.7145694153988, -3228.7318383135607, -6028.109017385128, 23920.59104688061, 17135.33903781641, 0.03, 0.984, 0.084, 196.0, 0.0, 0.0, 0.0, 12.0, 221.0, 13.0, 0.0, 0.0, 0.0, 1.687803206871881E9, 0.0, 2023-06-26 13:13:26.871
142.0, 48186.0248072177, 54590.38073901901, 68886.5564926334, 624.3289261256368, -3295.071815856912, -6046.504503071846, 23860.509557784746, 17060.125417724303, 0.03, 0.984, 0.084, 196.0, 0.0, 0.0, 0.0, 12.0, 221.0, 17.0, 0.0, 0.0, 0.0, 1.687803206874895E9, 0.0, 2023-06-26 13:13:26.874
143.0, 48101.22228875426, 54541.20690121733, 70218.2734272806, 576.6750069469222, -3434.8149221914914, -6095.074843773227, 23790.615652873, 17009.096385132838, 0.03, 0.984, 0.084, 196.0, 0.0, 0.0, 0.0, 12.0, 221.0, 21.0, 0.0, 0.0, 0.0, 1.6878032068799167E9, 0.0, 2023-06-26 13:13:26.879
144.0, 48303.08089293014, 54697.06561530419, 67701.13172544619, 758.0594132017391, -3251.575321146884, -5964.071269520673, 23904.944825761897, 17139.563517518465, 0.03, 0.984, 0.084, 196.0, 0.0, 0.0, 0.0, 12.0, 221.0, 25.0, 0.0, 0.0, 0.0, 1.687803206883948E9, 0.0, 2023-06-26 13:13:26.883
145.0, 48306.54541332072, 54719.73028418187, 66672.77266654643, 806.316829480747, -3122.9857352955028, -5863.220198538327, 24010.80268750223, 17234.513727964608, 0.03, 0.984, 0.084, 196.0, 0.0, 0.0, 0.0, 12.0, 221.0, 29.0, 0.0, 0.0, 0.0, 1.6878032068879628E9, 0.0, 2023-06-26 13:13:26.887
146.0, 48240.808932877655, 54662.889798032025, 68499.62544436759, 639.7292780553435, -3241.807608819915, -6022.744598715854, 23916.701843345385, 17107.600522947374, 0.03, 0.984, 0.084, 196.0, 0.0, 0.0, 0.0, 12.0, 221.0, 33.0, 0.0, 0.0, 0.0, 1.6878032068919744E9, 0.0, 2023-06-26 13:13:26.891
147.0, 48160.65557726092, 54582.647035437476, 70220.35213951494, 581.100652349073, -3344.022136214034, -6099.075806030728, 23812.788583372665, 17018.864097459806, 0.03, 0.984, 0.084, 196.0, 254.0, 128.0, 0.0, 12.0, 221.0, 37.0, 0.0, 0.0, 0.0, 1.6878032068969803E9, 0.0, 2023-06-26 13:13:26.896
148.0, 48248.11795331454, 54657.34656540711, 68246.40253143341, 808.7084661374648, -3276.519867959007, -5942.546539610212, 23876.3345928591, 17119.223430064136, 0.03, 0.984, 0.084, 196.0, 30.0, 224.0, 0.0, 12.0, 221.0, 41.0, 0.0, 0.0, 0.0, 1.6878032069050543E9, 0.0, 2023-06-26 13:13:26.905
149.0, 48242.66412766745, 54668.65654810149, 66493.98106264842, 806.4285882030235, -3206.3800938582535, -5895.116137876051, 23971.150692838513, 17211.17850675327, 0.03, 0.984, 0.084, 196.0, 4.0, 0.0, 0.0, 12.0, 221.0, 45.0, 0.0, 0.0, 0.0, 1.6878032069161043E9, 0.0, 2023-06-26 13:13:26.916
