%OpenBCI Raw EEG Data
%Number of channels = 8
%Sample Rate = 250 Hz
%Board = OpenBCI_GUI$BoardCytonSerial
Sample Index, EXG Channel 0, EXG Channel 1, EXG Channel 2, EXG Channel 3, EXG Channel 4, EXG Channel 5, EXG Channel 6, EXG Channel 7, Accel Channel 0, Accel Channel 1, Accel Channel 2, Other, Other, Other, Other, Other, Other, Other, Analog Channel 0, Analog Channel 1, Analog Channel 2, Timestamp, Other, Timestamp (Formatted)
186.0, -51504.029512885754, -34470.30150536317, 187500.0, 187500.0, 187500.0, 187500.0, 187500.0, 187500.0, 0.0, 0.0, 0.0, 192.0, 0.0, 0.0, 0.0, 0.0, 0.0, 0.0, 0.0, 0.0, 0.0, 1.682097025188465E9, 0.0, 2023-04-21 12:10:25.188
187.0, -51398.97631394581, -34409.7729813782, 187500.0, 187500.0, 187500.0, 187500.0, 187500.0, 187500.0, 0.0, 0.0, 0.0, 192.0, 0.0, 0.0, 0.0, 0.0, 0.0, 0.0, 0.0, 0.0, 0.0, 1.6820970251884885E9, 0.0, 2023-04-21 12:10:25.188
188.0, -51294.504260361704, -34442.00419688275, 187500.0, 187500.0, 187500.0, 187500.0, 187500.0, 187500.0, 0.092, 0.996, -0.01, 192.0, 2.0, 224.0, 31.0, 32.0, 255.0, 176.0, 0.0, 0.0, 0.0, 1.6820970251885004E9, 0.0, 2023-04-21 12:10:25.188
189.0, -51393.52248829872, -34515.07204950715, 187500.0, 187500.0, 187500.0, 187500.0, 187500.0, 187500.0, 0.092, 0.996, -0.01, 192.0, 0.0, 0.0, 0.0, 0.0, 0.0, 0.0, 0.0, 0.0, 0.0, 1.6820970251885147E9, 0.0, 2023-04-21 12:10:25.188
190.0, -51508.09753037662, -34486.238299159806, 187500.0, 187500.0, 187500.0, 187500.0, 187500.0, 187500.0, 0.092, 0.996, -0.01, 192.0, 0.0, 0.0, 0.0, 0.0, 0.0, 0.0, 0.0, 0.0, 0.0, 1.6820970251885295E9, 0.0, 2023-04-21 12:10:25.188
191.0, -51428.70413407137, -34421.5747024506, 187500.0, 187500.0, 187500.0, 187500.0, 187500.0, 187500.0, 0.092, 0.996, -0.01, 192.0, 0.0, 0.0, 0.0, 0.0, 0.0, 0.0, 0.0, 0.0, 0.0, 1.6820970251885424E9, 0.0, 2023-04-21 12:10:25.188
192.0, -51304.42843489986, -34435.678653201896, 187500.0, 187500.0, 187500.0, 187500.0, 187500.0, 187500.0, 0.092, 0.996, -0.01, 192.0, 0.0, 0.0, 0.0, 0.0, 0.0, 0.0, 0.0, 0.0, 0.0, 1.6820970251885536E9, 0.0, 2023-04-21 12:10:25.188
193.0, -51381.609008504034, -34522.00109028829, 187500.0, 187500.0, 187500.0, 187500.0, 187500.0, 187500.0, 0.092, 0.996, -0.01, 192.0, 0.0, 0.0, 0.0, 0.0, 0.0, 0.0, 0.0, 0.0, 0.0, 1.682097025188566E9, 0.0, 2023-04-21 12:10:25.188
194.0, -51500.81086168419, -34493.3908573855, 187500.0, 187500.0, 187500.0, 187500.0, 187500.0, 187500.0, 0.092, 0.996, -0.01, 192.0, 0.0, 0.0, 0.0, 0.0, 0.0, 0.0, 0.0, 0.0, 0.0, 1.6820970251885772E9, 0.0, 2023-04-21 12:10:25.188
195.0, -51462.47761994334, -34435.544542735166, 187500.0, 187500.0, 187500.0, 187500.0, 187500.0, 187500.0, 0.092, 0.996, -0.01, 192.0, 0.0, 0.0, 0.0, 0.0, 0.0, 0.0, 0.0, 0.0, 0.0, 1.6820970251885903E9, 0.0, 2023-04-21 12:10:25.188
196.0, -51310.82103381408, -34417.86431287102, 187500.0, 187500.0, 187500.0, 187500.0, 187500.0, 187500.0, 0.092, 0.996, -0.01, 192.0, 0.0, 0.0, 0.0, 0.0, 0.0, 0.0, 0.0, 0.0, 0.0, 1.6820970251886022E9, 0.0, 2023-04-21 12:10:25.188
197.0, -51346.87439762049, -34504.5443778687, 187500.0, 187500.0, 187500.0, 187500.0, 187500.0, 187500.0, 0.092, 0.996, -0.01, 192.0, 0.0, 0.0, 0.0, 0.0, 0.0, 0.0, 0.0, 0.0, 0.0, 1.6820970251886137E9, 0.0, 2023-04-21 12:10:25.188
198.0, -51480.80605039669, -34500.07402897764, 187500.0, 187500.0, 187500.0, 187500.0, 187500.0, 187500.0, 0.09, 0.992, -0.014, 192.0, 2.0, 208.0, 31.0, 0.0, 255.0, 144.0, 0.0, 0.0, 0.0, 1.6820970251886249E9, 0.0, 2023-04-21 12:10:25.188
199.0, -51478.25795152879, -34447.77094695222, 187500.0, 187500.0, 187500.0, 187500.0, 187500.0, 187500.0, 0.09, 0.992, -0.014, 192.0, 0.0, 0.0, 0.0, 0.0, 0.0, 0.0, 0.0, 0.0, 0.0, 1.6820970251886373E9, 0.0, 2023-04-21 12:10:25.188
200.0, -51322.37688569747, -34411.874045357, 187500.0, 187500.0, 187500.0, 187500.0, 187500.0, 187500.0, 0.09, 0.992, -0.014, 192.0, 0.0, 0.0, 0.0, 0.0, 0.0, 0.0, 0.0, 0.0, 0.0, 1.6820970251886485E9, 0.0, 2023-04-21 12:10:25.188
201.0, -51335.92204283739, -34503.851473790586, 187500.0, 187500.0, 187500.0, 187500.0, 187500.0, 187500.0, 0.09, 0.992, -0.014, 192.0, 0.0, 0.0, 0.0, 0.0, 0.0, 0.0, 0.0, 0.0, 0.0, 1.6820970251886597E9, 0.0, 2023-04-21 12:10:25.188
202.0, -51467.57381767915, -34510.892273294005, 187500.0, 187500.0, 187500.0, 187500.0, 187500.0, 187500.0, 0.09, 0.992, -0.014, 192.0, 0.0, 0.0, 0.0, 0.0, 0.0, 0.0, 0.0, 0.0, 0.0, 1.682097025188948E9, 0.0, 2023-04-21 12:10:25.188
203.0, -51489.27736154525, -34453.13536562149, 187500.0, 187500.0, 187500.0, 187500.0, 187500.0, 187500.0, 0.09, 0.992, -0.014, 192.0, 0.0, 0.0, 0.0, 0.0, 0.0, 0.0, 0.0, 0.0, 0.0, 1.682097025188959E9, 0.0, 2023-04-21 12:10:25.188
204.0, -51346.0697348201, -34408.968318577805, 187500.0, 187500.0, 187500.0, 187500.0, 187500.0, 187500.0, 0.09, 0.992, -0.014, 192.0, 0.0, 0.0, 0.0, 0.0, 0.0, 0.0, 0.0, 0.0, 0.0, 1.6820970251889691E9, 0.0, 2023-04-21 12:10:25.188
205.0, -51309.16700472439, -34478.97398221183, 187500.0, 187500.0, 187500.0, 187500.0, 187500.0, 187500.0, 0.09, 0.992, -0.014, 192.0, 0.0, 0.0, 0.0, 0.0, 0.0, 0.0, 0.0, 0.0, 0.0, 1.682097025188979E9, 0.0, 2023-04-21 12:10:25.188
206.0, -51441.46698015535, -34513.66388960646, 187500.0, 187500.0, 187500.0, 187500.0, 187500.0, 187500.0, 0.09, 0.992, -0.014, 192.0, 0.0, 0.0, 0.0, 0.0, 0.0, 0.0, 0.0, 0.0, 0.0, 1.682097025188989E9, 0.0, 2023-04-21 12:10:25.188
207.0, -51490.14907957901, -34457.09162439009, 187500.0, 187500.0, 187500.0, 187500.0, 187500.0, 187500.0, 0.09, 0.992, -0.014, 192.0, 0.0, 0.0, 0.0, 0.0, 0.0, 0.0, 0.0, 0.0, 0.0, 1.682097025188999E9, 0.0, 2023-04-21 12:10:25.188
208.0, -51361.15716232743, -34402.06162954112, 187500.0, 187500.0, 187500.0, 187500.0, 187500.0, 187500.0, 0.082, 0.994, -0.008, 192.0, 2.0, 144.0, 31.0, 16.0, 255.0, 192.0, 0.0, 0.0, 0.0, 1.6820970251890135E9, 0.0, 2023-04-21 12:10:25.189
209.0, -51291.48677486024, -34457.5833627681, 187500.0, 187500.0, 187500.0, 187500.0, 187500.0, 187500.0, 0.082, 0.994, -0.008, 192.0, 0.0, 0.0, 0.0, 0.0, 0.0, 0.0, 0.0, 0.0, 0.0, 1.6820970251890252E9, 0.0, 2023-04-21 12:10:25.189
210.0, -51399.40099709046, -34501.057505733675, 187500.0, 187500.0, 187500.0, 187500.0, 187500.0, 187500.0, 0.082, 0.994, -0.008, 192.0, 0.0, 0.0, 0.0, 0.0, 0.0, 0.0, 0.0, 0.0, 0.0, 1.6820970251890352E9, 0.0, 2023-04-21 12:10:25.189
211.0, -51480.58253295214, -34455.92933367841, 187500.0, 187500.0, 187500.0, 187500.0, 187500.0, 187500.0, 0.082, 0.994, -0.008, 192.0, 0.0, 0.0, 0.0, 0.0, 0.0, 0.0, 0.0, 0.0, 0.0, 1.6820970251890454E9, 0.0, 2023-04-21 12:10:25.189
212.0, -51386.593447517575, -34405.1685220204, 187500.0, 187500.0, 187500.0, 187500.0, 187500.0, 187500.0, 0.082, 0.994, -0.008, 192.0, 0.0, 0.0, 0.0, 0.0, 0.0, 0.0, 0.0, 0.0, 0.0, 1.6820970251890552E9, 0.0, 2023-04-21 12:10:25.189
213.0, -51287.15053643591, -34441.73597594929, 187500.0, 187500.0, 187500.0, 187500.0, 187500.0, 187500.0, 0.082, 0.994, -0.008, 192.0, 0.0, 0.0, 0.0, 0.0, 0.0, 0.0, 0.0, 0.0, 0.0, 1.6820970251890657E9, 0.0, 2023-04-21 12:10:25.189
214.0, -51384.1794591164, -34510.691107593906, 187500.0, 187500.0, 187500.0, 187500.0, 187500.0, 187500.0, 0.082, 0.994, -0.008, 192.0, 0.0, 0.0, 0.0, 0.0, 0.0, 0.0, 0.0, 0.0, 0.0, 1.682097025189076E9, 0.0, 2023-04-21 12:10:25.189
215.0, -51487.153945822, -34471.84377573059, 187500.0, 187500.0, 187500.0, 187500.0, 187500.0, 187500.0, 0.082, 0.994, -0.008, 192.0, 0.0, 0.0, 0.0, 0.0, 0.0, 0.0, 0.0, 0.0, 0.0, 1.6820970251890855E9, 0.0, 2023-04-21 12:10:25.189
216.0, -51417.52826184372, -34417.707850659834, 187500.0, 187500.0, 187500.0, 187500.0, 187500.0, 187500.0, 0.082, 0.994, -0.008, 192.0, 0.0, 0.0, 0.0, 0.0, 0.0, 0.0, 0.0, 0.0, 0.0, 1.6820970251890955E9, 0.0, 2023-04-21 12:10:25.189
217.0, -51286.39057712443, -34426.8273623976, 187500.0, 187500.0, 187500.0, 187500.0, 187500.0, 187500.0, 0.082, 0.994, -0.008, 192.0, 0.0, 0.0, 0.0, 0.0, 0.0, 0.0, 0.0, 0.0, 0.0, 1.6820970251891692E9, 0.0, 2023-04-21 12:10:25.189
218.0, -51364.48757225127, -34515.809657074176, 187500.0, 187500.0, 187500.0, 187500.0, 187500.0, 187500.0, 0.082, 0.994, -0.008, 192.0, 0.0, 0.0, 0.0, 0.0, 0.0, 0.0, 0.0, 0.0, 0.0, 1.6820970251891797E9, 0.0, 2023-04-21 12:10:25.189
219.0, -51495.6029052261, -34497.66004057646, 187500.0, 187500.0, 187500.0, 187500.0, 187500.0, 187500.0, 0.084, 0.994, -0.008, 192.0, 2.0, 160.0, 31.0, 16.0, 255.0, 192.0, 0.0, 0.0, 0.0, 1.6820970251891894E9, 0.0, 2023-04-21 12:10:25.189
220.0, -51440.215282465855, -34424.61453969652, 187500.0, 187500.0, 187500.0, 187500.0, 187500.0, 187500.0, 0.084, 0.994, -0.008, 192.0, 0.0, 0.0, 0.0, 0.0, 0.0, 0.0, 0.0, 0.0, 0.0, 1.6820970251892E9, 0.0, 2023-04-21 12:10:25.189
221.0, -51306.55185062312, -34422.66993792891, 187500.0, 187500.0, 187500.0, 187500.0, 187500.0, 187500.0, 0.084, 0.994, -0.008, 192.0, 0.0, 0.0, 0.0, 0.0, 0.0, 0.0, 0.0, 0.0, 0.0, 1.68209702518921E9, 0.0, 2023-04-21 12:10:25.189
222.0, -51344.438057474865, -34507.15953196997, 187500.0, 187500.0, 187500.0, 187500.0, 187500.0, 187500.0, 0.084, 0.994, -0.008, 192.0, 0.0, 0.0, 0.0, 0.0, 0.0, 0.0, 0.0, 0.0, 0.0, 1.6820970251892197E9, 0.0, 2023-04-21 12:10:25.189
223.0, -51466.32211998965, -34491.15568293997, 187500.0, 187500.0, 187500.0, 187500.0, 187500.0, 187500.0, 0.084, 0.994, -0.008, 192.0, 0.0, 0.0, 0.0, 0.0, 0.0, 0.0, 0.0, 0.0, 0.0, 1.6820970251892297E9, 0.0, 2023-04-21 12:10:25.189
224.0, -51446.60788138007, -34423.36284200702, 187500.0, 187500.0, 187500.0, 187500.0, 187500.0, 187500.0, 0.084, 0.994, -0.008, 192.0, 0.0, 0.0, 0.0, 0.0, 0.0, 0.0, 0.0, 0.0, 0.0, 1.6820970251892395E9, 0.0, 2023-04-21 12:10:25.189
225.0, -51291.509126604695, -34388.87410031249, 187500.0, 187500.0, 187500.0, 187500.0, 187500.0, 187500.0, 0.084, 0.994, -0.008, 192.0, 0.0, 0.0, 0.0, 0.0, 0.0, 0.0, 0.0, 0.0, 0.0, 1.6820970251892493E9, 0.0, 2023-04-21 12:10:25.189
226.0, -51300.96391450929, -34478.616354300546, 187500.0, 187500.0, 187500.0, 187500.0, 187500.0, 187500.0, 0.084, 0.994, -0.008, 192.0, 0.0, 0.0, 0.0, 0.0, 0.0, 0.0, 0.0, 0.0, 0.0, 1.6820970251892595E9, 0.0, 2023-04-21 12:10:25.189
227.0, -51424.814930536144, -34479.97981071232, 187500.0, 187500.0, 187500.0, 187500.0, 187500.0, 187500.0, 0.084, 0.994, -0.008, 192.0, 0.0, 0.0, 0.0, 0.0, 0.0, 0.0, 0.0, 0.0, 0.0, 1.6820970251892695E9, 0.0, 2023-04-21 12:10:25.189
228.0, -51464.80220136669, -34438.76319393673, 187500.0, 187500.0, 187500.0, 187500.0, 187500.0, 187500.0, 0.084, 0.994, -0.008, 192.0, 0.0, 0.0, 0.0, 0.0, 0.0, 0.0, 0.0, 0.0, 0.0, 1.682097025189279E9, 0.0, 2023-04-21 12:10:25.189
229.0, -51326.44490318834, -34398.46299868381, 187500.0, 187500.0, 187500.0, 187500.0, 187500.0, 187500.0, 0.088, 0.996, -0.01, 192.0, 2.0, 192.0, 31.0, 32.0, 255.0, 176.0, 0.0, 0.0, 0.0, 1.6820970251892908E9, 0.0, 2023-04-21 12:10:25.189
230.0, -51292.269085916174, -34469.653304773965, 187500.0, 187500.0, 187500.0, 187500.0, 187500.0, 187500.0, 0.088, 0.996, -0.01, 192.0, 0.0, 0.0, 0.0, 0.0, 0.0, 0.0, 0.0, 0.0, 0.0, 1.6820970251893013E9, 0.0, 2023-04-21 12:10:25.189
231.0, -51417.26004091025, -34496.31893590915, 187500.0, 187500.0, 187500.0, 187500.0, 187500.0, 187500.0, 0.088, 0.996, -0.01, 192.0, 0.0, 0.0, 0.0, 0.0, 0.0, 0.0, 0.0, 0.0, 0.0, 1.682097025189311E9, 0.0, 2023-04-21 12:10:25.189
232.0, -51481.85658238609, -34450.52021152022, 187500.0, 187500.0, 187500.0, 187500.0, 187500.0, 187500.0, 0.088, 0.996, -0.01, 192.0, 0.0, 0.0, 0.0, 0.0, 0.0, 0.0, 0.0, 0.0, 0.0, 1.6820970251893342E9, 0.0, 2023-04-21 12:10:25.189
233.0, -51340.77237138419, -34385.94602178884, 187500.0, 187500.0, 187500.0, 187500.0, 187500.0, 187500.0, 0.088, 0.996, -0.01, 192.0, 0.0, 0.0, 0.0, 0.0, 0.0, 0.0, 0.0, 0.0, 0.0, 1.682097025189344E9, 0.0, 2023-04-21 12:10:25.189
234.0, -51280.91439973288, -34448.35209230806, 187500.0, 187500.0, 187500.0, 187500.0, 187500.0, 187500.0, 0.088, 0.996, -0.01, 192.0, 0.0, 0.0, 0.0, 0.0, 0.0, 0.0, 0.0, 0.0, 0.0, 1.6820970251893537E9, 0.0, 2023-04-21 12:10:25.189
235.0, -51401.345598858075, -34503.896177279494, 187500.0, 187500.0, 187500.0, 187500.0, 187500.0, 187500.0, 0.088, 0.996, -0.01, 192.0, 0.0, 0.0, 0.0, 0.0, 0.0, 0.0, 0.0, 0.0, 0.0, 1.6820970251893635E9, 0.0, 2023-04-21 12:10:25.189
236.0, -51476.60392243909, -34452.107185376546, 187500.0, 187500.0, 187500.0, 187500.0, 187500.0, 187500.0, 0.088, 0.996, -0.01, 192.0, 0.0, 0.0, 0.0, 0.0, 0.0, 0.0, 0.0, 0.0, 0.0, 1.682097025189373E9, 0.0, 2023-04-21 12:10:25.189
237.0, -51380.98315965929, -34400.13937951796, 187500.0, 187500.0, 187500.0, 187500.0, 187500.0, 187500.0, 0.088, 0.996, -0.01, 192.0, 0.0, 0.0, 0.0, 0.0, 0.0, 0.0, 0.0, 0.0, 0.0, 1.6820970251893828E9, 0.0, 2023-04-21 12:10:25.189
238.0, -51279.43918459883, -34432.21413281133, 187500.0, 187500.0, 187500.0, 187500.0, 187500.0, 187500.0, 0.088, 0.996, -0.01, 192.0, 0.0, 0.0, 0.0, 0.0, 0.0, 0.0, 0.0, 0.0, 0.0, 1.6820970251893923E9, 0.0, 2023-04-21 12:10:25.189
239.0, -51377.51863926872, -34510.132313982525, 187500.0, 187500.0, 187500.0, 187500.0, 187500.0, 187500.0, 0.088, 0.992, -0.008, 192.0, 2.0, 192.0, 31.0, 0.0, 255.0, 192.0, 0.0, 0.0, 0.0, 1.682097025189402E9, 0.0, 2023-04-21 12:10:25.189
240.0, -51482.70594867539, -34478.10226417807, 187500.0, 187500.0, 187500.0, 187500.0, 187500.0, 187500.0, 0.088, 0.992, -0.008, 192.0, 0.0, 0.0, 0.0, 0.0, 0.0, 0.0, 0.0, 0.0, 0.0, 1.6820970251894124E9, 0.0, 2023-04-21 12:10:25.189
241.0, -51408.811081506145, -34426.022699597204, 187500.0, 187500.0, 187500.0, 187500.0, 187500.0, 187500.0, 0.088, 0.992, -0.008, 192.0, 0.0, 0.0, 0.0, 0.0, 0.0, 0.0, 0.0, 0.0, 0.0, 1.6820970251894221E9, 0.0, 2023-04-21 12:10:25.189
242.0, -51275.14764966341, -34432.41529851143, 187500.0, 187500.0, 187500.0, 187500.0, 187500.0, 187500.0, 0.088, 0.992, -0.008, 192.0, 0.0, 0.0, 0.0, 0.0, 0.0, 0.0, 0.0, 0.0, 0.0, 1.682097025189432E9, 0.0, 2023-04-21 12:10:25.189
243.0, -51349.91423486641, -34516.703726852385, 187500.0, 187500.0, 187500.0, 187500.0, 187500.0, 187500.0, 0.088, 0.992, -0.008, 192.0, 0.0, 0.0, 0.0, 0.0, 0.0, 0.0, 0.0, 0.0, 0.0, 1.6820970251894417E9, 0.0, 2023-04-21 12:10:25.189
244.0, -51490.17143132346, -34508.92531978194, 187500.0, 187500.0, 187500.0, 187500.0, 187500.0, 187500.0, 0.088, 0.992, -0.008, 192.0, 0.0, 0.0, 0.0, 0.0, 0.0, 0.0, 0.0, 0.0, 0.0, 1.6820970251894512E9, 0.0, 2023-04-21 12:10:25.189
245.0, -51444.59622437909, -34449.804955697655, 187500.0, 187500.0, 187500.0, 187500.0, 187500.0, 187500.0, 0.088, 0.992, -0.008, 192.0, 0.0, 0.0, 0.0, 0.0, 0.0, 0.0, 0.0, 0.0, 0.0, 1.6820970251894608E9, 0.0, 2023-04-21 12:10:25.189
246.0, -51293.6548940724, -34434.60576946804, 187500.0, 187500.0, 187500.0, 187500.0, 187500.0, 187500.0, 0.088, 0.992, -0.008, 192.0, 0.0, 0.0, 0.0, 0.0, 0.0, 0.0, 0.0, 0.0, 0.0, 1.6820970251894708E9, 0.0, 2023-04-21 12:10:25.189
247.0, -51339.744191139245, -34529.37716595855, 187500.0, 187500.0, 187500.0, 187500.0, 187500.0, 187500.0, 0.088, 0.992, -0.008, 192.0, 0.0, 0.0, 0.0, 0.0, 0.0, 0.0, 0.0, 0.0, 0.0, 1.6820970251895192E9, 0.0, 2023-04-21 12:10:25.189
248.0, -51464.01989031075, -34515.54143614071, 187500.0, 187500.0, 187500.0, 187500.0, 187500.0, 187500.0, 0.088, 0.992, -0.008, 192.0, 0.0, 0.0, 0.0, 0.0, 0.0, 0.0, 0.0, 0.0, 0.0, 1.6820970251895292E9, 0.0, 2023-04-21 12:10:25.189
249.0, -51446.96550929135, -34450.31904582013, 187500.0, 187500.0, 187500.0, 187500.0, 187500.0, 187500.0, 0.08600000000000001, 0.99, -0.01, 192.0, 2.0, 176.0, 30.0, 240.0, 255.0, 176.0, 0.0, 0.0, 0.0, 1.6820970251895387E9, 0.0, 2023-04-21 12:10:25.189
250.0, -51298.0581877301, -34421.82057163961, 187500.0, 187500.0, 187500.0, 187500.0, 187500.0, 187500.0, 0.08600000000000001, 0.99, -0.01, 192.0, 0.0, 0.0, 0.0, 0.0, 0.0, 0.0, 0.0, 0.0, 0.0, 1.682097025189551E9, 0.0, 2023-04-21 12:10:25.189
251.0, -51313.033856515154, -34519.140066998014, 187500.0, 187500.0, 187500.0, 187500.0, 187500.0, 187500.0, 0.08600000000000001, 0.99, -0.01, 192.0, 0.0, 0.0, 0.0, 0.0, 0.0, 0.0, 0.0, 0.0, 0.0, 1.682097025189561E9, 0.0, 2023-04-21 12:10:25.189
252.0, -51450.56414014866, -34539.36839573007, 187500.0, 187500.0, 187500.0, 187500.0, 187500.0, 187500.0, 0.08600000000000001, 0.99, -0.01, 192.0, 0.0, 0.0, 0.0, 0.0, 0.0, 0.0, 0.0, 0.0, 0.0, 1.6820970251895704E9, 0.0, 2023-04-21 12:10:25.189
253.0, -51480.09079457412, -34490.88746200651, 187500.0, 187500.0, 187500.0, 187500.0, 187500.0, 187500.0, 0.08600000000000001, 0.99, -0.01, 192.0, 0.0, 0.0, 0.0, 0.0, 0.0, 0.0, 0.0, 0.0, 0.0, 1.68209702518958E9, 0.0, 2023-04-21 12:10:25.189
254.0, -51321.080484519065, -34436.61742646902, 187500.0, 187500.0, 187500.0, 187500.0, 187500.0, 187500.0, 0.08600000000000001, 0.99, -0.01, 192.0, 0.0, 0.0, 0.0, 0.0, 0.0, 0.0, 0.0, 0.0, 0.0, 1.68209702518959E9, 0.0, 2023-04-21 12:10:25.189
255.0, -51295.59949584002, -34520.548226898696, 187500.0, 187500.0, 187500.0, 187500.0, 187500.0, 187500.0, 0.08600000000000001, 0.99, -0.01, 192.0, 0.0, 0.0, 0.0, 0.0, 0.0, 0.0, 0.0, 0.0, 0.0, 1.6820970251895995E9, 0.0, 2023-04-21 12:10:25.189
0.0, -51422.53505260171, -34547.035044078235, 187500.0, 187500.0, 187500.0, 187500.0, 187500.0, 187500.0, 0.08600000000000001, 0.99, -0.01, 192.0, 0.0, 0.0, 0.0, 0.0, 0.0, 0.0, 0.0, 0.0, 0.0, 1.6820970251896093E9, 0.0, 2023-04-21 12:10:25.189
1.0, -51474.07817531564, -34487.4899968493, 187500.0, 187500.0, 187500.0, 187500.0, 187500.0, 187500.0, 0.08600000000000001, 0.99, -0.01, 192.0, 0.0, 0.0, 0.0, 0.0, 0.0, 0.0, 0.0, 0.0, 0.0, 1.6820970251896188E9, 0.0, 2023-04-21 12:10:25.189
2.0, -51344.90744410842, -34434.561065979135, 187500.0, 187500.0, 187500.0, 187500.0, 187500.0, 187500.0, 0.08600000000000001, 0.99, -0.01, 192.0, 0.0, 0.0, 0.0, 0.0, 0.0, 0.0, 0.0, 0.0, 0.0, 1.6820970251896286E9, 0.0, 2023-04-21 12:10:25.189
3.0, -51281.11556543298, -34494.17316844144, 187500.0, 187500.0, 187500.0, 187500.0, 187500.0, 187500.0, 0.08600000000000001, 0.99, -0.01, 192.0, 0.0, 0.0, 0.0, 0.0, 0.0, 0.0, 0.0, 0.0, 0.0, 1.6820970251896384E9, 0.0, 2023-04-21 12:10:25.189
4.0, -51395.71295925534, -34542.654102165, 187500.0, 187500.0, 187500.0, 187500.0, 187500.0, 187500.0, 0.078, 0.992, -0.01, 192.0, 2.0, 112.0, 31.0, 0.0, 255.0, 176.0, 0.0, 0.0, 0.0, 1.682097025189648E9, 0.0, 2023-04-21 12:10:25.189
5.0, -51481.163678307974, -34500.7445813113, 187500.0, 187500.0, 187500.0, 187500.0, 187500.0, 187500.0, 0.078, 0.992, -0.01, 192.0, 0.0, 0.0, 0.0, 0.0, 0.0, 0.0, 0.0, 0.0, 0.0, 1.682097025189658E9, 0.0, 2023-04-21 12:10:25.189
6.0, -51365.269883307206, -34432.83998165608, 187500.0, 187500.0, 187500.0, 187500.0, 187500.0, 187500.0, 0.078, 0.992, -0.01, 192.0, 0.0, 0.0, 0.0, 0.0, 0.0, 0.0, 0.0, 0.0, 0.0, 1.6820970251896808E9, 0.0, 2023-04-21 12:10:25.189
7.0, -51280.735585777235, -34484.11488343655, 187500.0, 187500.0, 187500.0, 187500.0, 187500.0, 187500.0, 0.078, 0.992, -0.01, 192.0, 0.0, 0.0, 0.0, 0.0, 0.0, 0.0, 0.0, 0.0, 0.0, 1.6820970251896904E9, 0.0, 2023-04-21 12:10:25.189
8.0, -51390.37089233052, -34562.2565820523, 187500.0, 187500.0, 187500.0, 187500.0, 187500.0, 187500.0, 0.078, 0.992, -0.01, 192.0, 0.0, 0.0, 0.0, 0.0, 0.0, 0.0, 0.0, 0.0, 0.0, 1.6820970251897E9, 0.0, 2023-04-21 12:10:25.189
9.0, -51481.945989363914, -34511.02638376074, 187500.0, 187500.0, 187500.0, 187500.0, 187500.0, 187500.0, 0.078, 0.992, -0.01, 192.0, 0.0, 0.0, 0.0, 0.0, 0.0, 0.0, 0.0, 0.0, 0.0, 1.68209702518971E9, 0.0, 2023-04-21 12:10:25.189
10.0, -51419.9869537338, -34468.15573789546, 187500.0, 187500.0, 187500.0, 187500.0, 187500.0, 187500.0, 0.078, 0.992, -0.01, 192.0, 0.0, 0.0, 0.0, 0.0, 0.0, 0.0, 0.0, 0.0, 0.0, 1.6820970251897194E9, 0.0, 2023-04-21 12:10:25.189
11.0, -51295.06305397309, -34484.02547645873, 187500.0, 187500.0, 187500.0, 187500.0, 187500.0, 187500.0, 0.078, 0.992, -0.01, 192.0, 0.0, 0.0, 0.0, 0.0, 0.0, 0.0, 0.0, 0.0, 0.0, 1.6820970251897311E9, 0.0, 2023-04-21 12:10:25.189
12.0, -51362.87824665049, -34559.55202097321, 187500.0, 187500.0, 187500.0, 187500.0, 187500.0, 187500.0, 0.078, 0.992, -0.01, 192.0, 0.0, 0.0, 0.0, 0.0, 0.0, 0.0, 0.0, 0.0, 0.0, 1.682097025189741E9, 0.0, 2023-04-21 12:10:25.189
13.0, -51486.17046906596, -34537.11086954008, 187500.0, 187500.0, 187500.0, 187500.0, 187500.0, 187500.0, 0.078, 0.992, -0.01, 192.0, 0.0, 0.0, 0.0, 0.0, 0.0, 0.0, 0.0, 0.0, 0.0, 1.6820970251897507E9, 0.0, 2023-04-21 12:10:25.189
14.0, -51445.110314501566, -34482.170281668936, 187500.0, 187500.0, 187500.0, 187500.0, 187500.0, 187500.0, 0.084, 0.996, -0.008, 192.0, 2.0, 160.0, 31.0, 32.0, 255.0, 192.0, 0.0, 0.0, 0.0, 1.6820970251897602E9, 0.0, 2023-04-21 12:10:25.189
15.0, -51290.52564984866, -34458.49978429077, 187500.0, 187500.0, 187500.0, 187500.0, 187500.0, 187500.0, 0.084, 0.996, -0.008, 192.0, 0.0, 0.0, 0.0, 0.0, 0.0, 0.0, 0.0, 0.0, 0.0, 1.6820970251897705E9, 0.0, 2023-04-21 12:10:25.189
16.0, -51334.290365492154, -34547.057395822696, 187500.0, 187500.0, 187500.0, 187500.0, 187500.0, 187500.0, 0.084, 0.996, -0.008, 192.0, 0.0, 0.0, 0.0, 0.0, 0.0, 0.0, 0.0, 0.0, 0.0, 1.6820970251897826E9, 0.0, 2023-04-21 12:10:25.189
17.0, -51477.31917826166, -34549.35962550159, 187500.0, 187500.0, 187500.0, 187500.0, 187500.0, 187500.0, 0.084, 0.996, -0.008, 192.0, 0.0, 0.0, 0.0, 0.0, 0.0, 0.0, 0.0, 0.0, 0.0, 1.6820970251897924E9, 0.0, 2023-04-21 12:10:25.189
0.0, 0.0, 0.0, 0.0, 0.0, 0.0, 0.0, 0.0, 0.0, 0.084, 0.996, -0.008, 192.0, 0.0, 0.0, 0.0, 0.0, 0.0, 0.0, 0.0, 0.0, 0.0, 1.682097025279879E9, 0.0, 2023-04-21 12:10:25.279
1.0, -47719.63330741326, -29965.955610985235, 187500.0, 187500.0, 187500.0, 187500.0, 187500.0, 187500.0, 0.05, 0.99, -0.034, 192.0, 1.0, 144.0, 30.0, 240.0, 254.0, 240.0, 0.0, 0.0, 0.0, 1.6820970253643436E9, 0.0, 2023-04-21 12:10:25.364
2.0, -47619.27397480893, -30003.394782947875, 187500.0, 187500.0, 187500.0, 187500.0, 187500.0, 187500.0, 0.05, 0.99, -0.034, 192.0, 0.0, 0.0, 0.0, 0.0, 0.0, 0.0, 0.0, 0.0, 0.0, 1.6820970253643713E9, 0.0, 2023-04-21 12:10:25.364
3.0, -47776.965531941125, -30115.332319180052, 187500.0, 187500.0, 187500.0, 187500.0, 187500.0, 187500.0, 0.05, 0.99, -0.034, 192.0, 0.0, 0.0, 0.0, 0.0, 0.0, 0.0, 0.0, 0.0, 0.0, 1.6820970253643863E9, 0.0, 2023-04-21 12:10:25.364
4.0, -47909.354914349904, -30086.498568832707, 187500.0, 187500.0, 187500.0, 187500.0, 187500.0, 187500.0, 0.05, 0.99, -0.034, 192.0, 0.0, 0.0, 0.0, 0.0, 0.0, 0.0, 0.0, 0.0, 0.0, 1.6820970253644493E9, 0.0, 2023-04-21 12:10:25.364
5.0, -47762.59336025636, -29978.338477413476, 187500.0, 187500.0, 187500.0, 187500.0, 187500.0, 187500.0, 0.05, 0.99, -0.034, 192.0, 0.0, 0.0, 0.0, 0.0, 0.0, 0.0, 0.0, 0.0, 0.0, 1.6820970253644605E9, 0.0, 2023-04-21 12:10:25.364
6.0, -47617.17291083013, -29979.389009402876, 187500.0, 187500.0, 187500.0, 187500.0, 187500.0, 187500.0, 0.05, 0.99, -0.034, 192.0, 0.0, 0.0, 0.0, 0.0, 0.0, 0.0, 0.0, 0.0, 0.0, 1.6820970253644717E9, 0.0, 2023-04-21 12:10:25.364
7.0, -47752.579778740386, -30111.7560400672, 187500.0, 187500.0, 187500.0, 187500.0, 187500.0, 187500.0, 0.05, 0.99, -0.034, 192.0, 0.0, 0.0, 0.0, 0.0, 0.0, 0.0, 0.0, 0.0, 0.0, 1.6820970253644829E9, 0.0, 2023-04-21 12:10:25.364
8.0, -47927.32571689197, -30106.838656287036, 187500.0, 187500.0, 187500.0, 187500.0, 187500.0, 187500.0, 0.04, 0.988, -0.042, 192.0, 1.0, 64.0, 30.0, 224.0, 254.0, 176.0, 0.0, 0.0, 0.0, 1.682097025364494E9, 0.0, 2023-04-21 12:10:25.364
9.0, -47813.108302725355, -29996.84572182247, 187500.0, 187500.0, 187500.0, 187500.0, 187500.0, 187500.0, 0.04, 0.988, -0.042, 192.0, 0.0, 0.0, 0.0, 0.0, 0.0, 0.0, 0.0, 0.0, 0.0, 1.6820970253645065E9, 0.0, 2023-04-21 12:10:25.364
10.0, -47625.890091167705, -29958.73599752617, 187500.0, 187500.0, 187500.0, 187500.0, 187500.0, 187500.0, 0.04, 0.988, -0.042, 192.0, 0.0, 0.0, 0.0, 0.0, 0.0, 0.0, 0.0, 0.0, 0.0, 1.6820970253645177E9, 0.0, 2023-04-21 12:10:25.364
11.0, -47746.72362169309, -30104.1564469524, 187500.0, 187500.0, 187500.0, 187500.0, 187500.0, 187500.0, 0.04, 0.988, -0.042, 192.0, 0.0, 0.0, 0.0, 0.0, 0.0, 0.0, 0.0, 0.0, 0.0, 1.682097025364529E9, 0.0, 2023-04-21 12:10:25.364
12.0, -47961.456830675226, -30113.991214512735, 187500.0, 187500.0, 187500.0, 187500.0, 187500.0, 187500.0, 0.04, 0.988, -0.042, 192.0, 0.0, 0.0, 0.0, 0.0, 0.0, 0.0, 0.0, 0.0, 0.0, 1.68209702536454E9, 0.0, 2023-04-21 12:10:25.364
13.0, -47906.62800152636, -30023.332539002007, 187500.0, 187500.0, 187500.0, 187500.0, 187500.0, 187500.0, 0.04, 0.988, -0.042, 192.0, 0.0, 0.0, 0.0, 0.0, 0.0, 0.0, 0.0, 0.0, 0.0, 1.6820970253645508E9, 0.0, 2023-04-21 12:10:25.364
14.0, -47703.11536826079, -29954.489166079664, 187500.0, 187500.0, 187500.0, 187500.0, 187500.0, 187500.0, 0.04, 0.988, -0.042, 192.0, 0.0, 0.0, 0.0, 0.0, 0.0, 0.0, 0.0, 0.0, 0.0, 1.682097025364562E9, 0.0, 2023-04-21 12:10:25.364
15.0, -47747.01419437101, -30097.652089315903, 187500.0, 187500.0, 187500.0, 187500.0, 187500.0, 187500.0, 0.04, 0.988, -0.042, 192.0, 0.0, 0.0, 0.0, 0.0, 0.0, 0.0, 0.0, 0.0, 0.0, 1.682097025364573E9, 0.0, 2023-04-21 12:10:25.364
16.0, -47942.27903393257, -30140.053348547623, 187500.0, 187500.0, 187500.0, 187500.0, 187500.0, 187500.0, 0.04, 0.988, -0.042, 192.0, 0.0, 0.0, 0.0, 0.0, 0.0, 0.0, 0.0, 0.0, 0.0, 1.6820970253645852E9, 0.0, 2023-04-21 12:10:25.364
17.0, -47929.426780870774, -30047.315960802553, 187500.0, 187500.0, 187500.0, 187500.0, 187500.0, 187500.0, 0.04, 0.988, -0.042, 192.0, 0.0, 0.0, 0.0, 0.0, 0.0, 0.0, 0.0, 0.0, 0.0, 1.6820970253804204E9, 0.0, 2023-04-21 12:10:25.380
18.0, -47715.90056608922, -29947.694235765248, 187500.0, 187500.0, 187500.0, 187500.0, 187500.0, 187500.0, 0.03, 0.99, -0.058, 192.0, 0.0, 240.0, 30.0, 240.0, 254.0, 48.0, 0.0, 0.0, 0.0, 1.6820970253965333E9, 0.0, 2023-04-21 12:10:25.396
19.0, -47709.82089159738, -30062.023408654146, 187500.0, 187500.0, 187500.0, 187500.0, 187500.0, 187500.0, 0.03, 0.99, -0.058, 192.0, 0.0, 0.0, 0.0, 0.0, 0.0, 0.0, 0.0, 0.0, 0.0, 1.6820970256559296E9, 0.0, 2023-04-21 12:10:25.655
20.0, -47887.89723967281, -30123.58011288406, 187500.0, 187500.0, 187500.0, 187500.0, 187500.0, 187500.0, 0.03, 0.99, -0.058, 192.0, 0.0, 0.0, 0.0, 0.0, 0.0, 0.0, 0.0, 0.0, 0.0, 1.682097025655965E9, 0.0, 2023-04-21 12:10:25.655
21.0, -47934.59003383995, -30062.313981332063, 187500.0, 187500.0, 187500.0, 187500.0, 187500.0, 187500.0, 0.03, 0.99, -0.058, 192.0, 0.0, 0.0, 0.0, 0.0, 0.0, 0.0, 0.0, 0.0, 0.0, 1.6820970256559849E9, 0.0, 2023-04-21 12:10:25.655
22.0, -47724.90831910471, -29939.245276361144, 187500.0, 187500.0, 187500.0, 187500.0, 187500.0, 187500.0, 0.03, 0.99, -0.058, 192.0, 0.0, 0.0, 0.0, 0.0, 0.0, 0.0, 0.0, 0.0, 0.0, 1.6820970256560044E9, 0.0, 2023-04-21 12:10:25.656
23.0, -47673.38754813523, -30022.460820968252, 187500.0, 187500.0, 187500.0, 187500.0, 187500.0, 187500.0, 0.03, 0.99, -0.058, 192.0, 0.0, 0.0, 0.0, 0.0, 0.0, 0.0, 0.0, 0.0, 0.0, 1.6820970256560183E9, 0.0, 2023-04-21 12:10:25.656
24.0, -47861.835105637925, -30130.28563622065, 187500.0, 187500.0, 187500.0, 187500.0, 187500.0, 187500.0, 0.03, 0.99, -0.058, 192.0, 0.0, 0.0, 0.0, 0.0, 0.0, 0.0, 0.0, 0.0, 0.0, 1.6820970256560287E9, 0.0, 2023-04-21 12:10:25.656
25.0, -47948.69398459125, -30075.47915881624, 187500.0, 187500.0, 187500.0, 187500.0, 187500.0, 187500.0, 0.03, 0.99, -0.058, 192.0, 0.0, 0.0, 0.0, 0.0, 0.0, 0.0, 0.0, 0.0, 0.0, 1.6820970256560395E9, 0.0, 2023-04-21 12:10:25.656
26.0, -47745.94131063716, -29942.866258962902, 187500.0, 187500.0, 187500.0, 187500.0, 187500.0, 187500.0, 0.03, 0.99, -0.058, 192.0, 0.0, 0.0, 0.0, 0.0, 0.0, 0.0, 0.0, 0.0, 0.0, 1.68209702565605E9, 0.0, 2023-04-21 12:10:25.656
27.0, -47639.07762039633, -29983.9264135273, 187500.0, 187500.0, 187500.0, 187500.0, 187500.0, 187500.0, 0.03, 0.99, -0.058, 192.0, 0.0, 0.0, 0.0, 0.0, 0.0, 0.0, 0.0, 0.0, 0.0, 1.6820970256560607E9, 0.0, 2023-04-21 12:10:25.656
28.0, -47819.29973593947, -30122.998967528223, 187500.0, 187500.0, 187500.0, 187500.0, 187500.0, 187500.0, 0.03, 0.99, -0.056, 192.0, 0.0, 240.0, 30.0, 240.0, 254.0, 64.0, 0.0, 0.0, 0.0, 1.6820970256560712E9, 0.0, 2023-04-21 12:10:25.656
29.0, -47954.10310674943, -30090.454827601294, 187500.0, 187500.0, 187500.0, 187500.0, 187500.0, 187500.0, 0.03, 0.99, -0.056, 192.0, 0.0, 0.0, 0.0, 0.0, 0.0, 0.0, 0.0, 0.0, 0.0, 1.6820970256560822E9, 0.0, 2023-04-21 12:10:25.656
30.0, -47808.52619511202, -29979.992506503168, 187500.0, 187500.0, 187500.0, 187500.0, 187500.0, 187500.0, 0.03, 0.99, -0.056, 192.0, 0.0, 0.0, 0.0, 0.0, 0.0, 0.0, 0.0, 0.0, 0.0, 1.682097025656093E9, 0.0, 2023-04-21 12:10:25.656
31.0, -47648.91238795667, -29972.25880292163, 187500.0, 187500.0, 187500.0, 187500.0, 187500.0, 187500.0, 0.03, 0.99, -0.056, 192.0, 0.0, 0.0, 0.0, 0.0, 0.0, 0.0, 0.0, 0.0, 0.0, 1.6820970256561031E9, 0.0, 2023-04-21 12:10:25.656
32.0, -47774.439784817674, -30111.085487733544, 187500.0, 187500.0, 187500.0, 187500.0, 187500.0, 187500.0, 0.03, 0.99, -0.056, 192.0, 0.0, 0.0, 0.0, 0.0, 0.0, 0.0, 0.0, 0.0, 0.0, 1.682097025656114E9, 0.0, 2023-04-21 12:10:25.656
33.0, -47948.76103982461, -30104.42466788586, 187500.0, 187500.0, 187500.0, 187500.0, 187500.0, 187500.0, 0.03, 0.99, -0.056, 192.0, 0.0, 0.0, 0.0, 0.0, 0.0, 0.0, 0.0, 0.0, 0.0, 1.6820970256561244E9, 0.0, 2023-04-21 12:10:25.656
34.0, -47843.238454251106, -30002.187788747287, 187500.0, 187500.0, 187500.0, 187500.0, 187500.0, 187500.0, 0.03, 0.99, -0.056, 192.0, 0.0, 0.0, 0.0, 0.0, 0.0, 0.0, 0.0, 0.0, 0.0, 1.68209702565624E9, 0.0, 2023-04-21 12:10:25.656
35.0, -47658.322472372354, -29967.36377088592, 187500.0, 187500.0, 187500.0, 187500.0, 187500.0, 187500.0, 0.03, 0.99, -0.056, 192.0, 0.0, 0.0, 0.0, 0.0, 0.0, 0.0, 0.0, 0.0, 0.0, 1.6820970256562514E9, 0.0, 2023-04-21 12:10:25.656
36.0, -47763.30861607893, -30127.62577863047, 187500.0, 187500.0, 187500.0, 187500.0, 187500.0, 187500.0, 0.03, 0.99, -0.056, 192.0, 0.0, 0.0, 0.0, 0.0, 0.0, 0.0, 0.0, 0.0, 0.0, 1.6820970256562624E9, 0.0, 2023-04-21 12:10:25.656
37.0, -47955.04188001656, -30148.077624807076, 187500.0, 187500.0, 187500.0, 187500.0, 187500.0, 187500.0, 0.03, 0.99, -0.056, 192.0, 0.0, 0.0, 0.0, 0.0, 0.0, 0.0, 0.0, 0.0, 0.0, 1.682097025656273E9, 0.0, 2023-04-21 12:10:25.656
38.0, -47898.603725266905, -30050.221687581743, 187500.0, 187500.0, 187500.0, 187500.0, 187500.0, 187500.0, 0.03, 0.99, -0.056, 192.0, 0.0, 0.0, 0.0, 0.0, 0.0, 0.0, 0.0, 0.0, 0.0, 1.682097025656285E9, 0.0, 2023-04-21 12:10:25.656
39.0, -47678.28258017094, -29957.618410303407, 187500.0, 187500.0, 187500.0, 187500.0, 187500.0, 187500.0, 0.032, 0.994, -0.056, 192.0, 1.0, 0.0, 31.0, 16.0, 254.0, 64.0, 0.0, 0.0, 0.0, 1.6820970256562955E9, 0.0, 2023-04-21 12:10:25.656
40.0, -47731.05504882992, -30099.9543189948, 187500.0, 187500.0, 187500.0, 187500.0, 187500.0, 187500.0, 0.032, 0.994, -0.056, 192.0, 0.0, 0.0, 0.0, 0.0, 0.0, 0.0, 0.0, 0.0, 0.0, 1.682097025656312E9, 0.0, 2023-04-21 12:10:25.656
41.0, -47930.49966460463, -30146.021264317187, 187500.0, 187500.0, 187500.0, 187500.0, 187500.0, 187500.0, 0.032, 0.994, -0.056, 192.0, 0.0, 0.0, 0.0, 0.0, 0.0, 0.0, 0.0, 0.0, 0.0, 1.6820970256563227E9, 0.0, 2023-04-21 12:10:25.656
42.0, -47925.67168780228, -30059.98939990871, 187500.0, 187500.0, 187500.0, 187500.0, 187500.0, 187500.0, 0.032, 0.994, -0.056, 192.0, 0.0, 0.0, 0.0, 0.0, 0.0, 0.0, 0.0, 0.0, 0.0, 1.6820970256563332E9, 0.0, 2023-04-21 12:10:25.656
43.0, -47691.40305416621, -29944.788508986057, 187500.0, 187500.0, 187500.0, 187500.0, 187500.0, 187500.0, 0.032, 0.994, -0.056, 192.0, 0.0, 0.0, 0.0, 0.0, 0.0, 0.0, 0.0, 0.0, 0.0, 1.682097025656344E9, 0.0, 2023-04-21 12:10:25.656
44.0, -47694.57700187886, -30064.258583099676, 187500.0, 187500.0, 187500.0, 187500.0, 187500.0, 187500.0, 0.032, 0.994, -0.056, 192.0, 0.0, 0.0, 0.0, 0.0, 0.0, 0.0, 0.0, 0.0, 0.0, 1.6820970256563547E9, 0.0, 2023-04-21 12:10:25.656
45.0, -47893.90985893129, -30146.557706184114, 187500.0, 187500.0, 187500.0, 187500.0, 187500.0, 187500.0, 0.032, 0.994, -0.056, 192.0, 0.0, 0.0, 0.0, 0.0, 0.0, 0.0, 0.0, 0.0, 0.0, 1.6820970256563654E9, 0.0, 2023-04-21 12:10:25.656
46.0, -47924.28587964605, -30064.727969733238, 187500.0, 187500.0, 187500.0, 187500.0, 187500.0, 187500.0, 0.032, 0.994, -0.056, 192.0, 0.0, 0.0, 0.0, 0.0, 0.0, 0.0, 0.0, 0.0, 0.0, 1.682097025656376E9, 0.0, 2023-04-21 12:10:25.656
47.0, -47719.20862426861, -29950.801128244537, 187500.0, 187500.0, 187500.0, 187500.0, 187500.0, 187500.0, 0.032, 0.994, -0.056, 192.0, 0.0, 0.0, 0.0, 0.0, 0.0, 0.0, 0.0, 0.0, 0.0, 1.6820970256563866E9, 0.0, 2023-04-21 12:10:25.656
48.0, -47665.00564396449, -30033.10025132898, 187500.0, 187500.0, 187500.0, 187500.0, 187500.0, 187500.0, 0.032, 0.994, -0.056, 192.0, 0.0, 0.0, 0.0, 0.0, 0.0, 0.0, 0.0, 0.0, 0.0, 1.682097025656397E9, 0.0, 2023-04-21 12:10:25.656
49.0, -47856.4930387131, -30149.463432963305, 187500.0, 187500.0, 187500.0, 187500.0, 187500.0, 187500.0, 0.032, 0.99, -0.056, 192.0, 1.0, 0.0, 30.0, 240.0, 254.0, 64.0, 0.0, 0.0, 0.0, 1.682097025656424E9, 0.0, 2023-04-21 12:10:25.656
50.0, -47949.565702625005, -30087.32558337755, 187500.0, 187500.0, 187500.0, 187500.0, 187500.0, 187500.0, 0.032, 0.99, -0.056, 192.0, 0.0, 0.0, 0.0, 0.0, 0.0, 0.0, 0.0, 0.0, 0.0, 1.6820970256564353E9, 0.0, 2023-04-21 12:10:25.656
51.0, -47770.75174698255, -29971.476491865695, 187500.0, 187500.0, 187500.0, 187500.0, 187500.0, 187500.0, 0.032, 0.99, -0.056, 192.0, 0.0, 0.0, 0.0, 0.0, 0.0, 0.0, 0.0, 0.0, 0.0, 1.682097025656446E9, 0.0, 2023-04-21 12:10:25.656
52.0, -47657.00371944949, -30006.904006827357, 187500.0, 187500.0, 187500.0, 187500.0, 187500.0, 187500.0, 0.032, 0.99, -0.056, 192.0, 0.0, 0.0, 0.0, 0.0, 0.0, 0.0, 0.0, 0.0, 0.0, 1.6820970256564565E9, 0.0, 2023-04-21 12:10:25.656
53.0, -47817.26572719404, -30140.075700292076, 187500.0, 187500.0, 187500.0, 187500.0, 187500.0, 187500.0, 0.032, 0.99, -0.056, 192.0, 0.0, 0.0, 0.0, 0.0, 0.0, 0.0, 0.0, 0.0, 0.0, 1.682097025656467E9, 0.0, 2023-04-21 12:10:25.656
54.0, -47960.16042949682, -30116.561665125093, 187500.0, 187500.0, 187500.0, 187500.0, 187500.0, 187500.0, 0.032, 0.99, -0.056, 192.0, 0.0, 0.0, 0.0, 0.0, 0.0, 0.0, 0.0, 0.0, 0.0, 1.6820970256564777E9, 0.0, 2023-04-21 12:10:25.656
55.0, -47810.49314862408, -29997.35981194494, 187500.0, 187500.0, 187500.0, 187500.0, 187500.0, 187500.0, 0.032, 0.99, -0.056, 192.0, 0.0, 0.0, 0.0, 0.0, 0.0, 0.0, 0.0, 0.0, 0.0, 1.682097025656488E9, 0.0, 2023-04-21 12:10:25.656
56.0, -47662.99398696351, -29993.247090965164, 187500.0, 187500.0, 187500.0, 187500.0, 187500.0, 187500.0, 0.032, 0.99, -0.056, 192.0, 0.0, 0.0, 0.0, 0.0, 0.0, 0.0, 0.0, 0.0, 0.0, 1.6820970256564987E9, 0.0, 2023-04-21 12:10:25.656
57.0, -47793.43876760468, -30138.555781669114, 187500.0, 187500.0, 187500.0, 187500.0, 187500.0, 187500.0, 0.032, 0.99, -0.056, 192.0, 0.0, 0.0, 0.0, 0.0, 0.0, 0.0, 0.0, 0.0, 0.0, 1.6820970256565092E9, 0.0, 2023-04-21 12:10:25.656
58.0, -47968.654092389836, -30138.77929911367, 187500.0, 187500.0, 187500.0, 187500.0, 187500.0, 187500.0, 0.032, 0.99, -0.056, 192.0, 0.0, 0.0, 0.0, 0.0, 0.0, 0.0, 0.0, 0.0, 0.0, 1.6820970256565197E9, 0.0, 2023-04-21 12:10:25.656
59.0, -47863.53383821653, -30030.41804199434, 187500.0, 187500.0, 187500.0, 187500.0, 187500.0, 187500.0, 0.034, 0.988, -0.05, 192.0, 1.0, 16.0, 30.0, 224.0, 254.0, 112.0, 0.0, 0.0, 0.0, 1.68209702565653E9, 0.0, 2023-04-21 12:10:25.656
60.0, -47665.743251531516, -29970.761236043127, 187500.0, 187500.0, 187500.0, 187500.0, 187500.0, 187500.0, 0.034, 0.988, -0.05, 192.0, 0.0, 0.0, 0.0, 0.0, 0.0, 0.0, 0.0, 0.0, 0.0, 1.682097025656541E9, 0.0, 2023-04-21 12:10:25.656
61.0, -47757.385403798275, -30116.53931338064, 187500.0, 187500.0, 187500.0, 187500.0, 187500.0, 187500.0, 0.034, 0.988, -0.05, 192.0, 0.0, 0.0, 0.0, 0.0, 0.0, 0.0, 0.0, 0.0, 0.0, 1.6820970256565518E9, 0.0, 2023-04-21 12:10:25.656
62.0, -47954.08075500498, -30147.742348640248, 187500.0, 187500.0, 187500.0, 187500.0, 187500.0, 187500.0, 0.034, 0.988, -0.05, 192.0, 0.0, 0.0, 0.0, 0.0, 0.0, 0.0, 0.0, 0.0, 0.0, 1.682097025656564E9, 0.0, 2023-04-21 12:10:25.656
63.0, -47903.34229509143, -30050.668722470848, 187500.0, 187500.0, 187500.0, 187500.0, 187500.0, 187500.0, 0.034, 0.988, -0.05, 192.0, 0.0, 0.0, 0.0, 0.0, 0.0, 0.0, 0.0, 0.0, 0.0, 1.6820970256565747E9, 0.0, 2023-04-21 12:10:25.656
64.0, -47683.93757151814, -29959.808881260025, 187500.0, 187500.0, 187500.0, 187500.0, 187500.0, 187500.0, 0.034, 0.988, -0.05, 192.0, 0.0, 0.0, 0.0, 0.0, 0.0, 0.0, 0.0, 0.0, 0.0, 1.6820970256565988E9, 0.0, 2023-04-21 12:10:25.656
65.0, -47725.265947016, -30100.356650394995, 187500.0, 187500.0, 187500.0, 187500.0, 187500.0, 187500.0, 0.034, 0.988, -0.05, 192.0, 0.0, 0.0, 0.0, 0.0, 0.0, 0.0, 0.0, 0.0, 0.0, 1.6820970256566095E9, 0.0, 2023-04-21 12:10:25.656
66.0, -47912.797082996025, -30138.622836902483, 187500.0, 187500.0, 187500.0, 187500.0, 187500.0, 187500.0, 0.034, 0.988, -0.05, 192.0, 0.0, 0.0, 0.0, 0.0, 0.0, 0.0, 0.0, 0.0, 0.0, 1.68209702565662E9, 0.0, 2023-04-21 12:10:25.656
67.0, -47917.15567316481, -30052.635675982914, 187500.0, 187500.0, 187500.0, 187500.0, 187500.0, 187500.0, 0.034, 0.988, -0.05, 192.0, 0.0, 0.0, 0.0, 0.0, 0.0, 0.0, 0.0, 0.0, 0.0, 1.6820970256566308E9, 0.0, 2023-04-21 12:10:25.656
68.0, -47698.645019369724, -29947.671884020794, 187500.0, 187500.0, 187500.0, 187500.0, 187500.0, 187500.0, 0.034, 0.988, -0.05, 192.0, 0.0, 0.0, 0.0, 0.0, 0.0, 0.0, 0.0, 0.0, 0.0, 1.6820970256566415E9, 0.0, 2023-04-21 12:10:25.656
69.0, -47704.54587990593, -30077.691981517313, 187500.0, 187500.0, 187500.0, 187500.0, 187500.0, 187500.0, 0.028, 0.988, -0.054, 192.0, 0.0, 224.0, 30.0, 224.0, 254.0, 80.0, 0.0, 0.0, 0.0, 1.6820970256566525E9, 0.0, 2023-04-21 12:10:25.656
70.0, -47895.38507406534, -30155.118424310498, 187500.0, 187500.0, 187500.0, 187500.0, 187500.0, 187500.0, 0.028, 0.988, -0.054, 192.0, 0.0, 0.0, 0.0, 0.0, 0.0, 0.0, 0.0, 0.0, 0.0, 1.6820970256566634E9, 0.0, 2023-04-21 12:10:25.656
71.0, -47947.889321790855, -30081.871757730456, 187500.0, 187500.0, 187500.0, 187500.0, 187500.0, 187500.0, 0.028, 0.988, -0.054, 192.0, 0.0, 0.0, 0.0, 0.0, 0.0, 0.0, 0.0, 0.0, 0.0, 1.682097025656674E9, 0.0, 2023-04-21 12:10:25.656
72.0, -47747.48358100457, -29969.64364882036, 187500.0, 187500.0, 187500.0, 187500.0, 187500.0, 187500.0, 0.028, 0.988, -0.054, 192.0, 0.0, 0.0, 0.0, 0.0, 0.0, 0.0, 0.0, 0.0, 0.0, 1.6820970256566846E9, 0.0, 2023-04-21 12:10:25.656
73.0, -47675.89094351423, -30041.213934566254, 187500.0, 187500.0, 187500.0, 187500.0, 187500.0, 187500.0, 0.028, 0.988, -0.054, 192.0, 0.0, 0.0, 0.0, 0.0, 0.0, 0.0, 0.0, 0.0, 0.0, 1.6820970256566951E9, 0.0, 2023-04-21 12:10:25.656
74.0, -47853.22968402263, -30150.44690971934, 187500.0, 187500.0, 187500.0, 187500.0, 187500.0, 187500.0, 0.028, 0.988, -0.054, 192.0, 0.0, 0.0, 0.0, 0.0, 0.0, 0.0, 0.0, 0.0, 0.0, 1.6820970256567059E9, 0.0, 2023-04-21 12:10:25.656
75.0, -47957.947606795744, -30110.861970288992, 187500.0, 187500.0, 187500.0, 187500.0, 187500.0, 187500.0, 0.028, 0.988, -0.054, 192.0, 0.0, 0.0, 0.0, 0.0, 0.0, 0.0, 0.0, 0.0, 0.0, 1.6820970256567163E9, 0.0, 2023-04-21 12:10:25.656
76.0, -47786.55443031245, -29995.616375877427, 187500.0, 187500.0, 187500.0, 187500.0, 187500.0, 187500.0, 0.028, 0.988, -0.054, 192.0, 0.0, 0.0, 0.0, 0.0, 0.0, 0.0, 0.0, 0.0, 0.0, 1.6820970256567268E9, 0.0, 2023-04-21 12:10:25.656
77.0, -47669.40893762218, -30022.99726283518, 187500.0, 187500.0, 187500.0, 187500.0, 187500.0, 187500.0, 0.028, 0.988, -0.054, 192.0, 0.0, 0.0, 0.0, 0.0, 0.0, 0.0, 0.0, 0.0, 0.0, 1.682097025656737E9, 0.0, 2023-04-21 12:10:25.656
78.0, -47827.592233132396, -30156.101901066533, 187500.0, 187500.0, 187500.0, 187500.0, 187500.0, 187500.0, 0.028, 0.988, -0.054, 192.0, 0.0, 0.0, 0.0, 0.0, 0.0, 0.0, 0.0, 0.0, 0.0, 1.6820970256567476E9, 0.0, 2023-04-21 12:10:25.656
79.0, -47975.24785700415, -30133.97367405578, 187500.0, 187500.0, 187500.0, 187500.0, 187500.0, 187500.0, 0.028, 0.988, -0.054, 192.0, 0.0, 0.0, 0.0, 0.0, 0.0, 0.0, 0.0, 0.0, 0.0, 1.6820970256567695E9, 0.0, 2023-04-21 12:10:25.656
80.0, -47830.296794211485, -30011.9331493298, 187500.0, 187500.0, 187500.0, 187500.0, 187500.0, 187500.0, 0.02, 0.992, -0.058, 192.0, 0.0, 160.0, 31.0, 0.0, 254.0, 48.0, 0.0, 0.0, 0.0, 1.6820970256567802E9, 0.0, 2023-04-21 12:10:25.656
81.0, -47667.844315510316, -29991.32484094201, 187500.0, 187500.0, 187500.0, 187500.0, 187500.0, 187500.0, 0.02, 0.992, -0.058, 192.0, 0.0, 0.0, 0.0, 0.0, 0.0, 0.0, 0.0, 0.0, 0.0, 1.6820970256567907E9, 0.0, 2023-04-21 12:10:25.656
82.0, -47779.98301744259, -30133.169011255388, 187500.0, 187500.0, 187500.0, 187500.0, 187500.0, 187500.0, 0.02, 0.992, -0.058, 192.0, 0.0, 0.0, 0.0, 0.0, 0.0, 0.0, 0.0, 0.0, 0.0, 1.6820970256568012E9, 0.0, 2023-04-21 12:10:25.656
83.0, -47950.057441003024, -30136.164145012397, 187500.0, 187500.0, 187500.0, 187500.0, 187500.0, 187500.0, 0.02, 0.992, -0.058, 192.0, 0.0, 0.0, 0.0, 0.0, 0.0, 0.0, 0.0, 0.0, 0.0, 1.682097025656813E9, 0.0, 2023-04-21 12:10:25.656
84.0, -47852.8944078558, -30018.549265688573, 187500.0, 187500.0, 187500.0, 187500.0, 187500.0, 187500.0, 0.02, 0.992, -0.058, 192.0, 0.0, 0.0, 0.0, 0.0, 0.0, 0.0, 0.0, 0.0, 0.0, 1.6820970256568232E9, 0.0, 2023-04-21 12:10:25.656
85.0, -47663.23985615252, -29965.68739005177, 187500.0, 187500.0, 187500.0, 187500.0, 187500.0, 187500.0, 0.02, 0.992, -0.058, 192.0, 0.0, 0.0, 0.0, 0.0, 0.0, 0.0, 0.0, 0.0, 0.0, 1.6820970256568348E9, 0.0, 2023-04-21 12:10:25.656
86.0, -47747.26006356002, -30115.935816280344, 187500.0, 187500.0, 187500.0, 187500.0, 187500.0, 187500.0, 0.02, 0.992, -0.058, 192.0, 0.0, 0.0, 0.0, 0.0, 0.0, 0.0, 0.0, 0.0, 0.0, 1.6820970256821E9, 0.0, 2023-04-21 12:10:25.682
87.0, -47949.141019480354, -30158.001799345235, 187500.0, 187500.0, 187500.0, 187500.0, 187500.0, 187500.0, 0.02, 0.992, -0.058, 192.0, 0.0, 0.0, 0.0, 0.0, 0.0, 0.0, 0.0, 0.0, 0.0, 1.6820970256821315E9, 0.0, 2023-04-21 12:10:25.682
88.0, -47904.34812359192, -30061.8445946985, 187500.0, 187500.0, 187500.0, 187500.0, 187500.0, 187500.0, 0.02, 0.992, -0.058, 192.0, 0.0, 0.0, 0.0, 0.0, 0.0, 0.0, 0.0, 0.0, 0.0, 1.6820970257555149E9, 0.0, 2023-04-21 12:10:25.755
89.0, -47683.53524011794, -29964.100416195444, 187500.0, 187500.0, 187500.0, 187500.0, 187500.0, 187500.0, 0.02, 0.992, -0.058, 192.0, 0.0, 0.0, 0.0, 0.0, 0.0, 0.0, 0.0, 0.0, 0.0, 1.682097025755541E9, 0.0, 2023-04-21 12:10:25.755
90.0, -47716.772284122984, -30097.786199782637, 187500.0, 187500.0, 187500.0, 187500.0, 187500.0, 187500.0, 0.028, 0.99, -0.064, 192.0, 0.0, 224.0, 30.0, 240.0, 254.0, 0.0, 0.0, 0.0, 0.0, 1.682097025755555E9, 0.0, 2023-04-21 12:10:25.755
91.0, -47916.46276908669, -30158.180613300876, 187500.0, 187500.0, 187500.0, 187500.0, 187500.0, 187500.0, 0.028, 0.99, -0.064, 192.0, 0.0, 0.0, 0.0, 0.0, 0.0, 0.0, 0.0, 0.0, 0.0, 1.6820970257555685E9, 0.0, 2023-04-21 12:10:25.755
92.0, -47928.935042492754, -30086.207996154786, 187500.0, 187500.0, 187500.0, 187500.0, 187500.0, 187500.0, 0.028, 0.99, -0.064, 192.0, 0.0, 0.0, 0.0, 0.0, 0.0, 0.0, 0.0, 0.0, 0.0, 1.6820970257555802E9, 0.0, 2023-04-21 12:10:25.755
93.0, -47713.53128117696, -29977.93614601328, 187500.0, 187500.0, 187500.0, 187500.0, 187500.0, 187500.0, 0.028, 0.99, -0.064, 192.0, 0.0, 0.0, 0.0, 0.0, 0.0, 0.0, 0.0, 0.0, 0.0, 1.6820970257555912E9, 0.0, 2023-04-21 12:10:25.755
94.0, -47692.230068711055, -30078.071961173056, 187500.0, 187500.0, 187500.0, 187500.0, 187500.0, 187500.0, 0.028, 0.99, -0.064, 192.0, 0.0, 0.0, 0.0, 0.0, 0.0, 0.0, 0.0, 0.0, 0.0, 1.6820970257556024E9, 0.0, 2023-04-21 12:10:25.755
95.0, -47891.31705657447, -30166.607220960526, 187500.0, 187500.0, 187500.0, 187500.0, 187500.0, 187500.0, 0.028, 0.99, -0.064, 192.0, 0.0, 0.0, 0.0, 0.0, 0.0, 0.0, 0.0, 0.0, 0.0, 1.682097025755703E9, 0.0, 2023-04-21 12:10:25.755
96.0, -47957.053537017535, -30110.14671446642, 187500.0, 187500.0, 187500.0, 187500.0, 187500.0, 187500.0, 0.028, 0.99, -0.064, 192.0, 0.0, 0.0, 0.0, 0.0, 0.0, 0.0, 0.0, 0.0, 0.0, 1.6820970257557144E9, 0.0, 2023-04-21 12:10:25.755
97.0, -47762.280435833985, -29999.215006734732, 187500.0, 187500.0, 187500.0, 187500.0, 187500.0, 187500.0, 0.028, 0.99, -0.064, 192.0, 0.0, 0.0, 0.0, 0.0, 0.0, 0.0, 0.0, 0.0, 0.0, 1.6820970257557256E9, 0.0, 2023-04-21 12:10:25.755
98.0, -47694.37583617876, -30070.584126780526, 187500.0, 187500.0, 187500.0, 187500.0, 187500.0, 187500.0, 0.028, 0.99, -0.064, 192.0, 0.0, 0.0, 0.0, 0.0, 0.0, 0.0, 0.0, 0.0, 0.0, 1.6820970257557364E9, 0.0, 2023-04-21 12:10:25.755
99.0, -47864.47261148365, -30179.03479087768, 187500.0, 187500.0, 187500.0, 187500.0, 187500.0, 187500.0, 0.028, 0.99, -0.064, 192.0, 0.0, 0.0, 0.0, 0.0, 0.0, 0.0, 0.0, 0.0, 0.0, 1.6820970257557476E9, 0.0, 2023-04-21 12:10:25.755
100.0, -47979.44998496175, -30140.1651072699, 187500.0, 187500.0, 187500.0, 187500.0, 187500.0, 187500.0, 0.026000000000000002, 0.988, -0.066, 192.0, 0.0, 208.0, 30.0, 224.0, 253.0, 240.0, 0.0, 0.0, 0.0, 1.6820970257557583E9, 0.0, 2023-04-21 12:10:25.755
101.0, -47810.06846547943, -30024.02544308012, 187500.0, 187500.0, 187500.0, 187500.0, 187500.0, 187500.0, 0.026000000000000002, 0.988, -0.066, 192.0, 0.0, 0.0, 0.0, 0.0, 0.0, 0.0, 0.0, 0.0, 0.0, 1.6820970257557704E9, 0.0, 2023-04-21 12:10:25.755
102.0, -47689.54785937642, -30042.689149700305, 187500.0, 187500.0, 187500.0, 187500.0, 187500.0, 187500.0, 0.026000000000000002, 0.988, -0.066, 192.0, 0.0, 0.0, 0.0, 0.0, 0.0, 0.0, 0.0, 0.0, 0.0, 1.682097025949602E9, 0.0, 2023-04-21 12:10:25.949
103.0, -47836.8905588258, -30167.367180272005, 187500.0, 187500.0, 187500.0, 187500.0, 187500.0, 187500.0, 0.026000000000000002, 0.988, -0.066, 192.0, 0.0, 0.0, 0.0, 0.0, 0.0, 0.0, 0.0, 0.0, 0.0, 1.6820970259496353E9, 0.0, 2023-04-21 12:10:25.949
104.0, -47978.95824658373, -30144.747214883235, 187500.0, 187500.0, 187500.0, 187500.0, 187500.0, 187500.0, 0.026000000000000002, 0.988, -0.066, 192.0, 0.0, 0.0, 0.0, 0.0, 0.0, 0.0, 0.0, 0.0, 0.0, 1.6820970259496577E9, 0.0, 2023-04-21 12:10:25.949
105.0, -47837.18113150372, -30025.634768680906, 187500.0, 187500.0, 187500.0, 187500.0, 187500.0, 187500.0, 0.026000000000000002, 0.988, -0.066, 192.0, 0.0, 0.0, 0.0, 0.0, 0.0, 0.0, 0.0, 0.0, 0.0, 1.682097025949669E9, 0.0, 2023-04-21 12:10:25.949
106.0, -47666.41380386517, -29999.483227668195, 187500.0, 187500.0, 187500.0, 187500.0, 187500.0, 187500.0, 0.026000000000000002, 0.988, -0.066, 192.0, 0.0, 0.0, 0.0, 0.0, 0.0, 0.0, 0.0, 0.0, 0.0, 1.68209702594968E9, 0.0, 2023-04-21 12:10:25.949
107.0, -47771.35524408284, -30135.49359267874, 187500.0, 187500.0, 187500.0, 187500.0, 187500.0, 187500.0, 0.026000000000000002, 0.988, -0.066, 192.0, 0.0, 0.0, 0.0, 0.0, 0.0, 0.0, 0.0, 0.0, 0.0, 1.6820970259496908E9, 0.0, 2023-04-21 12:10:25.949
108.0, -47956.20417072823, -30151.698607408838, 187500.0, 187500.0, 187500.0, 187500.0, 187500.0, 187500.0, 0.026000000000000002, 0.988, -0.066, 192.0, 0.0, 0.0, 0.0, 0.0, 0.0, 0.0, 0.0, 0.0, 0.0, 1.682097025949702E9, 0.0, 2023-04-21 12:10:25.949
109.0, -47873.65917845478, -30046.131318346423, 187500.0, 187500.0, 187500.0, 187500.0, 187500.0, 187500.0, 0.026000000000000002, 0.988, -0.066, 192.0, 0.0, 0.0, 0.0, 0.0, 0.0, 0.0, 0.0, 0.0, 0.0, 1.6820970259497132E9, 0.0, 2023-04-21 12:10:25.949
110.0, -47663.30691138589, -29969.241317420165, 187500.0, 187500.0, 187500.0, 187500.0, 187500.0, 187500.0, 0.024, 0.992, -0.064, 192.0, 0.0, 192.0, 31.0, 0.0, 254.0, 0.0, 0.0, 0.0, 0.0, 1.6820970259497807E9, 0.0, 2023-04-21 12:10:25.949
111.0, -47746.23188331508, -30123.9600925398, 187500.0, 187500.0, 187500.0, 187500.0, 187500.0, 187500.0, 0.024, 0.992, -0.064, 192.0, 0.0, 0.0, 0.0, 0.0, 0.0, 0.0, 0.0, 0.0, 0.0, 1.6820970259497929E9, 0.0, 2023-04-21 12:10:25.949
112.0, -47938.56864435299, -30157.957095856324, 187500.0, 187500.0, 187500.0, 187500.0, 187500.0, 187500.0, 0.024, 0.992, -0.064, 192.0, 0.0, 0.0, 0.0, 0.0, 0.0, 0.0, 0.0, 0.0, 0.0, 1.682097025949804E9, 0.0, 2023-04-21 12:10:25.949
113.0, -47901.44239681273, -30064.28093484413, 187500.0, 187500.0, 187500.0, 187500.0, 187500.0, 187500.0, 0.024, 0.992, -0.064, 192.0, 0.0, 0.0, 0.0, 0.0, 0.0, 0.0, 0.0, 0.0, 0.0, 1.6820970259498172E9, 0.0, 2023-04-21 12:10:25.949
114.0, -47675.466260369576, -29961.909945238825, 187500.0, 187500.0, 187500.0, 187500.0, 187500.0, 187500.0, 0.024, 0.992, -0.064, 192.0, 0.0, 0.0, 0.0, 0.0, 0.0, 0.0, 0.0, 0.0, 0.0, 1.6820970259498281E9, 0.0, 2023-04-21 12:10:25.949
115.0, -47710.55849916441, -30099.28376666114, 187500.0, 187500.0, 187500.0, 187500.0, 187500.0, 187500.0, 0.024, 0.992, -0.064, 192.0, 0.0, 0.0, 0.0, 0.0, 0.0, 0.0, 0.0, 0.0, 0.0, 1.682097025949839E9, 0.0, 2023-04-21 12:10:25.949
116.0, -47908.52789980506, -30165.981372115777, 187500.0, 187500.0, 187500.0, 187500.0, 187500.0, 187500.0, 0.024, 0.992, -0.064, 192.0, 0.0, 0.0, 0.0, 0.0, 0.0, 0.0, 0.0, 0.0, 0.0, 1.68209702594985E9, 0.0, 2023-04-21 12:10:25.949
117.0, -47933.24892917263, -30092.824112513557, 187500.0, 187500.0, 187500.0, 187500.0, 187500.0, 187500.0, 0.024, 0.992, -0.064, 192.0, 0.0, 0.0, 0.0, 0.0, 0.0, 0.0, 0.0, 0.0, 0.0, 1.6820970259498613E9, 0.0, 2023-04-21 12:10:25.949
118.0, -47721.734371392056, -29970.448311620752, 187500.0, 187500.0, 187500.0, 187500.0, 187500.0, 187500.0, 0.024, 0.992, -0.064, 192.0, 0.0, 0.0, 0.0, 0.0, 0.0, 0.0, 0.0, 0.0, 0.0, 1.682097025949872E9, 0.0, 2023-04-21 12:10:25.949
119.0, -47695.47107165707, -30070.33825759152, 187500.0, 187500.0, 187500.0, 187500.0, 187500.0, 187500.0, 0.024, 0.992, -0.064, 192.0, 0.0, 0.0, 0.0, 0.0, 0.0, 0.0, 0.0, 0.0, 0.0, 1.6820970259498827E9, 0.0, 2023-04-21 12:10:25.949
120.0, -47893.082844386445, -30171.01051461822, 187500.0, 187500.0, 187500.0, 187500.0, 187500.0, 187500.0, 0.024, 0.992, -0.064, 192.0, 0.0, 0.0, 0.0, 0.0, 0.0, 0.0, 0.0, 0.0, 0.0, 1.6820970259498937E9, 0.0, 2023-04-21 12:10:25.949
121.0, -47975.76194712662, -30121.076717505064, 187500.0, 187500.0, 187500.0, 187500.0, 187500.0, 187500.0, 0.022, 0.994, -0.066, 192.0, 0.0, 176.0, 31.0, 16.0, 253.0, 240.0, 0.0, 0.0, 0.0, 1.682097025949905E9, 0.0, 2023-04-21 12:10:25.949
122.0, -47780.60886628734, -30000.489056168684, 187500.0, 187500.0, 187500.0, 187500.0, 187500.0, 187500.0, 0.022, 0.994, -0.066, 192.0, 0.0, 0.0, 0.0, 0.0, 0.0, 0.0, 0.0, 0.0, 0.0, 1.6820970259499168E9, 0.0, 2023-04-21 12:10:25.949
123.0, -47696.58865887984, -30049.014693381156, 187500.0, 187500.0, 187500.0, 187500.0, 187500.0, 187500.0, 0.022, 0.994, -0.066, 192.0, 0.0, 0.0, 0.0, 0.0, 0.0, 0.0, 0.0, 0.0, 0.0, 1.682097025949928E9, 0.0, 2023-04-21 12:10:25.949
124.0, -47867.02071035156, -30163.857956392523, 187500.0, 187500.0, 187500.0, 187500.0, 187500.0, 187500.0, 0.022, 0.994, -0.066, 192.0, 0.0, 0.0, 0.0, 0.0, 0.0, 0.0, 0.0, 0.0, 0.0, 1.6820970259499393E9, 0.0, 2023-04-21 12:10:25.949
125.0, -47988.32362751051, -30130.10682226501, 187500.0, 187500.0, 187500.0, 187500.0, 187500.0, 187500.0, 0.022, 0.994, -0.066, 192.0, 0.0, 0.0, 0.0, 0.0, 0.0, 0.0, 0.0, 0.0, 0.0, 1.6820970259499717E9, 0.0, 2023-04-21 12:10:25.949
126.0, -47816.684581838206, -30008.245111494674, 187500.0, 187500.0, 187500.0, 187500.0, 187500.0, 187500.0, 0.022, 0.994, -0.066, 192.0, 0.0, 0.0, 0.0, 0.0, 0.0, 0.0, 0.0, 0.0, 0.0, 1.6820970259499855E9, 0.0, 2023-04-21 12:10:25.949
127.0, -47680.60716159429, -30018.549265688573, 187500.0, 187500.0, 187500.0, 187500.0, 187500.0, 187500.0, 0.022, 0.994, -0.066, 192.0, 0.0, 0.0, 0.0, 0.0, 0.0, 0.0, 0.0, 0.0, 0.0, 1.6820970259499967E9, 0.0, 2023-04-21 12:10:25.949
128.0, -47818.29390743899, -30144.85897360551, 187500.0, 187500.0, 187500.0, 187500.0, 187500.0, 187500.0, 0.022, 0.994, -0.066, 192.0, 0.0, 0.0, 0.0, 0.0, 0.0, 0.0, 0.0, 0.0, 0.0, 1.6820970259500077E9, 0.0, 2023-04-21 12:10:25.950
129.0, -47979.31587449502, -30130.28563622065, 187500.0, 187500.0, 187500.0, 187500.0, 187500.0, 187500.0, 0.022, 0.994, -0.066, 192.0, 0.0, 0.0, 0.0, 0.0, 0.0, 0.0, 0.0, 0.0, 0.0, 1.682097025950019E9, 0.0, 2023-04-21 12:10:25.950
130.0, -47856.91772185775, -30026.819411137036, 187500.0, 187500.0, 187500.0, 187500.0, 187500.0, 187500.0, 0.022, 0.994, -0.066, 192.0, 0.0, 0.0, 0.0, 0.0, 0.0, 0.0, 0.0, 0.0, 0.0, 1.6820970259500296E9, 0.0, 2023-04-21 12:10:25.950
131.0, -47673.834583024334, -29993.291794454075, 187500.0, 187500.0, 187500.0, 187500.0, 187500.0, 187500.0, 0.016, 0.994, -0.066, 192.0, 0.0, 128.0, 31.0, 16.0, 253.0, 240.0, 0.0, 0.0, 0.0, 1.6820970259500408E9, 0.0, 2023-04-21 12:10:25.950
132.0, -47783.02285468851, -30140.366272969997, 187500.0, 187500.0, 187500.0, 187500.0, 187500.0, 187500.0, 0.016, 0.994, -0.066, 192.0, 0.0, 0.0, 0.0, 0.0, 0.0, 0.0, 0.0, 0.0, 0.0, 1.6820970259500523E9, 0.0, 2023-04-21 12:10:25.950
133.0, -47963.133211509376, -30143.07083404909, 187500.0, 187500.0, 187500.0, 187500.0, 187500.0, 187500.0, 0.016, 0.994, -0.066, 192.0, 0.0, 0.0, 0.0, 0.0, 0.0, 0.0, 0.0, 0.0, 0.0, 1.6820970259500632E9, 0.0, 2023-04-21 12:10:25.950
134.0, -47884.56682974897, -30041.348045032984, 187500.0, 187500.0, 187500.0, 187500.0, 187500.0, 187500.0, 0.016, 0.994, -0.066, 192.0, 0.0, 0.0, 0.0, 0.0, 0.0, 0.0, 0.0, 0.0, 0.0, 1.682097025950074E9, 0.0, 2023-04-21 12:10:25.950
135.0, -47680.405995894194, -29973.868128522412, 187500.0, 187500.0, 187500.0, 187500.0, 187500.0, 187500.0, 0.016, 0.994, -0.066, 192.0, 0.0, 0.0, 0.0, 0.0, 0.0, 0.0, 0.0, 0.0, 0.0, 1.6820970259500847E9, 0.0, 2023-04-21 12:10:25.950
136.0, -47760.71581372211, -30126.99992978572, 187500.0, 187500.0, 187500.0, 187500.0, 187500.0, 187500.0, 0.016, 0.994, -0.066, 192.0, 0.0, 0.0, 0.0, 0.0, 0.0, 0.0, 0.0, 0.0, 0.0, 1.682097025950096E9, 0.0, 2023-04-21 12:10:25.950
137.0, -47964.519019665604, -30168.97650587279, 187500.0, 187500.0, 187500.0, 187500.0, 187500.0, 187500.0, 0.016, 0.994, -0.066, 192.0, 0.0, 0.0, 0.0, 0.0, 0.0, 0.0, 0.0, 0.0, 0.0, 1.6820970259501066E9, 0.0, 2023-04-21 12:10:25.950
138.0, -47927.750400036624, -30065.443225555806, 187500.0, 187500.0, 187500.0, 187500.0, 187500.0, 187500.0, 0.016, 0.994, -0.066, 192.0, 0.0, 0.0, 0.0, 0.0, 0.0, 0.0, 0.0, 0.0, 0.0, 1.6820970259501173E9, 0.0, 2023-04-21 12:10:25.950
139.0, -47702.69068511614, -29966.849680763447, 187500.0, 187500.0, 187500.0, 187500.0, 187500.0, 187500.0, 0.016, 0.994, -0.066, 192.0, 0.0, 0.0, 0.0, 0.0, 0.0, 0.0, 0.0, 0.0, 0.0, 1.682097025950128E9, 0.0, 2023-04-21 12:10:25.950
140.0, -47724.37187723778, -30103.7541155522, 187500.0, 187500.0, 187500.0, 187500.0, 187500.0, 187500.0, 0.016, 0.994, -0.066, 192.0, 0.0, 0.0, 0.0, 0.0, 0.0, 0.0, 0.0, 0.0, 0.0, 1.6820970259501517E9, 0.0, 2023-04-21 12:10:25.950
141.0, -47925.33641163545, -30175.525566998193, 187500.0, 187500.0, 187500.0, 187500.0, 187500.0, 187500.0, 0.022, 0.992, -0.06, 192.0, 0.0, 176.0, 31.0, 0.0, 254.0, 32.0, 0.0, 0.0, 0.0, 1.682097025950163E9, 0.0, 2023-04-21 12:10:25.950
142.0, -47961.5685893975, -30103.977632996757, 187500.0, 187500.0, 187500.0, 187500.0, 187500.0, 187500.0, 0.022, 0.992, -0.06, 192.0, 0.0, 0.0, 0.0, 0.0, 0.0, 0.0, 0.0, 0.0, 0.0, 1.682097025950174E9, 0.0, 2023-04-21 12:10:25.950
143.0, -47741.31449953491, -29978.629050091393, 187500.0, 187500.0, 187500.0, 187500.0, 187500.0, 187500.0, 0.022, 0.992, -0.06, 192.0, 0.0, 0.0, 0.0, 0.0, 0.0, 0.0, 0.0, 0.0, 0.0, 1.6820970259501853E9, 0.0, 2023-04-21 12:10:25.950
144.0, -47699.94142054814, -30067.499586045695, 187500.0, 187500.0, 187500.0, 187500.0, 187500.0, 187500.0, 0.022, 0.992, -0.06, 192.0, 0.0, 0.0, 0.0, 0.0, 0.0, 0.0, 0.0, 0.0, 0.0, 1.6820970259838655E9, 0.0, 2023-04-21 12:10:25.983
145.0, -47887.8525361839, -30164.88613663747, 187500.0, 187500.0, 187500.0, 187500.0, 187500.0, 187500.0, 0.022, 0.992, -0.06, 192.0, 0.0, 0.0, 0.0, 0.0, 0.0, 0.0, 0.0, 0.0, 0.0, 1.682097025983896E9, 0.0, 2023-04-21 12:10:25.983
146.0, -47974.91258083732, -30113.030089501157, 187500.0, 187500.0, 187500.0, 187500.0, 187500.0, 187500.0, 0.022, 0.992, -0.06, 192.0, 0.0, 0.0, 0.0, 0.0, 0.0, 0.0, 0.0, 0.0, 0.0, 1.6820970259839084E9, 0.0, 2023-04-21 12:10:25.983
147.0, -47781.41352908773, -29996.26457646663, 187500.0, 187500.0, 187500.0, 187500.0, 187500.0, 187500.0, 0.022, 0.992, -0.06, 192.0, 0.0, 0.0, 0.0, 0.0, 0.0, 0.0, 0.0, 0.0, 0.0, 1.6820970259839337E9, 0.0, 2023-04-21 12:10:25.983
148.0, -47697.326266446864, -30054.08853937251, 187500.0, 187500.0, 187500.0, 187500.0, 187500.0, 187500.0, 0.022, 0.992, -0.06, 192.0, 0.0, 0.0, 0.0, 0.0, 0.0, 0.0, 0.0, 0.0, 0.0, 1.6820970259839454E9, 0.0, 2023-04-21 12:10:25.983
149.0, -47866.50662022908, -30177.336058299075, 187500.0, 187500.0, 187500.0, 187500.0, 187500.0, 187500.0, 0.022, 0.992, -0.06, 192.0, 0.0, 0.0, 0.0, 0.0, 0.0, 0.0, 0.0, 0.0, 0.0, 1.6820970259999151E9, 0.0, 2023-04-21 12:10:25.999
150.0, -47988.41303448833, -30137.34878746853, 187500.0, 187500.0, 187500.0, 187500.0, 187500.0, 187500.0, 0.022, 0.992, -0.06, 192.0, 0.0, 0.0, 0.0, 0.0, 0.0, 0.0, 0.0, 0.0, 0.0, 1.6820970260390873E9, 0.0, 2023-04-21 12:10:26.039
151.0, -47823.658326108256, -30013.98950981969, 187500.0, 187500.0, 187500.0, 187500.0, 187500.0, 187500.0, 0.03, 0.988, -0.056, 192.0, 0.0, 240.0, 30.0, 224.0, 254.0, 64.0, 0.0, 0.0, 0.0, 1.6820970260391116E9, 0.0, 2023-04-21 12:10:26.039
152.0, -47678.08141447084, -30014.637710408893, 187500.0, 187500.0, 187500.0, 187500.0, 187500.0, 187500.0, 0.03, 0.988, -0.056, 192.0, 0.0, 0.0, 0.0, 0.0, 0.0, 0.0, 0.0, 0.0, 0.0, 1.6820970260964303E9, 0.0, 2023-04-21 12:10:26.096
153.0, -47814.04707599248, -30154.82785163258, 187500.0, 187500.0, 187500.0, 187500.0, 187500.0, 187500.0, 0.03, 0.988, -0.056, 192.0, 0.0, 0.0, 0.0, 0.0, 0.0, 0.0, 0.0, 0.0, 0.0, 1.6820970260964572E9, 0.0, 2023-04-21 12:10:26.096
154.0, -47978.04182506107, -30147.9658660848, 187500.0, 187500.0, 187500.0, 187500.0, 187500.0, 187500.0, 0.03, 0.988, -0.056, 192.0, 0.0, 0.0, 0.0, 0.0, 0.0, 0.0, 0.0, 0.0, 0.0, 1.6820970260964696E9, 0.0, 2023-04-21 12:10:26.096
155.0, -47854.503733456586, -30025.120678558433, 187500.0, 187500.0, 187500.0, 187500.0, 187500.0, 187500.0, 0.03, 0.988, -0.056, 192.0, 0.0, 0.0, 0.0, 0.0, 0.0, 0.0, 0.0, 0.0, 0.0, 1.682097026096618E9, 0.0, 2023-04-21 12:10:26.096
156.0, -47666.03382420944, -29976.50563436814, 187500.0, 187500.0, 187500.0, 187500.0, 187500.0, 187500.0, 0.03, 0.988, -0.056, 192.0, 0.0, 0.0, 0.0, 0.0, 0.0, 0.0, 0.0, 0.0, 0.0, 1.6820970260966308E9, 0.0, 2023-04-21 12:10:26.096
157.0, -47777.591380785874, -30133.683101377857, 187500.0, 187500.0, 187500.0, 187500.0, 187500.0, 187500.0, 0.03, 0.988, -0.056, 192.0, 0.0, 0.0, 0.0, 0.0, 0.0, 0.0, 0.0, 0.0, 0.0, 1.682097026096642E9, 0.0, 2023-04-21 12:10:26.096
158.0, -47967.64826388935, -30156.884212122466, 187500.0, 187500.0, 187500.0, 187500.0, 187500.0, 187500.0, 0.03, 0.988, -0.056, 192.0, 0.0, 0.0, 0.0, 0.0, 0.0, 0.0, 0.0, 0.0, 0.0, 1.6820970260966532E9, 0.0, 2023-04-21 12:10:26.096
159.0, -47900.59303052343, -30060.168213864355, 187500.0, 187500.0, 187500.0, 187500.0, 187500.0, 187500.0, 0.03, 0.988, -0.056, 192.0, 0.0, 0.0, 0.0, 0.0, 0.0, 0.0, 0.0, 0.0, 0.0, 1.6820970260966644E9, 0.0, 2023-04-21 12:10:26.096
160.0, -47692.945324533626, -29985.289869939075, 187500.0, 187500.0, 187500.0, 187500.0, 187500.0, 187500.0, 0.03, 0.988, -0.056, 192.0, 0.0, 0.0, 0.0, 0.0, 0.0, 0.0, 0.0, 0.0, 0.0, 1.6820970260966756E9, 0.0, 2023-04-21 12:10:26.096
161.0, -47758.1230113653, -30133.77250835568, 187500.0, 187500.0, 187500.0, 187500.0, 187500.0, 187500.0, 0.03, 0.988, -0.056, 192.0, 0.0, 0.0, 0.0, 0.0, 0.0, 0.0, 0.0, 0.0, 0.0, 1.6820970260966868E9, 0.0, 2023-04-21 12:10:26.096
162.0, -47958.998138785144, -30177.805444932634, 187500.0, 187500.0, 187500.0, 187500.0, 187500.0, 187500.0, 0.03, 0.988, -0.062, 192.0, 0.0, 240.0, 30.0, 224.0, 254.0, 16.0, 0.0, 0.0, 0.0, 1.682097026112508E9, 0.0, 2023-04-21 12:10:26.112
163.0, -47932.73483905016, -30079.435417584828, 187500.0, 187500.0, 187500.0, 187500.0, 187500.0, 187500.0, 0.03, 0.988, -0.062, 192.0, 0.0, 0.0, 0.0, 0.0, 0.0, 0.0, 0.0, 0.0, 0.0, 1.6820970261436763E9, 0.0, 2023-04-21 12:10:26.143
164.0, -47711.25140324252, -29973.555204100037, 187500.0, 187500.0, 187500.0, 187500.0, 187500.0, 187500.0, 0.03, 0.988, -0.062, 192.0, 0.0, 0.0, 0.0, 0.0, 0.0, 0.0, 0.0, 0.0, 0.0, 1.6820970261436987E9, 0.0, 2023-04-21 12:10:26.143
165.0, -47727.21054878361, -30103.15061845191, 187500.0, 187500.0, 187500.0, 187500.0, 187500.0, 187500.0, 0.03, 0.988, -0.062, 192.0, 0.0, 0.0, 0.0, 0.0, 0.0, 0.0, 0.0, 0.0, 0.0, 1.68209702617288E9, 0.0, 2023-04-21 12:10:26.172
166.0, -47931.39373438284, -30190.523587527703, 187500.0, 187500.0, 187500.0, 187500.0, 187500.0, 187500.0, 0.03, 0.988, -0.062, 192.0, 0.0, 0.0, 0.0, 0.0, 0.0, 0.0, 0.0, 0.0, 0.0, 1.682097026172902E9, 0.0, 2023-04-21 12:10:26.172
167.0, -47961.27801671958, -30108.49268537673, 187500.0, 187500.0, 187500.0, 187500.0, 187500.0, 187500.0, 0.03, 0.988, -0.062, 192.0, 0.0, 0.0, 0.0, 0.0, 0.0, 0.0, 0.0, 0.0, 0.0, 1.6820970261729138E9, 0.0, 2023-04-21 12:10:26.172
168.0, -47757.944197409655, -29992.196558975764, 187500.0, 187500.0, 187500.0, 187500.0, 187500.0, 187500.0, 0.03, 0.988, -0.062, 192.0, 0.0, 0.0, 0.0, 0.0, 0.0, 0.0, 0.0, 0.0, 0.0, 1.682097026172933E9, 0.0, 2023-04-21 12:10:26.172
169.0, -47714.87238584428, -30082.922289719856, 187500.0, 187500.0, 187500.0, 187500.0, 187500.0, 187500.0, 0.03, 0.988, -0.062, 192.0, 0.0, 0.0, 0.0, 0.0, 0.0, 0.0, 0.0, 0.0, 0.0, 1.6820970261729443E9, 0.0, 2023-04-21 12:10:26.172
170.0, -47896.927344432755, -30180.085322867075, 187500.0, 187500.0, 187500.0, 187500.0, 187500.0, 187500.0, 0.03, 0.988, -0.062, 192.0, 0.0, 0.0, 0.0, 0.0, 0.0, 0.0, 0.0, 0.0, 0.0, 1.6820970261889572E9, 0.0, 2023-04-21 12:10:26.188
185.0, -47691.738330333035, -29979.925451269803, 187500.0, 187500.0, 187500.0, 187500.0, 187500.0, 187500.0, 0.03, 0.988, -0.062, 192.0, 0.0, 0.0, 0.0, 0.0, 0.0, 0.0, 0.0, 0.0, 0.0, 1.6820970261889834E9, 0.0, 2023-04-21 12:10:26.188
183.0, -47957.36646143991, -30156.168956299898, 187500.0, 187500.0, 187500.0, 187500.0, 187500.0, 187500.0, 0.03, 0.988, -0.062, 192.0, 0.0, 0.0, 0.0, 0.0, 0.0, 0.0, 0.0, 0.0, 0.0, 1.682097026429311E9, 0.0, 2023-04-21 12:10:26.429
173.0, -47689.212583209584, -30046.488946257705, 187500.0, 187500.0, 187500.0, 187500.0, 187500.0, 187500.0, 0.03, 0.988, -0.062, 192.0, 0.0, 0.0, 0.0, 0.0, 0.0, 0.0, 0.0, 0.0, 0.0, 1.6820970264293444E9, 0.0, 2023-04-21 12:10:26.429
191.0, -47923.347106378926, -30182.521663012703, 187500.0, 187500.0, 187500.0, 187500.0, 187500.0, 187500.0, 0.03, 0.988, -0.062, 192.0, 0.0, 0.0, 0.0, 0.0, 0.0, 0.0, 0.0, 0.0, 0.0, 1.6820970264293644E9, 0.0, 2023-04-21 12:10:26.429
178.0, -47806.380427644304, -30149.619895174492, 187500.0, 187500.0, 187500.0, 187500.0, 187500.0, 187500.0, 0.03, 0.988, -0.062, 192.0, 0.0, 0.0, 0.0, 0.0, 0.0, 0.0, 0.0, 0.0, 0.0, 1.682097026429378E9, 0.0, 2023-04-21 12:10:26.429
176.0, -47819.120921983835, -30007.865131838935, 187500.0, 187500.0, 187500.0, 187500.0, 187500.0, 187500.0, 0.03, 0.988, -0.062, 192.0, 0.0, 0.0, 0.0, 0.0, 0.0, 0.0, 0.0, 0.0, 0.0, 1.6820970264293911E9, 0.0, 2023-04-21 12:10:26.429
189.0, -47727.38936273925, -29993.157683987345, 187500.0, 187500.0, 187500.0, 187500.0, 187500.0, 187500.0, 0.03, 0.988, -0.062, 192.0, 0.0, 0.0, 0.0, 0.0, 0.0, 0.0, 0.0, 0.0, 0.0, 1.6820970264294038E9, 0.0, 2023-04-21 12:10:26.429
186.0, -47746.902435648735, -30125.34590069603, 187500.0, 187500.0, 187500.0, 187500.0, 187500.0, 187500.0, 0.03, 0.988, -0.062, 192.0, 0.0, 0.0, 0.0, 0.0, 0.0, 0.0, 0.0, 0.0, 0.0, 1.6820970264294167E9, 0.0, 2023-04-21 12:10:26.429
187.0, -47953.45490616023, -30184.935651413878, 187500.0, 187500.0, 187500.0, 187500.0, 187500.0, 187500.0, 0.03, 0.988, -0.062, 192.0, 0.0, 0.0, 0.0, 0.0, 0.0, 0.0, 0.0, 0.0, 0.0, 1.6820970264294293E9, 0.0, 2023-04-21 12:10:26.429
192.0, -47973.30325523654, -30112.76186856769, 187500.0, 187500.0, 187500.0, 187500.0, 187500.0, 187500.0, 0.022, 0.992, -0.06, 192.0, 0.0, 176.0, 31.0, 0.0, 254.0, 32.0, 0.0, 0.0, 0.0, 1.6820970264294424E9, 0.0, 2023-04-21 12:10:26.429
207.0, -47762.25808408953, -30136.767642112693, 187500.0, 187500.0, 187500.0, 187500.0, 187500.0, 187500.0, 0.022, 0.992, -0.06, 192.0, 0.0, 0.0, 0.0, 0.0, 0.0, 0.0, 0.0, 0.0, 0.0, 1.6820970264294577E9, 0.0, 2023-04-21 12:10:26.429
194.0, -47698.26503971399, -30074.406275082383, 187500.0, 187500.0, 187500.0, 187500.0, 187500.0, 187500.0, 0.022, 0.992, -0.06, 192.0, 0.0, 0.0, 0.0, 0.0, 0.0, 0.0, 0.0, 0.0, 0.0, 1.6820970264294734E9, 0.0, 2023-04-21 12:10:26.429
195.0, -47885.34914080491, -30183.035753135176, 187500.0, 187500.0, 187500.0, 187500.0, 187500.0, 187500.0, 0.022, 0.992, -0.06, 192.0, 0.0, 0.0, 0.0, 0.0, 0.0, 0.0, 0.0, 0.0, 0.0, 1.6820970264294863E9, 0.0, 2023-04-21 12:10:26.429
196.0, -47977.55008668305, -30129.369214697985, 187500.0, 187500.0, 187500.0, 187500.0, 187500.0, 187500.0, 0.022, 0.992, -0.06, 192.0, 0.0, 0.0, 0.0, 0.0, 0.0, 0.0, 0.0, 0.0, 0.0, 1.682097026429499E9, 0.0, 2023-04-21 12:10:26.429
205.0, -47866.75248941809, -30046.60070497998, 187500.0, 187500.0, 187500.0, 187500.0, 187500.0, 187500.0, 0.022, 0.992, -0.06, 192.0, 0.0, 0.0, 0.0, 0.0, 0.0, 0.0, 0.0, 0.0, 0.0, 1.6820970264295647E9, 0.0, 2023-04-21 12:10:26.429
217.0, -47965.59190339946, -30114.125324979464, 187500.0, 187500.0, 187500.0, 187500.0, 187500.0, 187500.0, 0.022, 0.992, -0.06, 192.0, 0.0, 0.0, 0.0, 0.0, 0.0, 0.0, 0.0, 0.0, 0.0, 1.6820970264295783E9, 0.0, 2023-04-21 12:10:26.429
215.0, -47708.591545652336, -30097.316813149075, 187500.0, 187500.0, 187500.0, 187500.0, 187500.0, 187500.0, 0.022, 0.992, -0.06, 192.0, 0.0, 0.0, 0.0, 0.0, 0.0, 0.0, 0.0, 0.0, 0.0, 1.6820970264295912E9, 0.0, 2023-04-21 12:10:26.429
200.0, -47968.855258089934, -30131.872610076978, 187500.0, 187500.0, 187500.0, 187500.0, 187500.0, 187500.0, 0.022, 0.992, -0.06, 192.0, 0.0, 0.0, 0.0, 0.0, 0.0, 0.0, 0.0, 0.0, 0.0, 1.6820970264296052E9, 0.0, 2023-04-21 12:10:26.429
210.0, -47700.58962113734, -29982.31708792652, 187500.0, 187500.0, 187500.0, 187500.0, 187500.0, 187500.0, 0.022, 0.992, -0.06, 192.0, 0.0, 0.0, 0.0, 0.0, 0.0, 0.0, 0.0, 0.0, 0.0, 1.6820970264296193E9, 0.0, 2023-04-21 12:10:26.429
208.0, -47958.48404866267, -30161.55572671363, 187500.0, 187500.0, 187500.0, 187500.0, 187500.0, 187500.0, 0.022, 0.992, -0.06, 192.0, 0.0, 0.0, 0.0, 0.0, 0.0, 0.0, 0.0, 0.0, 0.0, 1.6820970264296393E9, 0.0, 2023-04-21 12:10:26.429
213.0, -47950.124496236385, -30107.553912109604, 187500.0, 187500.0, 187500.0, 187500.0, 187500.0, 187500.0, 0.024, 0.984, -0.058, 192.0, 0.0, 192.0, 30.0, 192.0, 254.0, 48.0, 0.0, 0.0, 0.0, 1.6820970264296525E9, 0.0, 2023-04-21 12:10:26.429
234.0, -47926.25283315812, -30090.790103768126, 187500.0, 187500.0, 187500.0, 187500.0, 187500.0, 187500.0, 0.024, 0.984, -0.058, 192.0, 0.0, 0.0, 0.0, 0.0, 0.0, 0.0, 0.0, 0.0, 0.0, 1.682097026429666E9, 0.0, 2023-04-21 12:10:26.429
219.0, -47689.39139716523, -30065.823205211545, 187500.0, 187500.0, 187500.0, 187500.0, 187500.0, 187500.0, 0.024, 0.984, -0.058, 192.0, 0.0, 0.0, 0.0, 0.0, 0.0, 0.0, 0.0, 0.0, 0.0, 1.682097026429679E9, 0.0, 2023-04-21 12:10:26.429
230.0, -47881.16936459176, -30055.85432718448, 187500.0, 187500.0, 187500.0, 187500.0, 187500.0, 187500.0, 0.024, 0.984, -0.058, 192.0, 0.0, 0.0, 0.0, 0.0, 0.0, 0.0, 0.0, 0.0, 0.0, 1.6820970264296916E9, 0.0, 2023-04-21 12:10:26.429
228.0, -47798.289096151486, -30157.06302607811, 187500.0, 187500.0, 187500.0, 187500.0, 187500.0, 187500.0, 0.024, 0.984, -0.058, 192.0, 0.0, 0.0, 0.0, 0.0, 0.0, 0.0, 0.0, 0.0, 0.0, 1.6820970264297042E9, 0.0, 2023-04-21 12:10:26.429
224.0, -47819.72441908412, -30158.292372023152, 187500.0, 187500.0, 187500.0, 187500.0, 187500.0, 187500.0, 0.024, 0.984, -0.058, 192.0, 0.0, 0.0, 0.0, 0.0, 0.0, 0.0, 0.0, 0.0, 0.0, 1.682097026429717E9, 0.0, 2023-04-21 12:10:26.429
225.0, -47975.426670959794, -30144.948380583333, 187500.0, 187500.0, 187500.0, 187500.0, 187500.0, 187500.0, 0.024, 0.984, -0.058, 192.0, 0.0, 0.0, 0.0, 0.0, 0.0, 0.0, 0.0, 0.0, 0.0, 1.6820970264297297E9, 0.0, 2023-04-21 12:10:26.429
226.0, -47831.637898878806, -30028.69695767128, 187500.0, 187500.0, 187500.0, 187500.0, 187500.0, 187500.0, 0.024, 0.984, -0.058, 192.0, 0.0, 0.0, 0.0, 0.0, 0.0, 0.0, 0.0, 0.0, 0.0, 1.6820970264297426E9, 0.0, 2023-04-21 12:10:26.429
235.0, -47710.334981719854, -29998.008012534145, 187500.0, 187500.0, 187500.0, 187500.0, 187500.0, 187500.0, 0.024, 0.984, -0.058, 192.0, 0.0, 0.0, 0.0, 0.0, 0.0, 0.0, 0.0, 0.0, 0.0, 1.6820970264297552E9, 0.0, 2023-04-21 12:10:26.429
236.0, -47739.12402857829, -30130.933836809858, 187500.0, 187500.0, 187500.0, 187500.0, 187500.0, 187500.0, 0.024, 0.984, -0.058, 192.0, 0.0, 0.0, 0.0, 0.0, 0.0, 0.0, 0.0, 0.0, 0.0, 1.682097026429768E9, 0.0, 2023-04-21 12:10:26.429
237.0, -47931.952527994225, -30186.612032248027, 187500.0, 187500.0, 187500.0, 187500.0, 187500.0, 187500.0, 0.024, 0.984, -0.058, 192.0, 0.0, 0.0, 0.0, 0.0, 0.0, 0.0, 0.0, 0.0, 0.0, 1.6820970264297993E9, 0.0, 2023-04-21 12:10:26.429
238.0, -47951.77852532608, -30108.850313288014, 187500.0, 187500.0, 187500.0, 187500.0, 187500.0, 187500.0, 0.024, 0.984, -0.058, 192.0, 0.0, 0.0, 0.0, 0.0, 0.0, 0.0, 0.0, 0.0, 0.0, 1.6820970264298122E9, 0.0, 2023-04-21 12:10:26.429
239.0, -47728.90928136221, -29991.12367524191, 187500.0, 187500.0, 187500.0, 187500.0, 187500.0, 187500.0, 0.024, 0.984, -0.058, 192.0, 0.0, 0.0, 0.0, 0.0, 0.0, 0.0, 0.0, 0.0, 0.0, 1.6820970264298248E9, 0.0, 2023-04-21 12:10:26.429
240.0, -47708.88211833026, -30096.266281159675, 187500.0, 187500.0, 187500.0, 187500.0, 187500.0, 187500.0, 0.024, 0.984, -0.058, 192.0, 0.0, 0.0, 0.0, 0.0, 0.0, 0.0, 0.0, 0.0, 0.0, 1.6820970264298377E9, 0.0, 2023-04-21 12:10:26.429
241.0, -47899.47544330066, -30176.889023409967, 187500.0, 187500.0, 187500.0, 187500.0, 187500.0, 187500.0, 0.024, 0.984, -0.058, 192.0, 0.0, 0.0, 0.0, 0.0, 0.0, 0.0, 0.0, 0.0, 0.0, 1.6820970264298503E9, 0.0, 2023-04-21 12:10:26.429
242.0, -47962.97674929819, -30111.800743556112, 187500.0, 187500.0, 187500.0, 187500.0, 187500.0, 187500.0, 0.024, 0.984, -0.058, 192.0, 0.0, 0.0, 0.0, 0.0, 0.0, 0.0, 0.0, 0.0, 0.0, 1.6820970264298632E9, 0.0, 2023-04-21 12:10:26.429
243.0, -47761.20755210013, -29993.045925265065, 187500.0, 187500.0, 187500.0, 187500.0, 187500.0, 187500.0, 0.018000000000000002, 0.99, -0.054, 192.0, 0.0, 144.0, 30.0, 240.0, 254.0, 80.0, 0.0, 0.0, 0.0, 1.682097026429876E9, 0.0, 2023-04-21 12:10:26.429
244.0, -47683.53524011794, -30058.38007430793, 187500.0, 187500.0, 187500.0, 187500.0, 187500.0, 187500.0, 0.018000000000000002, 0.99, -0.054, 192.0, 0.0, 0.0, 0.0, 0.0, 0.0, 0.0, 0.0, 0.0, 0.0, 1.6820970264298892E9, 0.0, 2023-04-21 12:10:26.429
245.0, -47865.254922539585, -30179.25830832223, 187500.0, 187500.0, 187500.0, 187500.0, 187500.0, 187500.0, 0.018000000000000002, 0.99, -0.054, 192.0, 0.0, 0.0, 0.0, 0.0, 0.0, 0.0, 0.0, 0.0, 0.0, 1.682097026429902E9, 0.0, 2023-04-21 12:10:26.429
246.0, -47985.79788038706, -30143.786089871657, 187500.0, 187500.0, 187500.0, 187500.0, 187500.0, 187500.0, 0.018000000000000002, 0.99, -0.054, 192.0, 0.0, 0.0, 0.0, 0.0, 0.0, 0.0, 0.0, 0.0, 0.0, 1.682097026429915E9, 0.0, 2023-04-21 12:10:26.429
247.0, -47808.637953834295, -30017.498733699173, 187500.0, 187500.0, 187500.0, 187500.0, 187500.0, 187500.0, 0.018000000000000002, 0.99, -0.054, 192.0, 0.0, 0.0, 0.0, 0.0, 0.0, 0.0, 0.0, 0.0, 0.0, 1.6820970264299302E9, 0.0, 2023-04-21 12:10:26.429
248.0, -47674.23691442453, -30033.010844351156, 187500.0, 187500.0, 187500.0, 187500.0, 187500.0, 187500.0, 0.018000000000000002, 0.99, -0.054, 192.0, 0.0, 0.0, 0.0, 0.0, 0.0, 0.0, 0.0, 0.0, 0.0, 1.682097026429943E9, 0.0, 2023-04-21 12:10:26.429
249.0, -47833.381334946316, -30175.570270487104, 187500.0, 187500.0, 187500.0, 187500.0, 187500.0, 187500.0, 0.018000000000000002, 0.99, -0.054, 192.0, 0.0, 0.0, 0.0, 0.0, 0.0, 0.0, 0.0, 0.0, 0.0, 1.6820970264299557E9, 0.0, 2023-04-21 12:10:26.429
250.0, -47993.68804617978, -30163.25445929223, 187500.0, 187500.0, 187500.0, 187500.0, 187500.0, 187500.0, 0.018000000000000002, 0.99, -0.054, 192.0, 0.0, 0.0, 0.0, 0.0, 0.0, 0.0, 0.0, 0.0, 0.0, 1.6820970264299688E9, 0.0, 2023-04-21 12:10:26.429
251.0, -47854.16845728975, -30042.13035608892, 187500.0, 187500.0, 187500.0, 187500.0, 187500.0, 187500.0, 0.018000000000000002, 0.99, -0.054, 192.0, 0.0, 0.0, 0.0, 0.0, 0.0, 0.0, 0.0, 0.0, 0.0, 1.6820970264299817E9, 0.0, 2023-04-21 12:10:26.429
252.0, -47679.44487088262, -30012.17901851881, 187500.0, 187500.0, 187500.0, 187500.0, 187500.0, 187500.0, 0.018000000000000002, 0.99, -0.054, 192.0, 0.0, 0.0, 0.0, 0.0, 0.0, 0.0, 0.0, 0.0, 0.0, 1.6820970264300096E9, 0.0, 2023-04-21 12:10:26.430
253.0, -47797.998523473565, -30161.77924415818, 187500.0, 187500.0, 187500.0, 187500.0, 187500.0, 187500.0, 0.018000000000000002, 0.99, -0.054, 192.0, 0.0, 0.0, 0.0, 0.0, 0.0, 0.0, 0.0, 0.0, 0.0, 1.6820970264300225E9, 0.0, 2023-04-21 12:10:26.430
254.0, -47979.2264675172, -30170.54112798466, 187500.0, 187500.0, 187500.0, 187500.0, 187500.0, 187500.0, 0.024, 0.992, -0.054, 192.0, 0.0, 192.0, 31.0, 0.0, 254.0, 80.0, 0.0, 0.0, 0.0, 1.682097026430035E9, 0.0, 2023-04-21 12:10:26.430
255.0, -47886.06439662748, -30059.22944059723, 187500.0, 187500.0, 187500.0, 187500.0, 187500.0, 187500.0, 0.024, 0.992, -0.054, 192.0, 0.0, 0.0, 0.0, 0.0, 0.0, 0.0, 0.0, 0.0, 0.0, 1.6820970264300485E9, 0.0, 2023-04-21 12:10:26.430
0.0, -47670.43711786713, -29981.378314659396, 187500.0, 187500.0, 187500.0, 187500.0, 187500.0, 187500.0, 0.024, 0.992, -0.054, 192.0, 0.0, 0.0, 0.0, 0.0, 0.0, 0.0, 0.0, 0.0, 0.0, 1.682097026430061E9, 0.0, 2023-04-21 12:10:26.430
1.0, -47746.70126994864, -30133.750156611226, 187500.0, 187500.0, 187500.0, 187500.0, 187500.0, 187500.0, 0.024, 0.992, -0.054, 192.0, 0.0, 0.0, 0.0, 0.0, 0.0, 0.0, 0.0, 0.0, 0.0, 1.6820970264300737E9, 0.0, 2023-04-21 12:10:26.430
2.0, -47945.9670717677, -30172.46337800782, 187500.0, 187500.0, 187500.0, 187500.0, 187500.0, 187500.0, 0.024, 0.992, -0.054, 192.0, 0.0, 0.0, 0.0, 0.0, 0.0, 0.0, 0.0, 0.0, 0.0, 1.6820970264300869E9, 0.0, 2023-04-21 12:10:26.430
3.0, -47901.15182413481, -30061.91164993187, 187500.0, 187500.0, 187500.0, 187500.0, 187500.0, 187500.0, 0.024, 0.992, -0.054, 192.0, 0.0, 0.0, 0.0, 0.0, 0.0, 0.0, 0.0, 0.0, 0.0, 1.6820970264300995E9, 0.0, 2023-04-21 12:10:26.430
4.0, -47670.99591147851, -29950.242334633152, 187500.0, 187500.0, 187500.0, 187500.0, 187500.0, 187500.0, 0.024, 0.992, -0.054, 192.0, 0.0, 0.0, 0.0, 0.0, 0.0, 0.0, 0.0, 0.0, 0.0, 1.6820970264301124E9, 0.0, 2023-04-21 12:10:26.430
5.0, -47684.608123851795, -30065.063245900066, 187500.0, 187500.0, 187500.0, 187500.0, 187500.0, 187500.0, 0.024, 0.992, -0.054, 192.0, 0.0, 0.0, 0.0, 0.0, 0.0, 0.0, 0.0, 0.0, 0.0, 1.6820970264301248E9, 0.0, 2023-04-21 12:10:26.430
6.0, -47890.87002168537, -30129.793897842635, 187500.0, 187500.0, 187500.0, 187500.0, 187500.0, 187500.0, 0.024, 0.992, -0.054, 192.0, 0.0, 0.0, 0.0, 0.0, 0.0, 0.0, 0.0, 0.0, 0.0, 1.6820970264301376E9, 0.0, 2023-04-21 12:10:26.430
7.0, -47920.9107662333, -30063.52097553265, 187500.0, 187500.0, 187500.0, 187500.0, 187500.0, 187500.0, 0.024, 0.992, -0.054, 192.0, 0.0, 0.0, 0.0, 0.0, 0.0, 0.0, 0.0, 0.0, 0.0, 1.6820970264301503E9, 0.0, 2023-04-21 12:10:26.430
8.0, -47692.27477219996, -29941.368692084397, 187500.0, 187500.0, 187500.0, 187500.0, 187500.0, 187500.0, 0.028, 0.992, -0.058, 192.0, 0.0, 224.0, 31.0, 0.0, 254.0, 48.0, 0.0, 0.0, 0.0, 1.682097026430163E9, 0.0, 2023-04-21 12:10:26.430
9.0, -47647.57128328935, -30027.601722192972, 187500.0, 187500.0, 187500.0, 187500.0, 187500.0, 187500.0, 0.028, 0.992, -0.058, 192.0, 0.0, 0.0, 0.0, 0.0, 0.0, 0.0, 0.0, 0.0, 0.0, 1.6820970264301748E9, 0.0, 2023-04-21 12:10:26.430
10.0, -47841.27150073904, -30120.562627382595, 187500.0, 187500.0, 187500.0, 187500.0, 187500.0, 187500.0, 0.028, 0.992, -0.058, 192.0, 0.0, 0.0, 0.0, 0.0, 0.0, 0.0, 0.0, 0.0, 0.0, 1.6820970264301853E9, 0.0, 2023-04-21 12:10:26.430
11.0, -47907.4550160712, -30053.66385622786, 187500.0, 187500.0, 187500.0, 187500.0, 187500.0, 187500.0, 0.028, 0.992, -0.058, 192.0, 0.0, 0.0, 0.0, 0.0, 0.0, 0.0, 0.0, 0.0, 0.0, 1.6820970264997313E9, 0.0, 2023-04-21 12:10:26.499
12.0, -47706.132853762254, -29928.516439022595, 187500.0, 187500.0, 187500.0, 187500.0, 187500.0, 187500.0, 0.028, 0.992, -0.058, 192.0, 0.0, 0.0, 0.0, 0.0, 0.0, 0.0, 0.0, 0.0, 0.0, 1.6820970264997673E9, 0.0, 2023-04-21 12:10:26.499
13.0, -47617.95522188607, -29979.970154758714, 187500.0, 187500.0, 187500.0, 187500.0, 187500.0, 187500.0, 0.028, 0.992, -0.058, 192.0, 0.0, 0.0, 0.0, 0.0, 0.0, 0.0, 0.0, 0.0, 0.0, 1.682097026499782E9, 0.0, 2023-04-21 12:10:26.499
14.0, -47793.37171237132, -30099.775505039157, 187500.0, 187500.0, 187500.0, 187500.0, 187500.0, 187500.0, 0.028, 0.992, -0.058, 192.0, 0.0, 0.0, 0.0, 0.0, 0.0, 0.0, 0.0, 0.0, 0.0, 1.6820970264997957E9, 0.0, 2023-04-21 12:10:26.499
15.0, -47909.26550737209, -30058.201260352285, 187500.0, 187500.0, 187500.0, 187500.0, 187500.0, 187500.0, 0.028, 0.992, -0.058, 192.0, 0.0, 0.0, 0.0, 0.0, 0.0, 0.0, 0.0, 0.0, 0.0, 1.6820970264998097E9, 0.0, 2023-04-21 12:10:26.499
16.0, -47733.11140931981, -29929.29875007853, 187500.0, 187500.0, 187500.0, 187500.0, 187500.0, 187500.0, 0.028, 0.992, -0.058, 192.0, 0.0, 0.0, 0.0, 0.0, 0.0, 0.0, 0.0, 0.0, 0.0, 1.6820970264998238E9, 0.0, 2023-04-21 12:10:26.499
17.0, -47601.86196587825, -29942.82155547399, 187500.0, 187500.0, 187500.0, 187500.0, 187500.0, 187500.0, 0.028, 0.992, -0.058, 192.0, 0.0, 0.0, 0.0, 0.0, 0.0, 0.0, 0.0, 0.0, 0.0, 1.6820970265500212E9, 0.0, 2023-04-21 12:10:26.550
18.0, -47753.98793864107, -30086.006830454688, 187500.0, 187500.0, 187500.0, 187500.0, 187500.0, 187500.0, 0.032, 0.996, -0.058, 192.0, 1.0, 0.0, 31.0, 32.0, 254.0, 48.0, 0.0, 0.0, 0.0, 1.6820970265500515E9, 0.0, 2023-04-21 12:10:26.550
19.0, -47908.19262363823, -30060.145862119898, 187500.0, 187500.0, 187500.0, 187500.0, 187500.0, 187500.0, 0.032, 0.996, -0.058, 192.0, 0.0, 0.0, 0.0, 0.0, 0.0, 0.0, 0.0, 0.0, 0.0, 1.682097026550069E9, 0.0, 2023-04-21 12:10:26.550
20.0, -47776.2279243741, -29942.553334540527, 187500.0, 187500.0, 187500.0, 187500.0, 187500.0, 187500.0, 0.032, 0.996, -0.058, 192.0, 0.0, 0.0, 0.0, 0.0, 0.0, 0.0, 0.0, 0.0, 0.0, 1.6820970265500853E9, 0.0, 2023-04-21 12:10:26.550
21.0, -47592.831861118306, -29905.605900955907, 187500.0, 187500.0, 187500.0, 187500.0, 187500.0, 187500.0, 0.032, 0.996, -0.058, 192.0, 0.0, 0.0, 0.0, 0.0, 0.0, 0.0, 0.0, 0.0, 0.0, 1.682097026550101E9, 0.0, 2023-04-21 12:10:26.550
22.0, -47704.70234211712, -30050.93694340431, 187500.0, 187500.0, 187500.0, 187500.0, 187500.0, 187500.0, 0.032, 0.996, -0.058, 192.0, 0.0, 0.0, 0.0, 0.0, 0.0, 0.0, 0.0, 0.0, 0.0, 1.6820970265501163E9, 0.0, 2023-04-21 12:10:26.550
23.0, -47887.91959141727, -30065.264411600165, 187500.0, 187500.0, 187500.0, 187500.0, 187500.0, 187500.0, 0.032, 0.996, -0.058, 192.0, 0.0, 0.0, 0.0, 0.0, 0.0, 0.0, 0.0, 0.0, 0.0, 1.6820970265501316E9, 0.0, 2023-04-21 12:10:26.550
24.0, -47807.90034626727, -29959.987695215666, 187500.0, 187500.0, 187500.0, 187500.0, 187500.0, 187500.0, 0.032, 0.996, -0.058, 192.0, 0.0, 0.0, 0.0, 0.0, 0.0, 0.0, 0.0, 0.0, 0.0, 1.6820970265501468E9, 0.0, 2023-04-21 12:10:26.550
25.0, -47589.546154683376, -29873.128816262346, 187500.0, 187500.0, 187500.0, 187500.0, 187500.0, 187500.0, 0.032, 0.996, -0.058, 192.0, 0.0, 0.0, 0.0, 0.0, 0.0, 0.0, 0.0, 0.0, 0.0, 1.682097026550162E9, 0.0, 2023-04-21 12:10:26.550
26.0, -47654.7461932595, -30016.17998077631, 187500.0, 187500.0, 187500.0, 187500.0, 187500.0, 187500.0, 0.032, 0.996, -0.058, 192.0, 0.0, 0.0, 0.0, 0.0, 0.0, 0.0, 0.0, 0.0, 0.0, 1.6820970265731409E9, 0.0, 2023-04-21 12:10:26.573
27.0, -47860.359890503874, -30064.795024966603, 187500.0, 187500.0, 187500.0, 187500.0, 187500.0, 187500.0, 0.032, 0.996, -0.058, 192.0, 0.0, 0.0, 0.0, 0.0, 0.0, 0.0, 0.0, 0.0, 0.0, 1.6820970265731745E9, 0.0, 2023-04-21 12:10:26.573
28.0, -47832.64372737929, -29971.744712799158, 187500.0, 187500.0, 187500.0, 187500.0, 187500.0, 187500.0, 0.032, 0.992, -0.058, 192.0, 1.0, 0.0, 31.0, 0.0, 254.0, 48.0, 0.0, 0.0, 0.0, 1.6820970265731883E9, 0.0, 2023-04-21 12:10:26.573
29.0, -47608.81335840385, -29868.68081911574, 187500.0, 187500.0, 187500.0, 187500.0, 187500.0, 187500.0, 0.032, 0.992, -0.058, 192.0, 0.0, 0.0, 0.0, 0.0, 0.0, 0.0, 0.0, 0.0, 0.0, 1.6820970265892248E9, 0.0, 2023-04-21 12:10:26.589
30.0, -47624.839559178305, -29986.85449205095, 187500.0, 187500.0, 187500.0, 187500.0, 187500.0, 187500.0, 0.032, 0.992, -0.058, 192.0, 0.0, 0.0, 0.0, 0.0, 0.0, 0.0, 0.0, 0.0, 0.0, 1.6820970266375203E9, 0.0, 2023-04-21 12:10:26.637
31.0, -47833.247224479586, -30063.69978948829, 187500.0, 187500.0, 187500.0, 187500.0, 187500.0, 187500.0, 0.032, 0.992, -0.058, 192.0, 0.0, 0.0, 0.0, 0.0, 0.0, 0.0, 0.0, 0.0, 0.0, 1.6820970266897657E9, 0.0, 2023-04-21 12:10:26.689
32.0, -47875.91670464477, -30009.31799522853, 187500.0, 187500.0, 187500.0, 187500.0, 187500.0, 187500.0, 0.032, 0.992, -0.058, 192.0, 0.0, 0.0, 0.0, 0.0, 0.0, 0.0, 0.0, 0.0, 0.0, 1.682097026689793E9, 0.0, 2023-04-21 12:10:26.689
33.0, -47651.84046648032, -29886.24929025761, 187500.0, 187500.0, 187500.0, 187500.0, 187500.0, 187500.0, 0.032, 0.992, -0.058, 192.0, 0.0, 0.0, 0.0, 0.0, 0.0, 0.0, 0.0, 0.0, 0.0, 1.68209702668981E9, 0.0, 2023-04-21 12:10:26.689
40.0, -47914.607574296904, -30050.221687581743, 187500.0, 187500.0, 187500.0, 187500.0, 187500.0, 187500.0, 0.032, 0.992, -0.058, 192.0, 0.0, 0.0, 0.0, 0.0, 0.0, 0.0, 0.0, 0.0, 0.0, 1.682097026689831E9, 0.0, 2023-04-21 12:10:26.689
35.0, -47803.47470086512, -30073.847481471003, 187500.0, 187500.0, 187500.0, 187500.0, 187500.0, 187500.0, 0.032, 0.992, -0.058, 192.0, 0.0, 0.0, 0.0, 0.0, 0.0, 0.0, 0.0, 0.0, 0.0, 1.6820970267360709E9, 0.0, 2023-04-21 12:10:26.736
36.0, -47894.759225220594, -30024.02544308012, 187500.0, 187500.0, 187500.0, 187500.0, 187500.0, 187500.0, 0.032, 0.992, -0.058, 192.0, 0.0, 0.0, 0.0, 0.0, 0.0, 0.0, 0.0, 0.0, 0.0, 1.682097026736101E9, 0.0, 2023-04-21 12:10:26.736
37.0, -47698.71207460309, -29905.896473633824, 187500.0, 187500.0, 187500.0, 187500.0, 187500.0, 187500.0, 0.032, 0.992, -0.058, 192.0, 0.0, 0.0, 0.0, 0.0, 0.0, 0.0, 0.0, 0.0, 0.0, 1.682097026780318E9, 0.0, 2023-04-21 12:10:26.780
41.0, -47753.31738630741, -29933.053843147023, 187500.0, 187500.0, 187500.0, 187500.0, 187500.0, 187500.0, 0.032, 0.992, -0.058, 192.0, 0.0, 0.0, 0.0, 0.0, 0.0, 0.0, 0.0, 0.0, 0.0, 1.6820970267803524E9, 0.0, 2023-04-21 12:10:26.780
50.0, -47584.09232903628, -29871.09480751691, 187500.0, 187500.0, 187500.0, 187500.0, 187500.0, 187500.0, 0.032, 0.992, -0.058, 192.0, 0.0, 0.0, 0.0, 0.0, 0.0, 0.0, 0.0, 0.0, 0.0, 1.682097026780366E9, 0.0, 2023-04-21 12:10:26.780
48.0, -47883.985684393134, -30067.588993023517, 187500.0, 187500.0, 187500.0, 187500.0, 187500.0, 187500.0, 0.032, 0.992, -0.058, 192.0, 0.0, 0.0, 0.0, 0.0, 0.0, 0.0, 0.0, 0.0, 0.0, 1.6820970268185017E9, 0.0, 2023-04-21 12:10:26.818
44.0, -47905.08573115894, -30064.32563833304, 187500.0, 187500.0, 187500.0, 187500.0, 187500.0, 187500.0, 0.032, 0.992, -0.058, 192.0, 0.0, 0.0, 0.0, 0.0, 0.0, 0.0, 0.0, 0.0, 0.0, 1.6820970268185885E9, 0.0, 2023-04-21 12:10:26.818
45.0, -47779.1783546422, -29944.20736363022, 187500.0, 187500.0, 187500.0, 187500.0, 187500.0, 187500.0, 0.032, 0.992, -0.058, 192.0, 0.0, 0.0, 0.0, 0.0, 0.0, 0.0, 0.0, 0.0, 0.0, 1.682097026818602E9, 0.0, 2023-04-21 12:10:26.818
46.0, -47587.66860814913, -29897.53692120754, 187500.0, 187500.0, 187500.0, 187500.0, 187500.0, 187500.0, 0.032, 0.992, -0.058, 192.0, 0.0, 0.0, 0.0, 0.0, 0.0, 0.0, 0.0, 0.0, 0.0, 1.6820970268738291E9, 0.0, 2023-04-21 12:10:26.873
51.0, -47646.587806533316, -30017.252864510163, 187500.0, 187500.0, 187500.0, 187500.0, 187500.0, 187500.0, 0.032, 0.992, -0.058, 192.0, 0.0, 0.0, 0.0, 0.0, 0.0, 0.0, 0.0, 0.0, 0.0, 1.6820970268738658E9, 0.0, 2023-04-21 12:10:26.873
82.0, -47794.60105831636, -30007.59691090547, 187500.0, 187500.0, 187500.0, 187500.0, 187500.0, 187500.0, 0.032, 0.992, -0.058, 192.0, 0.0, 0.0, 0.0, 0.0, 0.0, 0.0, 0.0, 0.0, 0.0, 1.6820970268738768E9, 0.0, 2023-04-21 12:10:26.873
53.0, -47838.92456757124, -29976.17035820131, 187500.0, 187500.0, 187500.0, 187500.0, 187500.0, 187500.0, 0.032, 0.992, -0.058, 192.0, 0.0, 0.0, 0.0, 0.0, 0.0, 0.0, 0.0, 0.0, 0.0, 1.6820970268738878E9, 0.0, 2023-04-21 12:10:26.873
80.0, -47536.41605811311, -29982.674715837806, 187500.0, 187500.0, 187500.0, 187500.0, 187500.0, 187500.0, 0.026000000000000002, 0.994, -0.06, 192.0, 0.0, 208.0, 31.0, 16.0, 254.0, 32.0, 0.0, 0.0, 0.0, 1.6820970268738985E9, 0.0, 2023-04-21 12:10:26.873
55.0, -47627.365306301755, -29991.36954443092, 187500.0, 187500.0, 187500.0, 187500.0, 187500.0, 187500.0, 0.026000000000000002, 0.994, -0.06, 192.0, 0.0, 0.0, 0.0, 0.0, 0.0, 0.0, 0.0, 0.0, 0.0, 1.6820970268739097E9, 0.0, 2023-04-21 12:10:26.873
61.0, -47882.242248325616, -30015.330614487008, 187500.0, 187500.0, 187500.0, 187500.0, 187500.0, 187500.0, 0.026000000000000002, 0.994, -0.06, 192.0, 0.0, 0.0, 0.0, 0.0, 0.0, 0.0, 0.0, 0.0, 0.0, 1.6820970268739195E9, 0.0, 2023-04-21 12:10:26.873
90.0, -47779.84890697586, -30027.33350125951, 187500.0, 187500.0, 187500.0, 187500.0, 187500.0, 187500.0, 0.026000000000000002, 0.992, -0.06, 192.0, 0.0, 208.0, 31.0, 0.0, 254.0, 32.0, 0.0, 0.0, 0.0, 1.6820970268739295E9, 0.0, 2023-04-21 12:10:26.873
58.0, -47646.34193734431, -29867.697342359705, 187500.0, 187500.0, 187500.0, 187500.0, 187500.0, 187500.0, 0.026000000000000002, 0.992, -0.06, 192.0, 0.0, 0.0, 0.0, 0.0, 0.0, 0.0, 0.0, 0.0, 0.0, 1.682097026903941E9, 0.0, 2023-04-21 12:10:26.903
76.0, -47555.81737230031, -30001.137256757887, 187500.0, 187500.0, 187500.0, 187500.0, 187500.0, 187500.0, 0.026000000000000002, 0.992, -0.06, 192.0, 0.0, 0.0, 0.0, 0.0, 0.0, 0.0, 0.0, 0.0, 0.0, 1.6820970269039643E9, 0.0, 2023-04-21 12:10:26.903
114.0, -47573.92228530911, -30031.24505653919, 187500.0, 187500.0, 187500.0, 187500.0, 187500.0, 187500.0, 0.026000000000000002, 0.992, -0.06, 192.0, 0.0, 0.0, 0.0, 0.0, 0.0, 0.0, 0.0, 0.0, 0.0, 1.6820970269361856E9, 0.0, 2023-04-21 12:10:26.936
104.0, -47491.75727269141, -29855.605048609385, 187500.0, 187500.0, 187500.0, 187500.0, 187500.0, 187500.0, 0.026000000000000002, 0.992, -0.06, 192.0, 0.0, 0.0, 0.0, 0.0, 0.0, 0.0, 0.0, 0.0, 0.0, 1.682097026952202E9, 0.0, 2023-04-21 12:10:26.952
112.0, -47543.03217447188, -29864.322228946952, 187500.0, 187500.0, 187500.0, 187500.0, 187500.0, 187500.0, 0.026000000000000002, 0.992, -0.06, 192.0, 0.0, 0.0, 0.0, 0.0, 0.0, 0.0, 0.0, 0.0, 0.0, 1.682097027045746E9, 0.0, 2023-04-21 12:10:27.045
102.0, -47704.478824672566, -30046.064263113054, 187500.0, 187500.0, 187500.0, 187500.0, 187500.0, 187500.0, 0.026000000000000002, 0.992, -0.06, 192.0, 0.0, 0.0, 0.0, 0.0, 0.0, 0.0, 0.0, 0.0, 0.0, 1.6820970270457702E9, 0.0, 2023-04-21 12:10:27.045
83.0, -47577.856192333245, -29884.639964656828, 187500.0, 187500.0, 187500.0, 187500.0, 187500.0, 187500.0, 0.026000000000000002, 0.992, -0.06, 192.0, 0.0, 0.0, 0.0, 0.0, 0.0, 0.0, 0.0, 0.0, 0.0, 1.6820970270458353E9, 0.0, 2023-04-21 12:10:27.045
110.0, -47622.15734984366, -30039.783422921115, 187500.0, 187500.0, 187500.0, 187500.0, 187500.0, 187500.0, 0.026000000000000002, 0.986, -0.052000000000000005, 192.0, 0.0, 208.0, 30.0, 208.0, 254.0, 96.0, 0.0, 0.0, 0.0, 1.6820970270458467E9, 0.0, 2023-04-21 12:10:27.045
100.0, -47467.259760768386, -29855.359179420375, 187500.0, 187500.0, 187500.0, 187500.0, 187500.0, 187500.0, 0.022, 0.988, -0.056, 192.0, 0.0, 176.0, 30.0, 224.0, 254.0, 64.0, 0.0, 0.0, 0.0, 1.682097027045859E9, 0.0, 2023-04-21 12:10:27.045
133.0, -47492.852508169715, -29859.471900400153, 187500.0, 187500.0, 187500.0, 187500.0, 187500.0, 187500.0, 0.022, 0.988, -0.056, 192.0, 0.0, 0.0, 0.0, 0.0, 0.0, 0.0, 0.0, 0.0, 0.0, 1.6820970270458722E9, 0.0, 2023-04-21 12:10:27.045
108.0, -47528.77176150939, -29872.681781373238, 187500.0, 187500.0, 187500.0, 187500.0, 187500.0, 187500.0, 0.022, 0.988, -0.056, 192.0, 0.0, 0.0, 0.0, 0.0, 0.0, 0.0, 0.0, 0.0, 0.0, 1.6820970270458834E9, 0.0, 2023-04-21 12:10:27.045
131.0, -47623.029067877425, -30036.207143808264, 187500.0, 187500.0, 187500.0, 187500.0, 187500.0, 187500.0, 0.034, 0.986, -0.044, 192.0, 1.0, 16.0, 30.0, 208.0, 254.0, 160.0, 0.0, 0.0, 0.0, 1.6820970270458949E9, 0.0, 2023-04-21 12:10:27.045
105.0, -47473.02651083786, -29962.669904550305, 187500.0, 187500.0, 187500.0, 187500.0, 187500.0, 187500.0, 0.034, 0.986, -0.044, 192.0, 0.0, 0.0, 0.0, 0.0, 0.0, 0.0, 0.0, 0.0, 0.0, 1.6820970270459073E9, 0.0, 2023-04-21 12:10:27.045
120.0, -47618.268146308445, -29915.150095838322, 187500.0, 187500.0, 187500.0, 187500.0, 187500.0, 187500.0, 0.038, 0.988, -0.048, 192.0, 1.0, 48.0, 30.0, 224.0, 254.0, 128.0, 0.0, 0.0, 0.0, 1.6820970270459185E9, 0.0, 2023-04-21 12:10:27.045
129.0, -47460.37542347615, -29845.725577560137, 187500.0, 187500.0, 187500.0, 187500.0, 187500.0, 187500.0, 0.038, 0.988, -0.048, 192.0, 0.0, 0.0, 0.0, 0.0, 0.0, 0.0, 0.0, 0.0, 0.0, 1.6820970270459301E9, 0.0, 2023-04-21 12:10:27.045
116.0, -47574.48107892049, -29894.78765663954, 187500.0, 187500.0, 187500.0, 187500.0, 187500.0, 187500.0, 0.038, 0.988, -0.048, 192.0, 0.0, 0.0, 0.0, 0.0, 0.0, 0.0, 0.0, 0.0, 0.0, 1.6820970270459416E9, 0.0, 2023-04-21 12:10:27.045
123.0, -47696.275734457464, -30038.777594420626, 187500.0, 187500.0, 187500.0, 187500.0, 187500.0, 187500.0, 0.038, 0.988, -0.048, 192.0, 0.0, 0.0, 0.0, 0.0, 0.0, 0.0, 0.0, 0.0, 0.0, 1.6820970270459528E9, 0.0, 2023-04-21 12:10:27.045
127.0, -47670.16889693367, -30046.980684635724, 187500.0, 187500.0, 187500.0, 187500.0, 187500.0, 187500.0, 0.038, 0.988, -0.048, 192.0, 0.0, 0.0, 0.0, 0.0, 0.0, 0.0, 0.0, 0.0, 0.0, 1.682097027045964E9, 0.0, 2023-04-21 12:10:27.045
125.0, -47435.654394108584, -29849.86065028437, 187500.0, 187500.0, 187500.0, 187500.0, 187500.0, 187500.0, 0.038, 0.988, -0.048, 192.0, 0.0, 0.0, 0.0, 0.0, 0.0, 0.0, 0.0, 0.0, 0.0, 1.6820970270459747E9, 0.0, 2023-04-21 12:10:27.045
145.0, -47612.8366724058, -29933.54558152504, 187500.0, 187500.0, 187500.0, 187500.0, 187500.0, 187500.0, 0.038, 0.988, -0.048, 192.0, 0.0, 0.0, 0.0, 0.0, 0.0, 0.0, 0.0, 0.0, 0.0, 1.682097027045986E9, 0.0, 2023-04-21 12:10:27.045
135.0, -47581.208954001544, -30031.379167005918, 187500.0, 187500.0, 187500.0, 187500.0, 187500.0, 187500.0, 0.038, 0.988, -0.048, 192.0, 0.0, 0.0, 0.0, 0.0, 0.0, 0.0, 0.0, 0.0, 0.0, 1.6820970270459971E9, 0.0, 2023-04-21 12:10:27.045
136.0, -47695.89575480173, -29988.70968684074, 187500.0, 187500.0, 187500.0, 187500.0, 187500.0, 187500.0, 0.038, 0.988, -0.048, 192.0, 0.0, 0.0, 0.0, 0.0, 0.0, 0.0, 0.0, 0.0, 0.0, 1.682097027046024E9, 0.0, 2023-04-21 12:10:27.046
143.0, -47492.226659324966, -30000.42200093532, 187500.0, 187500.0, 187500.0, 187500.0, 187500.0, 187500.0, 0.038, 0.988, -0.048, 192.0, 0.0, 0.0, 0.0, 0.0, 0.0, 0.0, 0.0, 0.0, 0.0, 1.6820970270460353E9, 0.0, 2023-04-21 12:10:27.046
158.0, -47463.951702589, -29858.935458533226, 187500.0, 187500.0, 187500.0, 187500.0, 187500.0, 187500.0, 0.038, 0.988, -0.048, 192.0, 0.0, 0.0, 0.0, 0.0, 0.0, 0.0, 0.0, 0.0, 0.0, 1.6820970270460463E9, 0.0, 2023-04-21 12:10:27.046
151.0, -47426.13255097062, -29972.817596533016, 187500.0, 187500.0, 187500.0, 187500.0, 187500.0, 187500.0, 0.02, 0.992, -0.054, 192.0, 0.0, 160.0, 31.0, 0.0, 254.0, 80.0, 0.0, 0.0, 0.0, 1.6820970270460572E9, 0.0, 2023-04-21 12:10:27.046
156.0, -47574.726948109506, -30029.94865536078, 187500.0, 187500.0, 187500.0, 187500.0, 187500.0, 187500.0, 0.02, 0.992, -0.054, 192.0, 0.0, 0.0, 0.0, 0.0, 0.0, 0.0, 0.0, 0.0, 0.0, 1.6820970270460763E9, 0.0, 2023-04-21 12:10:27.046
141.0, -47560.62299735821, -29891.792522882526, 187500.0, 187500.0, 187500.0, 187500.0, 187500.0, 187500.0, 0.032, 0.988, -0.046, 192.0, 1.0, 0.0, 30.0, 224.0, 254.0, 144.0, 0.0, 0.0, 0.0, 1.6820970272248335E9, 0.0, 2023-04-21 12:10:27.224
146.0, -47391.17442264252, -29853.749853819594, 187500.0, 187500.0, 187500.0, 187500.0, 187500.0, 187500.0, 0.032, 0.988, -0.046, 192.0, 0.0, 0.0, 0.0, 0.0, 0.0, 0.0, 0.0, 0.0, 0.0, 1.682097027224877E9, 0.0, 2023-04-21 12:10:27.224
164.0, -47505.72711297597, -30029.94865536078, 187500.0, 187500.0, 187500.0, 187500.0, 187500.0, 187500.0, 0.032, 0.988, -0.046, 192.0, 0.0, 0.0, 0.0, 0.0, 0.0, 0.0, 0.0, 0.0, 0.0, 1.6820970272248905E9, 0.0, 2023-04-21 12:10:27.224
152.0, -47618.60342247527, -30032.94378911779, 187500.0, 187500.0, 187500.0, 187500.0, 187500.0, 187500.0, 0.032, 0.988, -0.046, 192.0, 0.0, 0.0, 0.0, 0.0, 0.0, 0.0, 0.0, 0.0, 0.0, 1.682097027224903E9, 0.0, 2023-04-21 12:10:27.224
162.0, -47501.368522807184, -29882.047162300012, 187500.0, 187500.0, 187500.0, 187500.0, 187500.0, 187500.0, 0.032, 0.988, -0.046, 192.0, 0.0, 0.0, 0.0, 0.0, 0.0, 0.0, 0.0, 0.0, 0.0, 1.6820970272249153E9, 0.0, 2023-04-21 12:10:27.224
160.0, -47535.65609880163, -30029.12164081593, 187500.0, 187500.0, 187500.0, 187500.0, 187500.0, 187500.0, 0.032, 0.988, -0.046, 192.0, 0.0, 0.0, 0.0, 0.0, 0.0, 0.0, 0.0, 0.0, 0.0, 1.682097027224928E9, 0.0, 2023-04-21 12:10:27.224
165.0, -47667.37492887675, -30015.62118716493, 187500.0, 187500.0, 187500.0, 187500.0, 187500.0, 187500.0, 0.032, 0.988, -0.046, 192.0, 0.0, 0.0, 0.0, 0.0, 0.0, 0.0, 0.0, 0.0, 0.0, 1.6820970272249403E9, 0.0, 2023-04-21 12:10:27.224
166.0, -47545.423811128596, -29901.87315963187, 187500.0, 187500.0, 187500.0, 187500.0, 187500.0, 187500.0, 0.032, 0.988, -0.046, 192.0, 0.0, 0.0, 0.0, 0.0, 0.0, 0.0, 0.0, 0.0, 0.0, 1.682097027224952E9, 0.0, 2023-04-21 12:10:27.224
167.0, -47361.60306472815, -29867.227955726143, 187500.0, 187500.0, 187500.0, 187500.0, 187500.0, 187500.0, 0.032, 0.988, -0.046, 192.0, 0.0, 0.0, 0.0, 0.0, 0.0, 0.0, 0.0, 0.0, 0.0, 1.6820970272249634E9, 0.0, 2023-04-21 12:10:27.224
169.0, -47646.61015827777, -30028.38403324891, 187500.0, 187500.0, 187500.0, 187500.0, 187500.0, 187500.0, 0.032, 0.988, -0.046, 192.0, 0.0, 0.0, 0.0, 0.0, 0.0, 0.0, 0.0, 0.0, 0.0, 1.6820970272249749E9, 0.0, 2023-04-21 12:10:27.224
170.0, -47574.503430664954, -29931.377462312874, 187500.0, 187500.0, 187500.0, 187500.0, 187500.0, 187500.0, 0.032, 0.988, -0.046, 192.0, 0.0, 0.0, 0.0, 0.0, 0.0, 0.0, 0.0, 0.0, 0.0, 1.682097027225036E9, 0.0, 2023-04-21 12:10:27.225
171.0, -47359.256131560345, -29853.347522419397, 187500.0, 187500.0, 187500.0, 187500.0, 187500.0, 187500.0, 0.032, 0.988, -0.046, 192.0, 0.0, 0.0, 0.0, 0.0, 0.0, 0.0, 0.0, 0.0, 0.0, 1.6820970272250476E9, 0.0, 2023-04-21 12:10:27.225
172.0, -47414.50964385386, -29990.095494996967, 187500.0, 187500.0, 187500.0, 187500.0, 187500.0, 187500.0, 0.02, 0.982, -0.048, 192.0, 0.0, 160.0, 30.0, 176.0, 254.0, 128.0, 0.0, 0.0, 0.0, 1.682097027225059E9, 0.0, 2023-04-21 12:10:27.225
173.0, -47612.03200960541, -30030.59685594998, 187500.0, 187500.0, 187500.0, 187500.0, 187500.0, 187500.0, 0.02, 0.982, -0.048, 192.0, 0.0, 0.0, 0.0, 0.0, 0.0, 0.0, 0.0, 0.0, 0.0, 1.6820970272250712E9, 0.0, 2023-04-21 12:10:27.225
174.0, -47595.15644254166, -29943.089776407454, 187500.0, 187500.0, 187500.0, 187500.0, 187500.0, 187500.0, 0.02, 0.982, -0.048, 192.0, 0.0, 0.0, 0.0, 0.0, 0.0, 0.0, 0.0, 0.0, 0.0, 1.6820970272250824E9, 0.0, 2023-04-21 12:10:27.225
175.0, -47362.0277478728, -29833.454469854176, 187500.0, 187500.0, 187500.0, 187500.0, 187500.0, 187500.0, 0.02, 0.982, -0.048, 192.0, 0.0, 0.0, 0.0, 0.0, 0.0, 0.0, 0.0, 0.0, 0.0, 1.6820970272250936E9, 0.0, 2023-04-21 12:10:27.225
176.0, -47375.84112594618, -29959.652419048838, 187500.0, 187500.0, 187500.0, 187500.0, 187500.0, 187500.0, 0.02, 0.982, -0.048, 192.0, 0.0, 0.0, 0.0, 0.0, 0.0, 0.0, 0.0, 0.0, 0.0, 1.6820970272251048E9, 0.0, 2023-04-21 12:10:27.225
177.0, -47572.71529110853, -30026.864114625947, 187500.0, 187500.0, 187500.0, 187500.0, 187500.0, 187500.0, 0.02, 0.982, -0.048, 192.0, 0.0, 0.0, 0.0, 0.0, 0.0, 0.0, 0.0, 0.0, 0.0, 1.6820970272251163E9, 0.0, 2023-04-21 12:10:27.225
178.0, -47604.41006474615, -29948.856526476924, 187500.0, 187500.0, 187500.0, 187500.0, 187500.0, 187500.0, 0.02, 0.982, -0.048, 192.0, 0.0, 0.0, 0.0, 0.0, 0.0, 0.0, 0.0, 0.0, 0.0, 1.6820970272251275E9, 0.0, 2023-04-21 12:10:27.225
179.0, -47390.30270460877, -29829.542914574497, 187500.0, 187500.0, 187500.0, 187500.0, 187500.0, 187500.0, 0.02, 0.982, -0.048, 192.0, 0.0, 0.0, 0.0, 0.0, 0.0, 0.0, 0.0, 0.0, 0.0, 1.6820970272251384E9, 0.0, 2023-04-21 12:10:27.225
180.0, -47357.75856468184, -29922.794392442036, 187500.0, 187500.0, 187500.0, 187500.0, 187500.0, 187500.0, 0.02, 0.982, -0.048, 192.0, 0.0, 0.0, 0.0, 0.0, 0.0, 0.0, 0.0, 0.0, 0.0, 1.6820970272251496E9, 0.0, 2023-04-21 12:10:27.225
181.0, -47554.31980542181, -30031.64738793938, 187500.0, 187500.0, 187500.0, 187500.0, 187500.0, 187500.0, 0.02, 0.982, -0.048, 192.0, 0.0, 0.0, 0.0, 0.0, 0.0, 0.0, 0.0, 0.0, 0.0, 1.682097027225168E9, 0.0, 2023-04-21 12:10:27.225
182.0, -47631.58978600381, -29969.241317420165, 187500.0, 187500.0, 187500.0, 187500.0, 187500.0, 187500.0, 0.028, 0.984, -0.046, 192.0, 0.0, 224.0, 30.0, 192.0, 254.0, 144.0, 0.0, 0.0, 0.0, 1.6820970272251792E9, 0.0, 2023-04-21 12:10:27.225
183.0, -47448.43959193702, -29838.170687934246, 187500.0, 187500.0, 187500.0, 187500.0, 187500.0, 187500.0, 0.028, 0.984, -0.046, 192.0, 0.0, 0.0, 0.0, 0.0, 0.0, 0.0, 0.0, 0.0, 0.0, 1.682097027225191E9, 0.0, 2023-04-21 12:10:27.225
184.0, -47346.85091338765, -29827.732423273617, 187500.0, 187500.0, 187500.0, 187500.0, 187500.0, 187500.0, 0.028, 0.984, -0.046, 192.0, 0.0, 0.0, 0.0, 0.0, 0.0, 0.0, 0.0, 0.0, 0.0, 1.6820970272252026E9, 0.0, 2023-04-21 12:10:27.225
185.0, -47515.137197391654, -29946.35313109793, 187500.0, 187500.0, 187500.0, 187500.0, 187500.0, 187500.0, 0.028, 0.984, -0.046, 192.0, 0.0, 0.0, 0.0, 0.0, 0.0, 0.0, 0.0, 0.0, 0.0, 1.6820970272252355E9, 0.0, 2023-04-21 12:10:27.225
186.0, -47645.00083267699, -29915.641834216338, 187500.0, 187500.0, 187500.0, 187500.0, 187500.0, 187500.0, 0.028, 0.984, -0.046, 192.0, 0.0, 0.0, 0.0, 0.0, 0.0, 0.0, 0.0, 0.0, 0.0, 1.682097027225247E9, 0.0, 2023-04-21 12:10:27.225
187.0, -47487.68925520054, -29794.22715833511, 187500.0, 187500.0, 187500.0, 187500.0, 187500.0, 187500.0, 0.028, 0.984, -0.046, 192.0, 0.0, 0.0, 0.0, 0.0, 0.0, 0.0, 0.0, 0.0, 0.0, 1.682097027225258E9, 0.0, 2023-04-21 12:10:27.225
188.0, -47339.184265039476, -29794.65184147976, 187500.0, 187500.0, 187500.0, 187500.0, 187500.0, 187500.0, 0.028, 0.984, -0.046, 192.0, 0.0, 0.0, 0.0, 0.0, 0.0, 0.0, 0.0, 0.0, 0.0, 1.6820970272252696E9, 0.0, 2023-04-21 12:10:27.225
189.0, -47469.78550789184, -29930.63985474585, 187500.0, 187500.0, 187500.0, 187500.0, 187500.0, 187500.0, 0.028, 0.984, -0.046, 192.0, 0.0, 0.0, 0.0, 0.0, 0.0, 0.0, 0.0, 0.0, 0.0, 1.6820970272252808E9, 0.0, 2023-04-21 12:10:27.225
190.0, -47635.90367268368, -29918.81578192899, 187500.0, 187500.0, 187500.0, 187500.0, 187500.0, 187500.0, 0.028, 0.984, -0.046, 192.0, 0.0, 0.0, 0.0, 0.0, 0.0, 0.0, 0.0, 0.0, 0.0, 1.682097027225292E9, 0.0, 2023-04-21 12:10:27.225
191.0, -47512.23147061247, -29800.597405504872, 187500.0, 187500.0, 187500.0, 187500.0, 187500.0, 187500.0, 0.028, 0.984, -0.046, 192.0, 0.0, 0.0, 0.0, 0.0, 0.0, 0.0, 0.0, 0.0, 0.0, 1.6820970272253034E9, 0.0, 2023-04-21 12:10:27.225
192.0, -47317.05603802873, -29745.45565193363, 187500.0, 187500.0, 187500.0, 187500.0, 187500.0, 187500.0, 0.032, 0.994, -0.04, 192.0, 1.0, 0.0, 31.0, 16.0, 254.0, 192.0, 0.0, 0.0, 0.0, 1.6820970272253146E9, 0.0, 2023-04-21 12:10:27.225
193.0, -47415.35901014316, -29893.334793249942, 187500.0, 187500.0, 187500.0, 187500.0, 187500.0, 187500.0, 0.032, 0.994, -0.04, 192.0, 0.0, 0.0, 0.0, 0.0, 0.0, 0.0, 0.0, 0.0, 0.0, 1.6820970272253265E9, 0.0, 2023-04-21 12:10:27.225
194.0, -47602.264297278445, -29913.741935937636, 187500.0, 187500.0, 187500.0, 187500.0, 187500.0, 187500.0, 0.032, 0.994, -0.04, 192.0, 0.0, 0.0, 0.0, 0.0, 0.0, 0.0, 0.0, 0.0, 0.0, 1.6820970272253377E9, 0.0, 2023-04-21 12:10:27.225
195.0, -47543.92624425009, -29817.80824873546, 187500.0, 187500.0, 187500.0, 187500.0, 187500.0, 187500.0, 0.032, 0.994, -0.04, 192.0, 0.0, 0.0, 0.0, 0.0, 0.0, 0.0, 0.0, 0.0, 0.0, 1.6820970272253487E9, 0.0, 2023-04-21 12:10:27.225
196.0, -47326.91315733352, -29732.11166049381, 187500.0, 187500.0, 187500.0, 187500.0, 187500.0, 187500.0, 0.032, 0.994, -0.04, 192.0, 0.0, 0.0, 0.0, 0.0, 0.0, 0.0, 0.0, 0.0, 0.0, 1.68209702722536E9, 0.0, 2023-04-21 12:10:27.225
197.0, -47375.43879454599, -29867.160900492778, 187500.0, 187500.0, 187500.0, 187500.0, 187500.0, 187500.0, 0.032, 0.994, -0.04, 192.0, 0.0, 0.0, 0.0, 0.0, 0.0, 0.0, 0.0, 0.0, 0.0, 1.6820970272253711E9, 0.0, 2023-04-21 12:10:27.225
198.0, -47575.88923882118, -29913.697232448725, 187500.0, 187500.0, 187500.0, 187500.0, 187500.0, 187500.0, 0.032, 0.994, -0.04, 192.0, 0.0, 0.0, 0.0, 0.0, 0.0, 0.0, 0.0, 0.0, 0.0, 1.682097027225382E9, 0.0, 2023-04-21 12:10:27.225
199.0, -47566.389747427675, -29822.256245882065, 187500.0, 187500.0, 187500.0, 187500.0, 187500.0, 187500.0, 0.032, 0.994, -0.04, 192.0, 0.0, 0.0, 0.0, 0.0, 0.0, 0.0, 0.0, 0.0, 0.0, 1.6820970272253933E9, 0.0, 2023-04-21 12:10:27.225
200.0, -47351.36596576762, -29724.35560516782, 187500.0, 187500.0, 187500.0, 187500.0, 187500.0, 187500.0, 0.032, 0.994, -0.04, 192.0, 0.0, 0.0, 0.0, 0.0, 0.0, 0.0, 0.0, 0.0, 0.0, 1.6820970272254186E9, 0.0, 2023-04-21 12:10:27.225
201.0, -47358.98791062688, -29850.687664829216, 187500.0, 187500.0, 187500.0, 187500.0, 187500.0, 187500.0, 0.032, 0.994, -0.04, 192.0, 0.0, 0.0, 0.0, 0.0, 0.0, 0.0, 0.0, 0.0, 0.0, 1.68209702722543E9, 0.0, 2023-04-21 12:10:27.225
202.0, -47546.78726754037, -29921.475639519173, 187500.0, 187500.0, 187500.0, 187500.0, 187500.0, 187500.0, 0.022, 0.988, -0.05, 192.0, 0.0, 176.0, 30.0, 224.0, 254.0, 112.0, 0.0, 0.0, 0.0, 1.682097027225445E9, 0.0, 2023-04-21 12:10:27.225
203.0, -47591.37899772871, -29844.33976940391, 187500.0, 187500.0, 187500.0, 187500.0, 187500.0, 187500.0, 0.022, 0.988, -0.05, 192.0, 0.0, 0.0, 0.0, 0.0, 0.0, 0.0, 0.0, 0.0, 0.0, 1.682097027225458E9, 0.0, 2023-04-21 12:10:27.225
204.0, -47377.919838180525, -29723.036852244957, 187500.0, 187500.0, 187500.0, 187500.0, 187500.0, 187500.0, 0.022, 0.988, -0.05, 192.0, 0.0, 0.0, 0.0, 0.0, 0.0, 0.0, 0.0, 0.0, 0.0, 1.6820970273383884E9, 0.0, 2023-04-21 12:10:27.338
205.0, -47324.49916893234, -29806.431210807707, 187500.0, 187500.0, 187500.0, 187500.0, 187500.0, 187500.0, 0.022, 0.988, -0.05, 192.0, 0.0, 0.0, 0.0, 0.0, 0.0, 0.0, 0.0, 0.0, 0.0, 1.6820970273384187E9, 0.0, 2023-04-21 12:10:27.338
207.0, -47614.33423928431, -29866.311534203476, 187500.0, 187500.0, 187500.0, 187500.0, 187500.0, 187500.0, 0.022, 0.988, -0.05, 192.0, 0.0, 0.0, 0.0, 0.0, 0.0, 0.0, 0.0, 0.0, 0.0, 1.68209702733843E9, 0.0, 2023-04-21 12:10:27.338
208.0, -47427.63011784913, -29745.276837977988, 187500.0, 187500.0, 187500.0, 187500.0, 187500.0, 187500.0, 0.022, 0.988, -0.05, 192.0, 0.0, 0.0, 0.0, 0.0, 0.0, 0.0, 0.0, 0.0, 0.0, 1.6820970273384397E9, 0.0, 2023-04-21 12:10:27.338
209.0, -47317.12309326209, -29782.26897505152, 187500.0, 187500.0, 187500.0, 187500.0, 187500.0, 187500.0, 0.022, 0.988, -0.05, 192.0, 0.0, 0.0, 0.0, 0.0, 0.0, 0.0, 0.0, 0.0, 0.0, 1.6820970273384495E9, 0.0, 2023-04-21 12:10:27.338
210.0, -47488.44921451202, -29921.967377897192, 187500.0, 187500.0, 187500.0, 187500.0, 187500.0, 187500.0, 0.022, 0.988, -0.05, 192.0, 0.0, 0.0, 0.0, 0.0, 0.0, 0.0, 0.0, 0.0, 0.0, 1.6820970273384588E9, 0.0, 2023-04-21 12:10:27.338
211.0, -47625.890091167705, -29893.938290350234, 187500.0, 187500.0, 187500.0, 187500.0, 187500.0, 187500.0, 0.022, 0.988, -0.05, 192.0, 0.0, 0.0, 0.0, 0.0, 0.0, 0.0, 0.0, 0.0, 0.0, 1.6820970273384683E9, 0.0, 2023-04-21 12:10:27.338
212.0, -47479.93319987455, -29774.51291972553, 187500.0, 187500.0, 187500.0, 187500.0, 187500.0, 187500.0, 0.022, 0.988, -0.05, 192.0, 0.0, 0.0, 0.0, 0.0, 0.0, 0.0, 0.0, 0.0, 0.0, 1.6820970273384778E9, 0.0, 2023-04-21 12:10:27.338
213.0, -47313.323296704686, -29751.06593979191, 187500.0, 187500.0, 187500.0, 187500.0, 187500.0, 187500.0, 0.018000000000000002, 0.996, -0.042, 192.0, 0.0, 144.0, 31.0, 32.0, 254.0, 176.0, 0.0, 0.0, 0.0, 1.6820970273384876E9, 0.0, 2023-04-21 12:10:27.338
214.0, -47441.8458273227, -29893.379496738853, 187500.0, 187500.0, 187500.0, 187500.0, 187500.0, 187500.0, 0.018000000000000002, 0.996, -0.042, 192.0, 0.0, 0.0, 0.0, 0.0, 0.0, 0.0, 0.0, 0.0, 0.0, 1.6820970273384986E9, 0.0, 2023-04-21 12:10:27.338
215.0, -47629.51107376946, -29906.45526724521, 187500.0, 187500.0, 187500.0, 187500.0, 187500.0, 187500.0, 0.018000000000000002, 0.996, -0.042, 192.0, 0.0, 0.0, 0.0, 0.0, 0.0, 0.0, 0.0, 0.0, 0.0, 1.6820970273385081E9, 0.0, 2023-04-21 12:10:27.338
216.0, -47522.58032829528, -29799.882149682304, 187500.0, 187500.0, 187500.0, 187500.0, 187500.0, 187500.0, 0.018000000000000002, 0.996, -0.042, 192.0, 0.0, 0.0, 0.0, 0.0, 0.0, 0.0, 0.0, 0.0, 0.0, 1.682097027338564E9, 0.0, 2023-04-21 12:10:27.338
217.0, -47330.95882307993, -29746.32736996739, 187500.0, 187500.0, 187500.0, 187500.0, 187500.0, 187500.0, 0.018000000000000002, 0.996, -0.042, 192.0, 0.0, 0.0, 0.0, 0.0, 0.0, 0.0, 0.0, 0.0, 0.0, 1.6820970273385742E9, 0.0, 2023-04-21 12:10:27.338
218.0, -47420.25404217888, -29888.35035423641, 187500.0, 187500.0, 187500.0, 187500.0, 187500.0, 187500.0, 0.018000000000000002, 0.996, -0.042, 192.0, 0.0, 0.0, 0.0, 0.0, 0.0, 0.0, 0.0, 0.0, 0.0, 1.6820970273385837E9, 0.0, 2023-04-21 12:10:27.338
219.0, -47610.98147761601, -29911.752630681116, 187500.0, 187500.0, 187500.0, 187500.0, 187500.0, 187500.0, 0.018000000000000002, 0.996, -0.042, 192.0, 0.0, 0.0, 0.0, 0.0, 0.0, 0.0, 0.0, 0.0, 0.0, 1.6820970273385932E9, 0.0, 2023-04-21 12:10:27.338
220.0, -47564.04281425987, -29817.04828942398, 187500.0, 187500.0, 187500.0, 187500.0, 187500.0, 187500.0, 0.018000000000000002, 0.996, -0.042, 192.0, 0.0, 0.0, 0.0, 0.0, 0.0, 0.0, 0.0, 0.0, 0.0, 1.6820970273386028E9, 0.0, 2023-04-21 12:10:27.338
221.0, -47341.06181157372, -29719.25940743201, 187500.0, 187500.0, 187500.0, 187500.0, 187500.0, 187500.0, 0.018000000000000002, 0.996, -0.042, 192.0, 0.0, 0.0, 0.0, 0.0, 0.0, 0.0, 0.0, 0.0, 0.0, 1.682097027338612E9, 0.0, 2023-04-21 12:10:27.338
222.0, -47383.75364348336, -29862.556441134984, 187500.0, 187500.0, 187500.0, 187500.0, 187500.0, 187500.0, 0.018000000000000002, 0.996, -0.042, 192.0, 0.0, 0.0, 0.0, 0.0, 0.0, 0.0, 0.0, 0.0, 0.0, 1.6820970273386219E9, 0.0, 2023-04-21 12:10:27.338
223.0, -47584.360549969744, -29923.420241286785, 187500.0, 187500.0, 187500.0, 187500.0, 187500.0, 187500.0, 0.02, 0.988, -0.044, 192.0, 0.0, 160.0, 30.0, 224.0, 254.0, 160.0, 0.0, 0.0, 0.0, 1.6820970273386312E9, 0.0, 2023-04-21 12:10:27.338
224.0, -47582.46065169104, -29837.321321644944, 187500.0, 187500.0, 187500.0, 187500.0, 187500.0, 187500.0, 0.02, 0.988, -0.044, 192.0, 0.0, 0.0, 0.0, 0.0, 0.0, 0.0, 0.0, 0.0, 0.0, 1.6820970273386495E9, 0.0, 2023-04-21 12:10:27.338
225.0, -47359.949035638456, -29720.98049175507, 187500.0, 187500.0, 187500.0, 187500.0, 187500.0, 187500.0, 0.02, 0.988, -0.044, 192.0, 0.0, 0.0, 0.0, 0.0, 0.0, 0.0, 0.0, 0.0, 0.0, 1.6820970273386593E9, 0.0, 2023-04-21 12:10:27.338
226.0, -47351.768297167815, -29833.700339043182, 187500.0, 187500.0, 187500.0, 187500.0, 187500.0, 187500.0, 0.02, 0.988, -0.044, 192.0, 0.0, 0.0, 0.0, 0.0, 0.0, 0.0, 0.0, 0.0, 0.0, 1.6820970273386688E9, 0.0, 2023-04-21 12:10:27.338
227.0, -47548.53070360789, -29917.049994117024, 187500.0, 187500.0, 187500.0, 187500.0, 187500.0, 187500.0, 0.02, 0.988, -0.044, 192.0, 0.0, 0.0, 0.0, 0.0, 0.0, 0.0, 0.0, 0.0, 0.0, 1.6820970273386784E9, 0.0, 2023-04-21 12:10:27.338
228.0, -47592.94361984058, -29839.556496090474, 187500.0, 187500.0, 187500.0, 187500.0, 187500.0, 187500.0, 0.02, 0.988, -0.044, 192.0, 0.0, 0.0, 0.0, 0.0, 0.0, 0.0, 0.0, 0.0, 0.0, 1.682097027338688E9, 0.0, 2023-04-21 12:10:27.338
229.0, -47387.37462608512, -29719.907608021214, 187500.0, 187500.0, 187500.0, 187500.0, 187500.0, 187500.0, 0.02, 0.988, -0.044, 192.0, 0.0, 0.0, 0.0, 0.0, 0.0, 0.0, 0.0, 0.0, 0.0, 1.6820970273386972E9, 0.0, 2023-04-21 12:10:27.338
230.0, -47329.193035267956, -29801.200902605167, 187500.0, 187500.0, 187500.0, 187500.0, 187500.0, 187500.0, 0.02, 0.988, -0.044, 192.0, 0.0, 0.0, 0.0, 0.0, 0.0, 0.0, 0.0, 0.0, 0.0, 1.6820970273387067E9, 0.0, 2023-04-21 12:10:27.338
231.0, -47510.9127176896, -29917.631139472862, 187500.0, 187500.0, 187500.0, 187500.0, 187500.0, 187500.0, 0.02, 0.988, -0.044, 192.0, 0.0, 0.0, 0.0, 0.0, 0.0, 0.0, 0.0, 0.0, 0.0, 1.6820970273387299E9, 0.0, 2023-04-21 12:10:27.338
233.0, -47441.8458273227, -29746.55088741194, 187500.0, 187500.0, 187500.0, 187500.0, 187500.0, 187500.0, 0.022, 0.986, -0.046, 192.0, 0.0, 176.0, 30.0, 208.0, 254.0, 144.0, 0.0, 0.0, 0.0, 1.6820970273387396E9, 0.0, 2023-04-21 12:10:27.338
234.0, -47314.373828694086, -29766.153367299245, 187500.0, 187500.0, 187500.0, 187500.0, 187500.0, 187500.0, 0.022, 0.986, -0.046, 192.0, 0.0, 0.0, 0.0, 0.0, 0.0, 0.0, 0.0, 0.0, 0.0, 1.68209702733875E9, 0.0, 2023-04-21 12:10:27.338
235.0, -47472.95945560449, -29907.282281790052, 187500.0, 187500.0, 187500.0, 187500.0, 187500.0, 187500.0, 0.022, 0.986, -0.046, 192.0, 0.0, 0.0, 0.0, 0.0, 0.0, 0.0, 0.0, 0.0, 0.0, 1.6820970273387594E9, 0.0, 2023-04-21 12:10:27.338
236.0, -47618.75988468646, -29883.321211733964, 187500.0, 187500.0, 187500.0, 187500.0, 187500.0, 187500.0, 0.022, 0.986, -0.046, 192.0, 0.0, 0.0, 0.0, 0.0, 0.0, 0.0, 0.0, 0.0, 0.0, 1.6820970273545334E9, 0.0, 2023-04-21 12:10:27.354
237.0, -47467.43857472403, -29756.117434038813, 187500.0, 187500.0, 187500.0, 187500.0, 187500.0, 187500.0, 0.022, 0.986, -0.046, 192.0, 0.0, 0.0, 0.0, 0.0, 0.0, 0.0, 0.0, 0.0, 0.0, 1.6820970273785925E9, 0.0, 2023-04-21 12:10:27.378
238.0, -47297.654723841515, -29733.922151794693, 187500.0, 187500.0, 187500.0, 187500.0, 187500.0, 187500.0, 0.022, 0.986, -0.046, 192.0, 0.0, 0.0, 0.0, 0.0, 0.0, 0.0, 0.0, 0.0, 0.0, 1.6820970273786168E9, 0.0, 2023-04-21 12:10:27.378
239.0, -47431.608728362175, -29892.66424091628, 187500.0, 187500.0, 187500.0, 187500.0, 187500.0, 187500.0, 0.022, 0.986, -0.046, 192.0, 0.0, 0.0, 0.0, 0.0, 0.0, 0.0, 0.0, 0.0, 0.0, 1.6820970274499917E9, 0.0, 2023-04-21 12:10:27.449
240.0, -47601.54904145587, -29889.110313547888, 187500.0, 187500.0, 187500.0, 187500.0, 187500.0, 187500.0, 0.022, 0.986, -0.046, 192.0, 0.0, 0.0, 0.0, 0.0, 0.0, 0.0, 0.0, 0.0, 0.0, 1.682097027450033E9, 0.0, 2023-04-21 12:10:27.450
241.0, -47504.29660133083, -29778.60328896085, 187500.0, 187500.0, 187500.0, 187500.0, 187500.0, 187500.0, 0.022, 0.986, -0.046, 192.0, 0.0, 0.0, 0.0, 0.0, 0.0, 0.0, 0.0, 0.0, 0.0, 1.6820970274500463E9, 0.0, 2023-04-21 12:10:27.450
242.0, -47312.22806122638, -29727.17192496919, 187500.0, 187500.0, 187500.0, 187500.0, 187500.0, 187500.0, 0.022, 0.986, -0.046, 192.0, 0.0, 0.0, 0.0, 0.0, 0.0, 0.0, 0.0, 0.0, 0.0, 1.6820970274500597E9, 0.0, 2023-04-21 12:10:27.450
243.0, -47398.37168435713, -29880.169615765768, 187500.0, 187500.0, 187500.0, 187500.0, 187500.0, 187500.0, 0.022, 0.992, -0.056, 192.0, 0.0, 176.0, 31.0, 0.0, 254.0, 64.0, 0.0, 0.0, 0.0, 1.6820970274500718E9, 0.0, 2023-04-21 12:10:27.450
244.0, -47580.53840166789, -29898.855674130402, 187500.0, 187500.0, 187500.0, 187500.0, 187500.0, 187500.0, 0.022, 0.992, -0.056, 192.0, 0.0, 0.0, 0.0, 0.0, 0.0, 0.0, 0.0, 0.0, 0.0, 1.682097027450102E9, 0.0, 2023-04-21 12:10:27.450
245.0, -47538.60652906973, -29807.638205008294, 187500.0, 187500.0, 187500.0, 187500.0, 187500.0, 187500.0, 0.022, 0.992, -0.056, 192.0, 0.0, 0.0, 0.0, 0.0, 0.0, 0.0, 0.0, 0.0, 0.0, 1.682097027450125E9, 0.0, 2023-04-21 12:10:27.450
246.0, -47326.041439299755, -29722.656872589218, 187500.0, 187500.0, 187500.0, 187500.0, 187500.0, 187500.0, 0.022, 0.992, -0.056, 192.0, 0.0, 0.0, 0.0, 0.0, 0.0, 0.0, 0.0, 0.0, 0.0, 1.6820970274501417E9, 0.0, 2023-04-21 12:10:27.450
247.0, -47350.60600645614, -29853.548688119496, 187500.0, 187500.0, 187500.0, 187500.0, 187500.0, 187500.0, 0.022, 0.992, -0.056, 192.0, 0.0, 0.0, 0.0, 0.0, 0.0, 0.0, 0.0, 0.0, 0.0, 1.6820970274502635E9, 0.0, 2023-04-21 12:10:27.450
248.0, -47549.00009024145, -29906.67878468976, 187500.0, 187500.0, 187500.0, 187500.0, 187500.0, 187500.0, 0.022, 0.992, -0.056, 192.0, 0.0, 0.0, 0.0, 0.0, 0.0, 0.0, 0.0, 0.0, 0.0, 1.6820970274502845E9, 0.0, 2023-04-21 12:10:27.450
249.0, -47558.276064190395, -29816.780068490516, 187500.0, 187500.0, 187500.0, 187500.0, 187500.0, 187500.0, 0.022, 0.992, -0.056, 192.0, 0.0, 0.0, 0.0, 0.0, 0.0, 0.0, 0.0, 0.0, 0.0, 1.6820970274661129E9, 0.0, 2023-04-21 12:10:27.466
250.0, -47340.88299761808, -29704.507256091507, 187500.0, 187500.0, 187500.0, 187500.0, 187500.0, 187500.0, 0.022, 0.992, -0.056, 192.0, 0.0, 0.0, 0.0, 0.0, 0.0, 0.0, 0.0, 0.0, 0.0, 1.6820970274982777E9, 0.0, 2023-04-21 12:10:27.498
251.0, -47314.66440137201, -29805.067754395935, 187500.0, 187500.0, 187500.0, 187500.0, 187500.0, 187500.0, 0.022, 0.992, -0.056, 192.0, 0.0, 0.0, 0.0, 0.0, 0.0, 0.0, 0.0, 0.0, 0.0, 1.6820970275586483E9, 0.0, 2023-04-21 12:10:27.558
252.0, -47509.571613022286, -29897.738086907637, 187500.0, 187500.0, 187500.0, 187500.0, 187500.0, 187500.0, 0.022, 0.992, -0.056, 192.0, 0.0, 0.0, 0.0, 0.0, 0.0, 0.0, 0.0, 0.0, 0.0, 1.6820970275586898E9, 0.0, 2023-04-21 12:10:27.558
253.0, -47578.280875477896, -29837.701301300684, 187500.0, 187500.0, 187500.0, 187500.0, 187500.0, 187500.0, 0.022, 0.992, -0.056, 192.0, 0.0, 0.0, 0.0, 0.0, 0.0, 0.0, 0.0, 0.0, 0.0, 1.6820970275587034E9, 0.0, 2023-04-21 12:10:27.558
254.0, -47369.537934009786, -29711.659814317205, 187500.0, 187500.0, 187500.0, 187500.0, 187500.0, 187500.0, 0.022, 0.996, -0.054, 192.0, 0.0, 176.0, 31.0, 32.0, 254.0, 80.0, 0.0, 0.0, 0.0, 1.6820970275587158E9, 0.0, 2023-04-21 12:10:27.558
255.0, -47295.665418585, -29782.447789007165, 187500.0, 187500.0, 187500.0, 187500.0, 187500.0, 187500.0, 0.022, 0.996, -0.054, 192.0, 0.0, 0.0, 0.0, 0.0, 0.0, 0.0, 0.0, 0.0, 0.0, 1.6820970275587308E9, 0.0, 2023-04-21 12:10:27.558
0.0, -47470.97015034797, -29898.967432852678, 187500.0, 187500.0, 187500.0, 187500.0, 187500.0, 187500.0, 0.022, 0.996, -0.054, 192.0, 0.0, 0.0, 0.0, 0.0, 0.0, 0.0, 0.0, 0.0, 0.0, 1.6820970275587437E9, 0.0, 2023-04-21 12:10:27.558
1.0, -47574.88341032069, -29847.021978738547, 187500.0, 187500.0, 187500.0, 187500.0, 187500.0, 187500.0, 0.022, 0.996, -0.054, 192.0, 0.0, 0.0, 0.0, 0.0, 0.0, 0.0, 0.0, 0.0, 0.0, 1.6820970275587556E9, 0.0, 2023-04-21 12:10:27.558
2.0, -47408.1393966841, -29732.201067471633, 187500.0, 187500.0, 187500.0, 187500.0, 187500.0, 187500.0, 0.022, 0.996, -0.054, 192.0, 0.0, 0.0, 0.0, 0.0, 0.0, 0.0, 0.0, 0.0, 0.0, 1.682097027558769E9, 0.0, 2023-04-21 12:10:27.558
18.0, -47556.77849731189, -29812.220312621634, 187500.0, 187500.0, 187500.0, 187500.0, 187500.0, 187500.0, 0.024, 0.99, -0.048, 192.0, 0.0, 192.0, 30.0, 240.0, 254.0, 128.0, 0.0, 0.0, 0.0, 1.6820970275587811E9, 0.0, 2023-04-21 12:10:27.558
4.0, -47432.39103941811, -29893.312441505488, 187500.0, 187500.0, 187500.0, 187500.0, 187500.0, 187500.0, 0.024, 0.99, -0.048, 192.0, 0.0, 0.0, 0.0, 0.0, 0.0, 0.0, 0.0, 0.0, 0.0, 1.6820970275807643E9, 0.0, 2023-04-21 12:10:27.580
5.0, -47585.25461974795, -29878.604993653895, 187500.0, 187500.0, 187500.0, 187500.0, 187500.0, 187500.0, 0.024, 0.99, -0.048, 192.0, 0.0, 0.0, 0.0, 0.0, 0.0, 0.0, 0.0, 0.0, 0.0, 1.6820970275808032E9, 0.0, 2023-04-21 12:10:27.580
16.0, -47329.528311434784, -29819.931664458712, 187500.0, 187500.0, 187500.0, 187500.0, 187500.0, 187500.0, 0.024, 0.99, -0.048, 192.0, 0.0, 0.0, 0.0, 0.0, 0.0, 0.0, 0.0, 0.0, 0.0, 1.682097027580816E9, 0.0, 2023-04-21 12:10:27.580
14.0, -47528.995278953946, -29792.55077750096, 187500.0, 187500.0, 187500.0, 187500.0, 187500.0, 187500.0, 0.024, 0.99, -0.048, 192.0, 0.0, 0.0, 0.0, 0.0, 0.0, 0.0, 0.0, 0.0, 0.0, 1.682097027580992E9, 0.0, 2023-04-21 12:10:27.580
10.0, -47497.43461578305, -29780.145559328266, 187500.0, 187500.0, 187500.0, 187500.0, 187500.0, 187500.0, 0.024, 0.99, -0.048, 192.0, 0.0, 0.0, 0.0, 0.0, 0.0, 0.0, 0.0, 0.0, 0.0, 1.6820970276069095E9, 0.0, 2023-04-21 12:10:27.606
11.0, -47290.45746212691, -29704.730773536063, 187500.0, 187500.0, 187500.0, 187500.0, 187500.0, 187500.0, 0.024, 0.99, -0.048, 192.0, 0.0, 0.0, 0.0, 0.0, 0.0, 0.0, 0.0, 0.0, 0.0, 1.6820970276069562E9, 0.0, 2023-04-21 12:10:27.606
12.0, -47371.59429449967, -29856.96850502116, 187500.0, 187500.0, 187500.0, 187500.0, 187500.0, 187500.0, 0.024, 0.99, -0.048, 192.0, 0.0, 0.0, 0.0, 0.0, 0.0, 0.0, 0.0, 0.0, 0.0, 1.6820970276491113E9, 0.0, 2023-04-21 12:10:27.649
19.0, -47335.831503371184, -29693.376087352764, 187500.0, 187500.0, 187500.0, 187500.0, 187500.0, 187500.0, 0.024, 0.99, -0.048, 192.0, 0.0, 0.0, 0.0, 0.0, 0.0, 0.0, 0.0, 0.0, 0.0, 1.6820970276491327E9, 0.0, 2023-04-21 12:10:27.649
48.0, -47342.00058484085, -29705.3119188919, 187500.0, 187500.0, 187500.0, 187500.0, 187500.0, 187500.0, 0.024, 0.99, -0.048, 192.0, 0.0, 0.0, 0.0, 0.0, 0.0, 0.0, 0.0, 0.0, 0.0, 1.6820970276491528E9, 0.0, 2023-04-21 12:10:27.649
21.0, -47482.54835397582, -29881.220147755164, 187500.0, 187500.0, 187500.0, 187500.0, 187500.0, 187500.0, 0.024, 0.99, -0.048, 192.0, 0.0, 0.0, 0.0, 0.0, 0.0, 0.0, 0.0, 0.0, 0.0, 1.6820970276812823E9, 0.0, 2023-04-21 12:10:27.681
22.0, -47558.141953723665, -29825.43019359472, 187500.0, 187500.0, 187500.0, 187500.0, 187500.0, 187500.0, 0.024, 0.99, -0.048, 192.0, 0.0, 0.0, 0.0, 0.0, 0.0, 0.0, 0.0, 0.0, 0.0, 1.6820970277094796E9, 0.0, 2023-04-21 12:10:27.709
23.0, -47364.50879150734, -29707.234168915056, 187500.0, 187500.0, 187500.0, 187500.0, 187500.0, 187500.0, 0.024, 0.99, -0.048, 192.0, 0.0, 0.0, 0.0, 0.0, 0.0, 0.0, 0.0, 0.0, 0.0, 1.6820970277095127E9, 0.0, 2023-04-21 12:10:27.709
41.0, -47284.75776729081, -29800.552702015964, 187500.0, 187500.0, 187500.0, 187500.0, 187500.0, 187500.0, 0.024, 0.99, -0.048, 192.0, 0.0, 0.0, 0.0, 0.0, 0.0, 0.0, 0.0, 0.0, 0.0, 1.6820970277256043E9, 0.0, 2023-04-21 12:10:27.725
36.0, -47233.706382954886, -29673.17011036517, 187500.0, 187500.0, 187500.0, 187500.0, 187500.0, 187500.0, 0.024, 0.99, -0.048, 192.0, 0.0, 0.0, 0.0, 0.0, 0.0, 0.0, 0.0, 0.0, 0.0, 1.6820970277416306E9, 0.0, 2023-04-21 12:10:27.741
46.0, -47451.591187905215, -29882.44949370021, 187500.0, 187500.0, 187500.0, 187500.0, 187500.0, 187500.0, 0.024, 0.99, -0.048, 192.0, 0.0, 0.0, 0.0, 0.0, 0.0, 0.0, 0.0, 0.0, 0.0, 1.6820970277657552E9, 0.0, 2023-04-21 12:10:27.765
39.0, -47496.78641519385, -29786.47110300912, 187500.0, 187500.0, 187500.0, 187500.0, 187500.0, 187500.0, 0.024, 0.99, -0.048, 192.0, 0.0, 0.0, 0.0, 0.0, 0.0, 0.0, 0.0, 0.0, 0.0, 1.6820970277657807E9, 0.0, 2023-04-21 12:10:27.765
44.0, -47301.70038958793, -29691.275023373968, 187500.0, 187500.0, 187500.0, 187500.0, 187500.0, 187500.0, 0.024, 0.99, -0.048, 192.0, 0.0, 0.0, 0.0, 0.0, 0.0, 0.0, 0.0, 0.0, 0.0, 1.68209702778994E9, 0.0, 2023-04-21 12:10:27.789
37.0, -47314.97732579438, -29834.594408821395, 187500.0, 187500.0, 187500.0, 187500.0, 187500.0, 187500.0, 0.024, 0.99, -0.048, 192.0, 0.0, 0.0, 0.0, 0.0, 0.0, 0.0, 0.0, 0.0, 0.0, 1.6820970277899728E9, 0.0, 2023-04-21 12:10:27.789
42.0, -47486.68342670005, -29878.560290164984, 187500.0, 187500.0, 187500.0, 187500.0, 187500.0, 187500.0, 0.024, 0.99, -0.048, 192.0, 0.0, 0.0, 0.0, 0.0, 0.0, 0.0, 0.0, 0.0, 0.0, 1.6820970277900589E9, 0.0, 2023-04-21 12:10:27.790
49.0, -47239.58489174663, -29745.70152112264, 187500.0, 187500.0, 187500.0, 187500.0, 187500.0, 187500.0, 0.024, 0.988, -0.052000000000000005, 192.0, 0.0, 192.0, 30.0, 224.0, 254.0, 96.0, 0.0, 0.0, 0.0, 1.6820970278583205E9, 0.0, 2023-04-21 12:10:27.858
50.0, -47406.97710597242, -29869.753702849594, 187500.0, 187500.0, 187500.0, 187500.0, 187500.0, 187500.0, 0.024, 0.988, -0.052000000000000005, 192.0, 0.0, 0.0, 0.0, 0.0, 0.0, 0.0, 0.0, 0.0, 0.0, 1.682097027858348E9, 0.0, 2023-04-21 12:10:27.858
89.0, -47517.77470323738, -29799.770390960028, 187500.0, 187500.0, 187500.0, 187500.0, 187500.0, 187500.0, 0.024, 0.988, -0.052000000000000005, 192.0, 0.0, 0.0, 0.0, 0.0, 0.0, 0.0, 0.0, 0.0, 0.0, 1.6820970278583665E9, 0.0, 2023-04-21 12:10:27.858
52.0, -47387.486384807395, -29726.054337746424, 187500.0, 187500.0, 187500.0, 187500.0, 187500.0, 187500.0, 0.024, 0.988, -0.052000000000000005, 192.0, 0.0, 0.0, 0.0, 0.0, 0.0, 0.0, 0.0, 0.0, 0.0, 1.6820970278583825E9, 0.0, 2023-04-21 12:10:27.858
76.0, -47555.43739264458, -29857.661409099273, 187500.0, 187500.0, 187500.0, 187500.0, 187500.0, 187500.0, 0.024, 0.988, -0.052000000000000005, 192.0, 0.0, 0.0, 0.0, 0.0, 0.0, 0.0, 0.0, 0.0, 0.0, 1.6820970278583975E9, 0.0, 2023-04-21 12:10:27.858
59.0, -47536.59487206875, -29876.39217095282, 187500.0, 187500.0, 187500.0, 187500.0, 187500.0, 187500.0, 0.014, 0.992, -0.052000000000000005, 192.0, 0.0, 112.0, 31.0, 0.0, 254.0, 96.0, 0.0, 0.0, 0.0, 1.68209702785841E9, 0.0, 2023-04-21 12:10:27.858
55.0, -47538.33830813626, -29852.319342174455, 187500.0, 187500.0, 187500.0, 187500.0, 187500.0, 187500.0, 0.014, 0.992, -0.052000000000000005, 192.0, 0.0, 0.0, 0.0, 0.0, 0.0, 0.0, 0.0, 0.0, 0.0, 1.682097027858423E9, 0.0, 2023-04-21 12:10:27.858
87.0, -47327.94133757846, -29842.059891469467, 187500.0, 187500.0, 187500.0, 187500.0, 187500.0, 187500.0, 0.014, 0.992, -0.052000000000000005, 192.0, 0.0, 0.0, 0.0, 0.0, 0.0, 0.0, 0.0, 0.0, 0.0, 1.682097027858436E9, 0.0, 2023-04-21 12:10:27.858
72.0, -47552.46461063202, -29851.15705146278, 187500.0, 187500.0, 187500.0, 187500.0, 187500.0, 187500.0, 0.014, 0.992, -0.052000000000000005, 192.0, 0.0, 0.0, 0.0, 0.0, 0.0, 0.0, 0.0, 0.0, 0.0, 1.682097027858448E9, 0.0, 2023-04-21 12:10:27.858
