%OpenBCI Raw EEG Data
%Number of channels = 8
%Sample Rate = 250 Hz
%Board = OpenBCI_GUI$BoardCytonSerial
Sample Index, EXG Channel 0, EXG Channel 1, EXG Channel 2, EXG Channel 3, EXG Channel 4, EXG Channel 5, EXG Channel 6, EXG Channel 7, Accel Channel 0, Accel Channel 1, Accel Channel 2, Other, Other, Other, Other, Other, Other, Other, Analog Channel 0, Analog Channel 1, Analog Channel 2, Timestamp, Other, Timestamp (Formatted)
234.0, -47770.28236034899, -29273.587974737642, 187500.0, 187500.0, 187500.0, 187500.0, 187500.0, 187500.0, 0.0, 0.0, 0.0, 192.0, 0.0, 0.0, 0.0, 0.0, 0.0, 0.0, 0.0, 0.0, 0.0, 1.6820971079299157E9, 0.0, 2023-04-21 12:11:47.929
239.0, -47604.007733345956, -29159.236450104294, 187500.0, 187500.0, 187500.0, 187500.0, 187500.0, 187500.0, 0.0, 0.0, 0.0, 192.0, 0.0, 0.0, 0.0, 0.0, 0.0, 0.0, 0.0, 0.0, 0.0, 1.682097107929939E9, 0.0, 2023-04-21 12:11:47.929
236.0, -47564.42279391561, -29243.882506356542, 187500.0, 187500.0, 187500.0, 187500.0, 187500.0, 187500.0, 0.0, 0.0, 0.0, 192.0, 0.0, 0.0, 0.0, 0.0, 0.0, 0.0, 0.0, 0.0, 0.0, 1.6820971079299514E9, 0.0, 2023-04-21 12:11:47.929
244.0, -47515.561880536305, -29172.848662477576, 187500.0, 187500.0, 187500.0, 187500.0, 187500.0, 187500.0, 0.0, 0.0, 0.0, 192.0, 0.0, 0.0, 0.0, 0.0, 0.0, 0.0, 0.0, 0.0, 0.0, 1.682097107929963E9, 0.0, 2023-04-21 12:11:47.929
240.0, -47554.14099146616, -29212.858285052575, 187500.0, 187500.0, 187500.0, 187500.0, 187500.0, 187500.0, 0.0, 0.0, 0.0, 192.0, 0.0, 0.0, 0.0, 0.0, 0.0, 0.0, 0.0, 0.0, 0.0, 1.682097107929975E9, 0.0, 2023-04-21 12:11:47.929
241.0, -47712.59250790984, -29374.081417808702, 187500.0, 187500.0, 187500.0, 187500.0, 187500.0, 187500.0, 0.0, 0.0, 0.0, 192.0, 0.0, 0.0, 0.0, 0.0, 0.0, 0.0, 0.0, 0.0, 0.0, 1.6820971079299865E9, 0.0, 2023-04-21 12:11:47.929
242.0, -47803.60881133185, -29331.724862065897, 187500.0, 187500.0, 187500.0, 187500.0, 187500.0, 187500.0, 0.0, 0.0, 0.0, 192.0, 0.0, 0.0, 0.0, 0.0, 0.0, 0.0, 0.0, 0.0, 0.0, 1.682097107929998E9, 0.0, 2023-04-21 12:11:47.929
245.0, -47656.06494618237, -29341.827850559697, 187500.0, 187500.0, 187500.0, 187500.0, 187500.0, 187500.0, 0.0, 0.0, 0.0, 192.0, 0.0, 0.0, 0.0, 0.0, 0.0, 0.0, 0.0, 0.0, 0.0, 1.6820971079300096E9, 0.0, 2023-04-21 12:11:47.930
246.0, -47803.452349120664, -29351.5285076533, 187500.0, 187500.0, 187500.0, 187500.0, 187500.0, 187500.0, 0.0, 0.0, 0.0, 192.0, 0.0, 0.0, 0.0, 0.0, 0.0, 0.0, 0.0, 0.0, 0.0, 1.682097107930024E9, 0.0, 2023-04-21 12:11:47.930
247.0, -47691.40305416621, -29211.24895945179, 187500.0, 187500.0, 187500.0, 187500.0, 187500.0, 187500.0, 0.0, 0.0, 0.0, 192.0, 0.0, 0.0, 0.0, 0.0, 0.0, 0.0, 0.0, 0.0, 0.0, 1.6820971079300413E9, 0.0, 2023-04-21 12:11:47.930
248.0, -47537.48894184696, -29156.15190936946, 187500.0, 187500.0, 187500.0, 187500.0, 187500.0, 187500.0, 0.0, 0.0, 0.0, 192.0, 0.0, 0.0, 0.0, 0.0, 0.0, 0.0, 0.0, 0.0, 0.0, 1.6820971079300563E9, 0.0, 2023-04-21 12:11:47.930
249.0, -47643.61502452076, -29337.625722602097, 187500.0, 187500.0, 187500.0, 187500.0, 187500.0, 187500.0, 0.012, 0.994, 0.014, 192.0, 0.0, 96.0, 31.0, 16.0, 0.0, 112.0, 0.0, 0.0, 0.0, 1.682097107930068E9, 0.0, 2023-04-21 12:11:47.930
250.0, -47780.11712790932, -29331.680158576986, 187500.0, 187500.0, 187500.0, 187500.0, 187500.0, 187500.0, 0.012, 0.994, 0.014, 192.0, 0.0, 0.0, 0.0, 0.0, 0.0, 0.0, 0.0, 0.0, 0.0, 1.6820971079300864E9, 0.0, 2023-04-21 12:11:47.930
251.0, -47715.74410387804, -29212.143029230003, 187500.0, 187500.0, 187500.0, 187500.0, 187500.0, 187500.0, 0.012, 0.994, 0.014, 192.0, 0.0, 0.0, 0.0, 0.0, 0.0, 0.0, 0.0, 0.0, 0.0, 1.6820971079301045E9, 0.0, 2023-04-21 12:11:47.930
252.0, -47532.54920632234, -29133.62135095851, 187500.0, 187500.0, 187500.0, 187500.0, 187500.0, 187500.0, 0.012, 0.994, 0.014, 192.0, 0.0, 0.0, 0.0, 0.0, 0.0, 0.0, 0.0, 0.0, 0.0, 1.682097107930117E9, 0.0, 2023-04-21 12:11:47.930
253.0, -47588.89795409417, -29307.450867587435, 187500.0, 187500.0, 187500.0, 187500.0, 187500.0, 187500.0, 0.012, 0.994, 0.014, 192.0, 0.0, 0.0, 0.0, 0.0, 0.0, 0.0, 0.0, 0.0, 0.0, 1.6820971079301314E9, 0.0, 2023-04-21 12:11:47.930
254.0, -47750.34460429485, -29355.95415305545, 187500.0, 187500.0, 187500.0, 187500.0, 187500.0, 187500.0, 0.012, 0.994, 0.014, 192.0, 0.0, 0.0, 0.0, 0.0, 0.0, 0.0, 0.0, 0.0, 0.0, 1.6820971079303203E9, 0.0, 2023-04-21 12:11:47.930
255.0, -47764.42620330169, -29249.470442470367, 187500.0, 187500.0, 187500.0, 187500.0, 187500.0, 187500.0, 0.012, 0.994, 0.014, 192.0, 0.0, 0.0, 0.0, 0.0, 0.0, 0.0, 0.0, 0.0, 0.0, 1.6820971079303312E9, 0.0, 2023-04-21 12:11:47.930
0.0, -47576.112756265735, -29132.548467224657, 187500.0, 187500.0, 187500.0, 187500.0, 187500.0, 187500.0, 0.012, 0.994, 0.014, 192.0, 0.0, 0.0, 0.0, 0.0, 0.0, 0.0, 0.0, 0.0, 0.0, 1.6820971079303412E9, 0.0, 2023-04-21 12:11:47.930
1.0, -47587.24392500448, -29264.624925211065, 187500.0, 187500.0, 187500.0, 187500.0, 187500.0, 187500.0, 0.012, 0.994, 0.014, 192.0, 0.0, 0.0, 0.0, 0.0, 0.0, 0.0, 0.0, 0.0, 0.0, 1.6820971079303513E9, 0.0, 2023-04-21 12:11:47.930
2.0, -47753.36208979632, -29350.65678961954, 187500.0, 187500.0, 187500.0, 187500.0, 187500.0, 187500.0, 0.012, 0.994, 0.014, 192.0, 0.0, 0.0, 0.0, 0.0, 0.0, 0.0, 0.0, 0.0, 0.0, 1.682097107930361E9, 0.0, 2023-04-21 12:11:47.930
3.0, -47786.71089252364, -29275.17494859397, 187500.0, 187500.0, 187500.0, 187500.0, 187500.0, 187500.0, 0.008, 0.992, 0.016, 192.0, 0.0, 64.0, 31.0, 0.0, 0.0, 128.0, 0.0, 0.0, 0.0, 1.6820971079303708E9, 0.0, 2023-04-21 12:11:47.930
4.0, -47580.1807737566, -29145.08779586408, 187500.0, 187500.0, 187500.0, 187500.0, 187500.0, 187500.0, 0.008, 0.992, 0.016, 192.0, 0.0, 0.0, 0.0, 0.0, 0.0, 0.0, 0.0, 0.0, 0.0, 1.6820971079303849E9, 0.0, 2023-04-21 12:11:47.930
5.0, -47548.97773849699, -29233.198372506904, 187500.0, 187500.0, 187500.0, 187500.0, 187500.0, 187500.0, 0.008, 0.992, 0.016, 192.0, 0.0, 0.0, 0.0, 0.0, 0.0, 0.0, 0.0, 0.0, 0.0, 1.682097107930395E9, 0.0, 2023-04-21 12:11:47.930
6.0, -47732.44085698615, -29351.595562886665, 187500.0, 187500.0, 187500.0, 187500.0, 187500.0, 187500.0, 0.008, 0.992, 0.016, 192.0, 0.0, 0.0, 0.0, 0.0, 0.0, 0.0, 0.0, 0.0, 0.0, 1.6820971079304044E9, 0.0, 2023-04-21 12:11:47.930
7.0, -47813.309468425454, -29299.65010877253, 187500.0, 187500.0, 187500.0, 187500.0, 187500.0, 187500.0, 0.008, 0.992, 0.016, 192.0, 0.0, 0.0, 0.0, 0.0, 0.0, 0.0, 0.0, 0.0, 0.0, 1.6820971079304152E9, 0.0, 2023-04-21 12:11:47.930
8.0, -47638.13884712921, -29177.140197412995, 187500.0, 187500.0, 187500.0, 187500.0, 187500.0, 187500.0, 0.008, 0.992, 0.016, 192.0, 0.0, 0.0, 0.0, 0.0, 0.0, 0.0, 0.0, 0.0, 0.0, 1.68209710793043E9, 0.0, 2023-04-21 12:11:47.930
9.0, -47546.116715206714, -29205.661023337965, 187500.0, 187500.0, 187500.0, 187500.0, 187500.0, 187500.0, 0.008, 0.992, 0.016, 192.0, 0.0, 0.0, 0.0, 0.0, 0.0, 0.0, 0.0, 0.0, 0.0, 1.6820971079304452E9, 0.0, 2023-04-21 12:11:47.930
10.0, -47700.76843509298, -29344.53241163879, 187500.0, 187500.0, 187500.0, 187500.0, 187500.0, 187500.0, 0.008, 0.992, 0.016, 192.0, 0.0, 0.0, 0.0, 0.0, 0.0, 0.0, 0.0, 0.0, 0.0, 1.6820971079304607E9, 0.0, 2023-04-21 12:11:47.930
11.0, -47798.89259325178, -29305.84154198665, 187500.0, 187500.0, 187500.0, 187500.0, 187500.0, 187500.0, 0.008, 0.992, 0.016, 192.0, 0.0, 0.0, 0.0, 0.0, 0.0, 0.0, 0.0, 0.0, 0.0, 1.6820971079304752E9, 0.0, 2023-04-21 12:11:47.930
12.0, -47638.965861674056, -29174.279174122716, 187500.0, 187500.0, 187500.0, 187500.0, 187500.0, 187500.0, 0.008, 0.992, 0.016, 192.0, 0.0, 0.0, 0.0, 0.0, 0.0, 0.0, 0.0, 0.0, 0.0, 1.6820971079304905E9, 0.0, 2023-04-21 12:11:47.930
13.0, -47520.322802105286, -29176.78256950171, 187500.0, 187500.0, 187500.0, 187500.0, 187500.0, 187500.0, 0.012, 0.99, 0.008, 192.0, 0.0, 96.0, 30.0, 240.0, 0.0, 64.0, 0.0, 0.0, 0.0, 1.68209710793059E9, 0.0, 2023-04-21 12:11:47.930
14.0, -47650.18643739062, -29344.822984316706, 187500.0, 187500.0, 187500.0, 187500.0, 187500.0, 187500.0, 0.012, 0.99, 0.008, 192.0, 0.0, 0.0, 0.0, 0.0, 0.0, 0.0, 0.0, 0.0, 0.0, 1.6820971079306056E9, 0.0, 2023-04-21 12:11:47.930
15.0, -47797.68559905119, -29334.742347567364, 187500.0, 187500.0, 187500.0, 187500.0, 187500.0, 187500.0, 0.012, 0.99, 0.008, 192.0, 0.0, 0.0, 0.0, 0.0, 0.0, 0.0, 0.0, 0.0, 0.0, 1.682097107930619E9, 0.0, 2023-04-21 12:11:47.930
16.0, -47712.74897012103, -29213.528837386235, 187500.0, 187500.0, 187500.0, 187500.0, 187500.0, 187500.0, 0.012, 0.99, 0.008, 192.0, 0.0, 0.0, 0.0, 0.0, 0.0, 0.0, 0.0, 0.0, 0.0, 1.682097107930632E9, 0.0, 2023-04-21 12:11:47.930
17.0, -47542.763953538415, -29153.067368634627, 187500.0, 187500.0, 187500.0, 187500.0, 187500.0, 187500.0, 0.012, 0.99, 0.008, 192.0, 0.0, 0.0, 0.0, 0.0, 0.0, 0.0, 0.0, 0.0, 0.0, 1.682097107930646E9, 0.0, 2023-04-21 12:11:47.930
18.0, -47628.192320846596, -29301.594710540143, 187500.0, 187500.0, 187500.0, 187500.0, 187500.0, 187500.0, 0.012, 0.99, 0.008, 192.0, 0.0, 0.0, 0.0, 0.0, 0.0, 0.0, 0.0, 0.0, 0.0, 1.6820971079306605E9, 0.0, 2023-04-21 12:11:47.930
19.0, -47780.20653488714, -29307.920254220993, 187500.0, 187500.0, 187500.0, 187500.0, 187500.0, 187500.0, 0.012, 0.99, 0.008, 192.0, 0.0, 0.0, 0.0, 0.0, 0.0, 0.0, 0.0, 0.0, 0.0, 1.6820971079306743E9, 0.0, 2023-04-21 12:11:47.930
20.0, -47721.33203999187, -29215.920474042952, 187500.0, 187500.0, 187500.0, 187500.0, 187500.0, 187500.0, 0.012, 0.99, 0.008, 192.0, 0.0, 0.0, 0.0, 0.0, 0.0, 0.0, 0.0, 0.0, 0.0, 1.682097107930688E9, 0.0, 2023-04-21 12:11:47.930
21.0, -47522.17799689508, -29123.451307231346, 187500.0, 187500.0, 187500.0, 187500.0, 187500.0, 187500.0, 0.012, 0.99, 0.008, 192.0, 0.0, 0.0, 0.0, 0.0, 0.0, 0.0, 0.0, 0.0, 0.0, 1.6820971079307017E9, 0.0, 2023-04-21 12:11:47.930
22.0, -47580.739567367986, -29278.415951539988, 187500.0, 187500.0, 187500.0, 187500.0, 187500.0, 187500.0, 0.012, 0.99, 0.008, 192.0, 0.0, 0.0, 0.0, 0.0, 0.0, 0.0, 0.0, 0.0, 0.0, 1.6820971079307156E9, 0.0, 2023-04-21 12:11:47.930
23.0, -47759.620578243805, -29342.52075463781, 187500.0, 187500.0, 187500.0, 187500.0, 187500.0, 187500.0, 0.018000000000000002, 0.988, 0.01, 192.0, 0.0, 144.0, 30.0, 224.0, 0.0, 80.0, 0.0, 0.0, 0.0, 1.6820971079307296E9, 0.0, 2023-04-21 12:11:47.930
24.0, -47735.63715644326, -29252.42087273847, 187500.0, 187500.0, 187500.0, 187500.0, 187500.0, 187500.0, 0.018000000000000002, 0.988, 0.01, 192.0, 0.0, 0.0, 0.0, 0.0, 0.0, 0.0, 0.0, 0.0, 0.0, 1.682097107930745E9, 0.0, 2023-04-21 12:11:47.930
25.0, -47571.642407374675, -29132.235542802282, 187500.0, 187500.0, 187500.0, 187500.0, 187500.0, 187500.0, 0.018000000000000002, 0.988, 0.01, 192.0, 0.0, 0.0, 0.0, 0.0, 0.0, 0.0, 0.0, 0.0, 0.0, 1.682097107930761E9, 0.0, 2023-04-21 12:11:47.930
26.0, -47599.29151526589, -29259.238154797335, 187500.0, 187500.0, 187500.0, 187500.0, 187500.0, 187500.0, 0.018000000000000002, 0.988, 0.01, 192.0, 0.0, 0.0, 0.0, 0.0, 0.0, 0.0, 0.0, 0.0, 0.0, 1.6820971079307752E9, 0.0, 2023-04-21 12:11:47.930
27.0, -47749.96462463911, -29345.538240139278, 187500.0, 187500.0, 187500.0, 187500.0, 187500.0, 187500.0, 0.018000000000000002, 0.988, 0.01, 192.0, 0.0, 0.0, 0.0, 0.0, 0.0, 0.0, 0.0, 0.0, 0.0, 1.68209710793079E9, 0.0, 2023-04-21 12:11:47.930
28.0, -47792.969380971124, -29254.477233228357, 187500.0, 187500.0, 187500.0, 187500.0, 187500.0, 187500.0, 0.018000000000000002, 0.988, 0.01, 192.0, 0.0, 0.0, 0.0, 0.0, 0.0, 0.0, 0.0, 0.0, 0.0, 1.682097107930826E9, 0.0, 2023-04-21 12:11:47.930
29.0, -47603.65010543467, -29124.09950782055, 187500.0, 187500.0, 187500.0, 187500.0, 187500.0, 187500.0, 0.018000000000000002, 0.988, 0.01, 192.0, 0.0, 0.0, 0.0, 0.0, 0.0, 0.0, 0.0, 0.0, 0.0, 1.682097107930841E9, 0.0, 2023-04-21 12:11:47.930
30.0, -47567.61909337272, -29214.668776353454, 187500.0, 187500.0, 187500.0, 187500.0, 187500.0, 187500.0, 0.018000000000000002, 0.988, 0.01, 192.0, 0.0, 0.0, 0.0, 0.0, 0.0, 0.0, 0.0, 0.0, 0.0, 1.6820971079308558E9, 0.0, 2023-04-21 12:11:47.930
31.0, -47731.90441511922, -29336.150507468046, 187500.0, 187500.0, 187500.0, 187500.0, 187500.0, 187500.0, 0.018000000000000002, 0.988, 0.01, 192.0, 0.0, 0.0, 0.0, 0.0, 0.0, 0.0, 0.0, 0.0, 0.0, 1.6820971079308703E9, 0.0, 2023-04-21 12:11:47.930
32.0, -47800.83719501939, -29268.424721768468, 187500.0, 187500.0, 187500.0, 187500.0, 187500.0, 187500.0, 0.018000000000000002, 0.988, 0.01, 192.0, 0.0, 0.0, 0.0, 0.0, 0.0, 0.0, 0.0, 0.0, 0.0, 1.6820971079308858E9, 0.0, 2023-04-21 12:11:47.930
33.0, -47640.5975390193, -29141.757385940244, 187500.0, 187500.0, 187500.0, 187500.0, 187500.0, 187500.0, 0.024, 0.99, 0.01, 192.0, 0.0, 192.0, 30.0, 240.0, 0.0, 80.0, 0.0, 0.0, 0.0, 1.682097107930901E9, 0.0, 2023-04-21 12:11:47.930
34.0, -47552.64342458766, -29172.759255499754, 187500.0, 187500.0, 187500.0, 187500.0, 187500.0, 187500.0, 0.024, 0.99, 0.01, 192.0, 0.0, 0.0, 0.0, 0.0, 0.0, 0.0, 0.0, 0.0, 0.0, 1.6820971079309163E9, 0.0, 2023-04-21 12:11:47.930
35.0, -47704.90350781722, -29332.79774579975, 187500.0, 187500.0, 187500.0, 187500.0, 187500.0, 187500.0, 0.024, 0.99, 0.01, 192.0, 0.0, 0.0, 0.0, 0.0, 0.0, 0.0, 0.0, 0.0, 0.0, 1.6820971079309316E9, 0.0, 2023-04-21 12:11:47.930
36.0, -47817.66805859424, -29296.18558838196, 187500.0, 187500.0, 187500.0, 187500.0, 187500.0, 187500.0, 0.024, 0.99, 0.01, 192.0, 0.0, 0.0, 0.0, 0.0, 0.0, 0.0, 0.0, 0.0, 0.0, 1.6820971079309464E9, 0.0, 2023-04-21 12:11:47.930
37.0, -47679.66838832717, -29161.672790249922, 187500.0, 187500.0, 187500.0, 187500.0, 187500.0, 187500.0, 0.024, 0.99, 0.01, 192.0, 0.0, 0.0, 0.0, 0.0, 0.0, 0.0, 0.0, 0.0, 0.0, 1.682097107930961E9, 0.0, 2023-04-21 12:11:47.930
38.0, -47548.910683263624, -29150.318104066624, 187500.0, 187500.0, 187500.0, 187500.0, 187500.0, 187500.0, 0.024, 0.99, 0.01, 192.0, 0.0, 0.0, 0.0, 0.0, 0.0, 0.0, 0.0, 0.0, 0.0, 1.6820971079309752E9, 0.0, 2023-04-21 12:11:47.930
39.0, -47658.90361772819, -29311.921216478495, 187500.0, 187500.0, 187500.0, 187500.0, 187500.0, 187500.0, 0.024, 0.99, 0.01, 192.0, 0.0, 0.0, 0.0, 0.0, 0.0, 0.0, 0.0, 0.0, 0.0, 1.6820971079309895E9, 0.0, 2023-04-21 12:11:47.930
40.0, -47803.385293887295, -29307.920254220993, 187500.0, 187500.0, 187500.0, 187500.0, 187500.0, 187500.0, 0.024, 0.99, 0.01, 192.0, 0.0, 0.0, 0.0, 0.0, 0.0, 0.0, 0.0, 0.0, 0.0, 1.6820971079310043E9, 0.0, 2023-04-21 12:11:47.931
41.0, -47727.76934239499, -29199.313127912657, 187500.0, 187500.0, 187500.0, 187500.0, 187500.0, 187500.0, 0.024, 0.99, 0.01, 192.0, 0.0, 0.0, 0.0, 0.0, 0.0, 0.0, 0.0, 0.0, 0.0, 1.682097107931023E9, 0.0, 2023-04-21 12:11:47.931
42.0, -47566.16622998312, -29136.23650505978, 187500.0, 187500.0, 187500.0, 187500.0, 187500.0, 187500.0, 0.024, 0.99, 0.01, 192.0, 0.0, 0.0, 0.0, 0.0, 0.0, 0.0, 0.0, 0.0, 0.0, 1.6820971079310374E9, 0.0, 2023-04-21 12:11:47.931
43.0, -47647.30306235589, -29293.212806369404, 187500.0, 187500.0, 187500.0, 187500.0, 187500.0, 187500.0, 0.024, 0.99, 0.01, 192.0, 0.0, 0.0, 0.0, 0.0, 0.0, 0.0, 0.0, 0.0, 0.0, 1.682097107931052E9, 0.0, 2023-04-21 12:11:47.931
44.0, -47801.0830642084, -29321.599521827644, 187500.0, 187500.0, 187500.0, 187500.0, 187500.0, 187500.0, 0.022, 0.998, 0.004, 192.0, 0.0, 176.0, 31.0, 48.0, 0.0, 32.0, 0.0, 0.0, 0.0, 1.6820971079311364E9, 0.0, 2023-04-21 12:11:47.931
45.0, -47753.56325549642, -29219.07207001115, 187500.0, 187500.0, 187500.0, 187500.0, 187500.0, 187500.0, 0.022, 0.998, 0.004, 192.0, 0.0, 0.0, 0.0, 0.0, 0.0, 0.0, 0.0, 0.0, 0.0, 1.682097107931152E9, 0.0, 2023-04-21 12:11:47.931
46.0, -47568.356700939745, -29111.269606503203, 187500.0, 187500.0, 187500.0, 187500.0, 187500.0, 187500.0, 0.022, 0.998, 0.004, 192.0, 0.0, 0.0, 0.0, 0.0, 0.0, 0.0, 0.0, 0.0, 0.0, 1.6820971079311683E9, 0.0, 2023-04-21 12:11:47.931
47.0, -47615.18360557361, -29252.152651805005, 187500.0, 187500.0, 187500.0, 187500.0, 187500.0, 187500.0, 0.022, 0.998, 0.004, 192.0, 0.0, 0.0, 0.0, 0.0, 0.0, 0.0, 0.0, 0.0, 0.0, 1.6820971079311829E9, 0.0, 2023-04-21 12:11:47.931
48.0, -47781.59234304337, -29320.99602472735, 187500.0, 187500.0, 187500.0, 187500.0, 187500.0, 187500.0, 0.022, 0.998, 0.004, 192.0, 0.0, 0.0, 0.0, 0.0, 0.0, 0.0, 0.0, 0.0, 0.0, 1.6820971079311972E9, 0.0, 2023-04-21 12:11:47.931
49.0, -47770.528229537995, -29236.953465575396, 187500.0, 187500.0, 187500.0, 187500.0, 187500.0, 187500.0, 0.022, 0.998, 0.004, 192.0, 0.0, 0.0, 0.0, 0.0, 0.0, 0.0, 0.0, 0.0, 0.0, 1.682097107931212E9, 0.0, 2023-04-21 12:11:47.931
50.0, -47573.16232599763, -29115.359975738524, 187500.0, 187500.0, 187500.0, 187500.0, 187500.0, 187500.0, 0.022, 0.998, 0.004, 192.0, 0.0, 0.0, 0.0, 0.0, 0.0, 0.0, 0.0, 0.0, 0.0, 1.6820971079312265E9, 0.0, 2023-04-21 12:11:47.931
51.0, -47599.15740479915, -29244.26248601228, 187500.0, 187500.0, 187500.0, 187500.0, 187500.0, 187500.0, 0.022, 0.998, 0.004, 192.0, 0.0, 0.0, 0.0, 0.0, 0.0, 0.0, 0.0, 0.0, 0.0, 1.6820971079312403E9, 0.0, 2023-04-21 12:11:47.931
52.0, -47773.322197594905, -29335.591713856666, 187500.0, 187500.0, 187500.0, 187500.0, 187500.0, 187500.0, 0.022, 0.998, 0.004, 192.0, 0.0, 0.0, 0.0, 0.0, 0.0, 0.0, 0.0, 0.0, 0.0, 1.6820971079312549E9, 0.0, 2023-04-21 12:11:47.931
53.0, -47801.50774735305, -29262.300343787712, 187500.0, 187500.0, 187500.0, 187500.0, 187500.0, 187500.0, 0.022, 0.998, 0.004, 192.0, 0.0, 0.0, 0.0, 0.0, 0.0, 0.0, 0.0, 0.0, 0.0, 1.6820971079312692E9, 0.0, 2023-04-21 12:11:47.931
54.0, -47618.22344281953, -29129.48627823428, 187500.0, 187500.0, 187500.0, 187500.0, 187500.0, 187500.0, 0.034, 0.996, -0.002, 192.0, 1.0, 16.0, 31.0, 32.0, 255.0, 240.0, 0.0, 0.0, 0.0, 1.682097107931286E9, 0.0, 2023-04-21 12:11:47.931
55.0, -47562.36643342572, -29192.741715042797, 187500.0, 187500.0, 187500.0, 187500.0, 187500.0, 187500.0, 0.034, 0.996, -0.002, 192.0, 0.0, 0.0, 0.0, 0.0, 0.0, 0.0, 0.0, 0.0, 0.0, 1.6820971079313028E9, 0.0, 2023-04-21 12:11:47.931
56.0, -47719.87917660227, -29325.444021873955, 187500.0, 187500.0, 187500.0, 187500.0, 187500.0, 187500.0, 0.034, 0.996, -0.002, 192.0, 0.0, 0.0, 0.0, 0.0, 0.0, 0.0, 0.0, 0.0, 0.0, 1.6820971079313133E9, 0.0, 2023-04-21 12:11:47.931
57.0, -47811.498977124575, -29285.412047554502, 187500.0, 187500.0, 187500.0, 187500.0, 187500.0, 187500.0, 0.034, 0.996, -0.002, 192.0, 0.0, 0.0, 0.0, 0.0, 0.0, 0.0, 0.0, 0.0, 0.0, 1.682097107931323E9, 0.0, 2023-04-21 12:11:47.931
58.0, -47653.31568161437, -29157.738883225786, 187500.0, 187500.0, 187500.0, 187500.0, 187500.0, 187500.0, 0.034, 0.996, -0.002, 192.0, 0.0, 0.0, 0.0, 0.0, 0.0, 0.0, 0.0, 0.0, 0.0, 1.6820971079313326E9, 0.0, 2023-04-21 12:11:47.931
59.0, -47558.209008957034, -29172.28986886619, 187500.0, 187500.0, 187500.0, 187500.0, 187500.0, 187500.0, 0.034, 0.996, -0.002, 192.0, 0.0, 0.0, 0.0, 0.0, 0.0, 0.0, 0.0, 0.0, 0.0, 1.682097107931358E9, 0.0, 2023-04-21 12:11:47.931
60.0, -47711.027885797965, -29321.063079960717, 187500.0, 187500.0, 187500.0, 187500.0, 187500.0, 187500.0, 0.034, 0.996, -0.002, 192.0, 0.0, 0.0, 0.0, 0.0, 0.0, 0.0, 0.0, 0.0, 0.0, 1.6820971079313679E9, 0.0, 2023-04-21 12:11:47.931
61.0, -47821.69137259619, -29299.247777372337, 187500.0, 187500.0, 187500.0, 187500.0, 187500.0, 187500.0, 0.034, 0.996, -0.002, 192.0, 0.0, 0.0, 0.0, 0.0, 0.0, 0.0, 0.0, 0.0, 0.0, 1.6820971079313774E9, 0.0, 2023-04-21 12:11:47.931
62.0, -47695.225202468064, -29175.285002623204, 187500.0, 187500.0, 187500.0, 187500.0, 187500.0, 187500.0, 0.034, 0.996, -0.002, 192.0, 0.0, 0.0, 0.0, 0.0, 0.0, 0.0, 0.0, 0.0, 0.0, 1.6820971079313874E9, 0.0, 2023-04-21 12:11:47.931
63.0, -47547.234302429475, -29144.23842957478, 187500.0, 187500.0, 187500.0, 187500.0, 187500.0, 187500.0, 0.034, 0.996, -0.002, 192.0, 0.0, 0.0, 0.0, 0.0, 0.0, 0.0, 0.0, 0.0, 0.0, 1.6820971079313967E9, 0.0, 2023-04-21 12:11:47.931
64.0, -47661.56347531837, -29304.746306508343, 187500.0, 187500.0, 187500.0, 187500.0, 187500.0, 187500.0, 0.036000000000000004, 0.998, 0.004, 192.0, 1.0, 32.0, 31.0, 48.0, 0.0, 32.0, 0.0, 0.0, 0.0, 1.6820971079314067E9, 0.0, 2023-04-21 12:11:47.931
65.0, -47819.23268070611, -29311.317719378203, 187500.0, 187500.0, 187500.0, 187500.0, 187500.0, 187500.0, 0.036000000000000004, 0.998, 0.004, 192.0, 0.0, 0.0, 0.0, 0.0, 0.0, 0.0, 0.0, 0.0, 0.0, 1.6820971079314215E9, 0.0, 2023-04-21 12:11:47.931
66.0, -47726.830569127866, -29186.460874850858, 187500.0, 187500.0, 187500.0, 187500.0, 187500.0, 187500.0, 0.036000000000000004, 0.998, 0.004, 192.0, 0.0, 0.0, 0.0, 0.0, 0.0, 0.0, 0.0, 0.0, 0.0, 1.6820971079314313E9, 0.0, 2023-04-21 12:11:47.931
67.0, -47540.12644769269, -29111.291958247657, 187500.0, 187500.0, 187500.0, 187500.0, 187500.0, 187500.0, 0.036000000000000004, 0.998, 0.004, 192.0, 0.0, 0.0, 0.0, 0.0, 0.0, 0.0, 0.0, 0.0, 0.0, 1.6820971079314408E9, 0.0, 2023-04-21 12:11:47.931
68.0, -47611.51791948294, -29276.292535816734, 187500.0, 187500.0, 187500.0, 187500.0, 187500.0, 187500.0, 0.036000000000000004, 0.998, 0.004, 192.0, 0.0, 0.0, 0.0, 0.0, 0.0, 0.0, 0.0, 0.0, 0.0, 1.6820971079314518E9, 0.0, 2023-04-21 12:11:47.931
69.0, -47813.35417191436, -29320.884266005072, 187500.0, 187500.0, 187500.0, 187500.0, 187500.0, 187500.0, 0.036000000000000004, 0.998, 0.004, 192.0, 0.0, 0.0, 0.0, 0.0, 0.0, 0.0, 0.0, 0.0, 0.0, 1.6820971079314616E9, 0.0, 2023-04-21 12:11:47.931
70.0, -47777.88195346379, -29220.59198863411, 187500.0, 187500.0, 187500.0, 187500.0, 187500.0, 187500.0, 0.036000000000000004, 0.998, 0.004, 192.0, 0.0, 0.0, 0.0, 0.0, 0.0, 0.0, 0.0, 0.0, 0.0, 1.682097107931471E9, 0.0, 2023-04-21 12:11:47.931
71.0, -47577.69973012206, -29114.46590596031, 187500.0, 187500.0, 187500.0, 187500.0, 187500.0, 187500.0, 0.036000000000000004, 0.998, 0.004, 192.0, 0.0, 0.0, 0.0, 0.0, 0.0, 0.0, 0.0, 0.0, 0.0, 1.682097107931481E9, 0.0, 2023-04-21 12:11:47.931
72.0, -47608.99217235949, -29247.056454069192, 187500.0, 187500.0, 187500.0, 187500.0, 187500.0, 187500.0, 0.036000000000000004, 0.998, 0.004, 192.0, 0.0, 0.0, 0.0, 0.0, 0.0, 0.0, 0.0, 0.0, 0.0, 1.6820971079314904E9, 0.0, 2023-04-21 12:11:47.931
73.0, -47792.52234608202, -29336.95517026844, 187500.0, 187500.0, 187500.0, 187500.0, 187500.0, 187500.0, 0.036000000000000004, 0.998, 0.004, 192.0, 0.0, 0.0, 0.0, 0.0, 0.0, 0.0, 0.0, 0.0, 0.0, 1.6820971079315E9, 0.0, 2023-04-21 12:11:47.931
74.0, -47797.88676475129, -29254.11960531707, 187500.0, 187500.0, 187500.0, 187500.0, 187500.0, 187500.0, 0.032, 1.004, 0.008, 192.0, 1.0, 0.0, 31.0, 96.0, 0.0, 64.0, 0.0, 0.0, 0.0, 1.6820971079315236E9, 0.0, 2023-04-21 12:11:47.931
75.0, -47592.89891635167, -29131.14030732397, 187500.0, 187500.0, 187500.0, 187500.0, 187500.0, 187500.0, 0.032, 1.004, 0.008, 192.0, 0.0, 0.0, 0.0, 0.0, 0.0, 0.0, 0.0, 0.0, 0.0, 1.6820971079315338E9, 0.0, 2023-04-21 12:11:47.931
76.0, -47579.62198014522, -29236.662892897475, 187500.0, 187500.0, 187500.0, 187500.0, 187500.0, 187500.0, 0.032, 1.004, 0.008, 192.0, 0.0, 0.0, 0.0, 0.0, 0.0, 0.0, 0.0, 0.0, 0.0, 1.6820971079315434E9, 0.0, 2023-04-21 12:11:47.931
77.0, -47766.66137774722, -29343.303065693744, 187500.0, 187500.0, 187500.0, 187500.0, 187500.0, 187500.0, 0.032, 1.004, 0.008, 192.0, 0.0, 0.0, 0.0, 0.0, 0.0, 0.0, 0.0, 0.0, 0.0, 1.682097107931553E9, 0.0, 2023-04-21 12:11:47.931
78.0, -47827.52517789903, -29271.039875869737, 187500.0, 187500.0, 187500.0, 187500.0, 187500.0, 187500.0, 0.032, 1.004, 0.008, 192.0, 0.0, 0.0, 0.0, 0.0, 0.0, 0.0, 0.0, 0.0, 0.0, 1.682097107931563E9, 0.0, 2023-04-21 12:11:47.931
79.0, -47639.323489585346, -29131.34147302407, 187500.0, 187500.0, 187500.0, 187500.0, 187500.0, 187500.0, 0.032, 1.004, 0.008, 192.0, 0.0, 0.0, 0.0, 0.0, 0.0, 0.0, 0.0, 0.0, 0.0, 1.6820971079315724E9, 0.0, 2023-04-21 12:11:47.931
80.0, -47574.36932019822, -29197.860264523064, 187500.0, 187500.0, 187500.0, 187500.0, 187500.0, 187500.0, 0.032, 1.004, 0.008, 192.0, 0.0, 0.0, 0.0, 0.0, 0.0, 0.0, 0.0, 0.0, 0.0, 1.682097107931582E9, 0.0, 2023-04-21 12:11:47.931
81.0, -47745.427220514684, -29334.585885356177, 187500.0, 187500.0, 187500.0, 187500.0, 187500.0, 187500.0, 0.032, 1.004, 0.008, 192.0, 0.0, 0.0, 0.0, 0.0, 0.0, 0.0, 0.0, 0.0, 0.0, 1.6820971079315915E9, 0.0, 2023-04-21 12:11:47.931
82.0, -47837.427000692725, -29288.697753989432, 187500.0, 187500.0, 187500.0, 187500.0, 187500.0, 187500.0, 0.032, 1.004, 0.008, 192.0, 0.0, 0.0, 0.0, 0.0, 0.0, 0.0, 0.0, 0.0, 0.0, 1.682097107931601E9, 0.0, 2023-04-21 12:11:47.931
83.0, -47681.43417613914, -29159.594078015576, 187500.0, 187500.0, 187500.0, 187500.0, 187500.0, 187500.0, 0.032, 1.004, 0.008, 192.0, 0.0, 0.0, 0.0, 0.0, 0.0, 0.0, 0.0, 0.0, 0.0, 1.6820971079316103E9, 0.0, 2023-04-21 12:11:47.931
84.0, -47570.56952364082, -29179.800055003176, 187500.0, 187500.0, 187500.0, 187500.0, 187500.0, 187500.0, 0.032, 1.004, 0.008, 192.0, 0.0, 0.0, 0.0, 0.0, 0.0, 0.0, 0.0, 0.0, 0.0, 1.68209710793162E9, 0.0, 2023-04-21 12:11:47.931
85.0, -47702.221298482575, -29334.22825744489, 187500.0, 187500.0, 187500.0, 187500.0, 187500.0, 187500.0, 0.036000000000000004, 0.99, 0.002, 192.0, 1.0, 32.0, 30.0, 240.0, 0.0, 16.0, 0.0, 0.0, 0.0, 1.6820971079316294E9, 0.0, 2023-04-21 12:11:47.931
86.0, -47817.9362795277, -29300.99121343985, 187500.0, 187500.0, 187500.0, 187500.0, 187500.0, 187500.0, 0.036000000000000004, 0.99, 0.002, 192.0, 0.0, 0.0, 0.0, 0.0, 0.0, 0.0, 0.0, 0.0, 0.0, 1.6820971079316394E9, 0.0, 2023-04-21 12:11:47.931
87.0, -47695.89575480173, -29172.91571771094, 187500.0, 187500.0, 187500.0, 187500.0, 187500.0, 187500.0, 0.036000000000000004, 0.99, 0.002, 192.0, 0.0, 0.0, 0.0, 0.0, 0.0, 0.0, 0.0, 0.0, 0.0, 1.682097107931649E9, 0.0, 2023-04-21 12:11:47.931
88.0, -47562.14291598117, -29152.441519789878, 187500.0, 187500.0, 187500.0, 187500.0, 187500.0, 187500.0, 0.036000000000000004, 0.99, 0.002, 192.0, 0.0, 0.0, 0.0, 0.0, 0.0, 0.0, 0.0, 0.0, 0.0, 1.6820971079316585E9, 0.0, 2023-04-21 12:11:47.931
89.0, -47688.05029249791, -29315.810420013717, 187500.0, 187500.0, 187500.0, 187500.0, 187500.0, 187500.0, 0.036000000000000004, 0.99, 0.002, 192.0, 0.0, 0.0, 0.0, 0.0, 0.0, 0.0, 0.0, 0.0, 0.0, 1.6820971079316835E9, 0.0, 2023-04-21 12:11:47.931
90.0, -47838.969271060145, -29326.80747828573, 187500.0, 187500.0, 187500.0, 187500.0, 187500.0, 187500.0, 0.036000000000000004, 0.99, 0.002, 192.0, 0.0, 0.0, 0.0, 0.0, 0.0, 0.0, 0.0, 0.0, 0.0, 1.6820971079316933E9, 0.0, 2023-04-21 12:11:47.931
91.0, -47761.90045617825, -29216.725136843343, 187500.0, 187500.0, 187500.0, 187500.0, 187500.0, 187500.0, 0.036000000000000004, 0.99, 0.002, 192.0, 0.0, 0.0, 0.0, 0.0, 0.0, 0.0, 0.0, 0.0, 0.0, 1.6820971079317029E9, 0.0, 2023-04-21 12:11:47.931
92.0, -47575.911590565636, -29136.817650415618, 187500.0, 187500.0, 187500.0, 187500.0, 187500.0, 187500.0, 0.036000000000000004, 0.99, 0.002, 192.0, 0.0, 0.0, 0.0, 0.0, 0.0, 0.0, 0.0, 0.0, 0.0, 1.6820971079317124E9, 0.0, 2023-04-21 12:11:47.931
93.0, -47639.032916907425, -29286.820207455185, 187500.0, 187500.0, 187500.0, 187500.0, 187500.0, 187500.0, 0.036000000000000004, 0.99, 0.002, 192.0, 0.0, 0.0, 0.0, 0.0, 0.0, 0.0, 0.0, 0.0, 0.0, 1.682097107931722E9, 0.0, 2023-04-21 12:11:47.931
94.0, -47800.45721536365, -29324.19232418446, 187500.0, 187500.0, 187500.0, 187500.0, 187500.0, 187500.0, 0.036000000000000004, 0.99, 0.002, 192.0, 0.0, 0.0, 0.0, 0.0, 0.0, 0.0, 0.0, 0.0, 0.0, 1.6820971079317317E9, 0.0, 2023-04-21 12:11:47.931
95.0, -47768.47186904811, -29226.626959637044, 187500.0, 187500.0, 187500.0, 187500.0, 187500.0, 187500.0, 0.036000000000000004, 0.998, -0.004, 192.0, 1.0, 32.0, 31.0, 48.0, 255.0, 224.0, 0.0, 0.0, 0.0, 1.6820971079317424E9, 0.0, 2023-04-21 12:11:47.931
96.0, -47603.448939734575, -29135.29773179266, 187500.0, 187500.0, 187500.0, 187500.0, 187500.0, 187500.0, 0.036000000000000004, 0.998, -0.004, 192.0, 0.0, 0.0, 0.0, 0.0, 0.0, 0.0, 0.0, 0.0, 0.0, 1.6820971079317527E9, 0.0, 2023-04-21 12:11:47.931
97.0, -47634.02612614944, -29263.283820543747, 187500.0, 187500.0, 187500.0, 187500.0, 187500.0, 187500.0, 0.036000000000000004, 0.998, -0.004, 192.0, 0.0, 0.0, 0.0, 0.0, 0.0, 0.0, 0.0, 0.0, 0.0, 1.6820971079317625E9, 0.0, 2023-04-21 12:11:47.931
98.0, -47809.35320965686, -29339.883248792084, 187500.0, 187500.0, 187500.0, 187500.0, 187500.0, 187500.0, 0.036000000000000004, 0.998, -0.004, 192.0, 0.0, 0.0, 0.0, 0.0, 0.0, 0.0, 0.0, 0.0, 0.0, 1.682097107931772E9, 0.0, 2023-04-21 12:11:47.931
99.0, -47823.56891913044, -29253.918439616973, 187500.0, 187500.0, 187500.0, 187500.0, 187500.0, 187500.0, 0.036000000000000004, 0.998, -0.004, 192.0, 0.0, 0.0, 0.0, 0.0, 0.0, 0.0, 0.0, 0.0, 0.0, 1.682097107931782E9, 0.0, 2023-04-21 12:11:47.931
100.0, -47631.478027281526, -29143.277304563202, 187500.0, 187500.0, 187500.0, 187500.0, 187500.0, 187500.0, 0.036000000000000004, 0.998, -0.004, 192.0, 0.0, 0.0, 0.0, 0.0, 0.0, 0.0, 0.0, 0.0, 0.0, 1.6820971079317915E9, 0.0, 2023-04-21 12:11:47.931
101.0, -47601.638448433696, -29258.522898974767, 187500.0, 187500.0, 187500.0, 187500.0, 187500.0, 187500.0, 0.036000000000000004, 0.998, -0.004, 192.0, 0.0, 0.0, 0.0, 0.0, 0.0, 0.0, 0.0, 0.0, 0.0, 1.6820971079318013E9, 0.0, 2023-04-21 12:11:47.931
102.0, -47775.19974412915, -29349.71801635242, 187500.0, 187500.0, 187500.0, 187500.0, 187500.0, 187500.0, 0.036000000000000004, 0.998, -0.004, 192.0, 0.0, 0.0, 0.0, 0.0, 0.0, 0.0, 0.0, 0.0, 0.0, 1.6820971079318109E9, 0.0, 2023-04-21 12:11:47.931
103.0, -47847.284119997516, -29278.259489328804, 187500.0, 187500.0, 187500.0, 187500.0, 187500.0, 187500.0, 0.036000000000000004, 0.998, -0.004, 192.0, 0.0, 0.0, 0.0, 0.0, 0.0, 0.0, 0.0, 0.0, 0.0, 1.6820971079318204E9, 0.0, 2023-04-21 12:11:47.931
104.0, -47666.97259747655, -29149.714606966332, 187500.0, 187500.0, 187500.0, 187500.0, 187500.0, 187500.0, 0.036000000000000004, 0.998, -0.004, 192.0, 0.0, 0.0, 0.0, 0.0, 0.0, 0.0, 0.0, 0.0, 0.0, 1.682097107931874E9, 0.0, 2023-04-21 12:11:47.931
105.0, -47573.92228530911, -29189.90304349697, 187500.0, 187500.0, 187500.0, 187500.0, 187500.0, 187500.0, 0.034, 1.008, -0.006, 192.0, 1.0, 16.0, 31.0, 128.0, 255.0, 208.0, 0.0, 0.0, 0.0, 1.6820971079318843E9, 0.0, 2023-04-21 12:11:47.931
106.0, -47724.461284215606, -29316.480972347377, 187500.0, 187500.0, 187500.0, 187500.0, 187500.0, 187500.0, 0.034, 1.008, -0.006, 192.0, 0.0, 0.0, 0.0, 0.0, 0.0, 0.0, 0.0, 0.0, 0.0, 1.6820971079454565E9, 0.0, 2023-04-21 12:11:47.945
107.0, -47823.92654704172, -29273.16329159299, 187500.0, 187500.0, 187500.0, 187500.0, 187500.0, 187500.0, 0.034, 1.008, -0.006, 192.0, 0.0, 0.0, 0.0, 0.0, 0.0, 0.0, 0.0, 0.0, 0.0, 1.6820971079454975E9, 0.0, 2023-04-21 12:11:47.945
108.0, -47676.516792358976, -29156.777758214208, 187500.0, 187500.0, 187500.0, 187500.0, 187500.0, 187500.0, 0.034, 1.008, -0.006, 192.0, 0.0, 0.0, 0.0, 0.0, 0.0, 0.0, 0.0, 0.0, 0.0, 1.6820971079455113E9, 0.0, 2023-04-21 12:11:47.945
109.0, -47577.27504697741, -29176.40258984597, 187500.0, 187500.0, 187500.0, 187500.0, 187500.0, 187500.0, 0.034, 1.008, -0.006, 192.0, 0.0, 0.0, 0.0, 0.0, 0.0, 0.0, 0.0, 0.0, 0.0, 1.6820971079455245E9, 0.0, 2023-04-21 12:11:47.945
110.0, -47723.45545571512, -29336.70930107943, 187500.0, 187500.0, 187500.0, 187500.0, 187500.0, 187500.0, 0.034, 1.008, -0.006, 192.0, 0.0, 0.0, 0.0, 0.0, 0.0, 0.0, 0.0, 0.0, 0.0, 1.6820971079455523E9, 0.0, 2023-04-21 12:11:47.945
111.0, -47852.06739331096, -29317.978539225882, 187500.0, 187500.0, 187500.0, 187500.0, 187500.0, 187500.0, 0.034, 1.008, -0.006, 192.0, 0.0, 0.0, 0.0, 0.0, 0.0, 0.0, 0.0, 0.0, 0.0, 1.682097107945564E9, 0.0, 2023-04-21 12:11:47.945
115.0, -47723.09782780383, -29248.48696571433, 187500.0, 187500.0, 187500.0, 187500.0, 187500.0, 187500.0, 0.056, 0.992, 0.012, 192.0, 1.0, 192.0, 31.0, 0.0, 0.0, 96.0, 0.0, 0.0, 0.0, 1.682097107945576E9, 0.0, 2023-04-21 12:11:47.945
0.0, 0.0, 0.0, 0.0, 0.0, 0.0, 0.0, 0.0, 0.0, 0.056, 0.992, 0.012, 192.0, 0.0, 0.0, 0.0, 0.0, 0.0, 0.0, 0.0, 0.0, 0.0, 1.6820971079455884E9, 0.0, 2023-04-21 12:11:47.945
0.0, 0.0, 0.0, 0.0, 0.0, 0.0, 0.0, 0.0, 0.0, 0.06, 0.99, -0.03, 192.0, 1.0, 224.0, 30.0, 240.0, 255.0, 16.0, 0.0, 0.0, 0.0, 1.6820971080258806E9, 0.0, 2023-04-21 12:11:48.025
1.0, -49717.23106112851, -30013.408364463852, 187500.0, 187500.0, 187500.0, 187500.0, 187500.0, 187500.0, 0.06, 0.99, -0.03, 192.0, 0.0, 0.0, 0.0, 0.0, 0.0, 0.0, 0.0, 0.0, 0.0, 1.6820971080420196E9, 0.0, 2023-04-21 12:11:48.042
2.0, -49651.360470218715, -29977.533814613085, 187500.0, 187500.0, 187500.0, 187500.0, 187500.0, 187500.0, 0.06, 0.99, -0.03, 192.0, 0.0, 0.0, 0.0, 0.0, 0.0, 0.0, 0.0, 0.0, 0.0, 1.682097108058092E9, 0.0, 2023-04-21 12:11:48.058
3.0, -49711.03962791439, -30127.268150719185, 187500.0, 187500.0, 187500.0, 187500.0, 187500.0, 187500.0, 0.06, 0.99, -0.03, 192.0, 0.0, 0.0, 0.0, 0.0, 0.0, 0.0, 0.0, 0.0, 0.0, 1.6820971080741224E9, 0.0, 2023-04-21 12:11:48.074
4.0, -49795.26100102199, -30154.760796399212, 187500.0, 187500.0, 187500.0, 187500.0, 187500.0, 187500.0, 0.06, 0.99, -0.03, 192.0, 0.0, 0.0, 0.0, 0.0, 0.0, 0.0, 0.0, 0.0, 0.0, 1.6820971082642157E9, 0.0, 2023-04-21 12:11:48.264
5.0, -49750.53516036692, -30056.591934751505, 187500.0, 187500.0, 187500.0, 187500.0, 187500.0, 187500.0, 0.06, 0.99, -0.03, 192.0, 0.0, 0.0, 0.0, 0.0, 0.0, 0.0, 0.0, 0.0, 0.0, 1.6820971082642395E9, 0.0, 2023-04-21 12:11:48.264
6.0, -49670.806487894835, -29991.593061875472, 187500.0, 187500.0, 187500.0, 187500.0, 187500.0, 187500.0, 0.06, 0.99, -0.03, 192.0, 0.0, 0.0, 0.0, 0.0, 0.0, 0.0, 0.0, 0.0, 0.0, 1.682097108264305E9, 0.0, 2023-04-21 12:11:48.264
7.0, -49712.89482270418, -30156.236011533263, 187500.0, 187500.0, 187500.0, 187500.0, 187500.0, 187500.0, 0.06, 0.99, -0.03, 192.0, 0.0, 0.0, 0.0, 0.0, 0.0, 0.0, 0.0, 0.0, 0.0, 1.6820971082803164E9, 0.0, 2023-04-21 12:11:48.280
50.0, -49940.25676730356, -30454.855317456168, 187500.0, 187500.0, 187500.0, 187500.0, 187500.0, 187500.0, 0.06, 0.99, -0.03, 192.0, 0.0, 0.0, 0.0, 0.0, 0.0, 0.0, 0.0, 0.0, 0.0, 1.6820971083124812E9, 0.0, 2023-04-21 12:11:48.312
9.0, -49815.53403324295, -30124.317720451087, 187500.0, 187500.0, 187500.0, 187500.0, 187500.0, 187500.0, 0.06, 0.99, -0.03, 192.0, 0.0, 0.0, 0.0, 0.0, 0.0, 0.0, 0.0, 0.0, 0.0, 1.6820971083889794E9, 0.0, 2023-04-21 12:11:48.388
48.0, -49794.72455915506, -30292.13461782153, 187500.0, 187500.0, 187500.0, 187500.0, 187500.0, 187500.0, 0.06, 0.99, -0.03, 192.0, 0.0, 0.0, 0.0, 0.0, 0.0, 0.0, 0.0, 0.0, 0.0, 1.6820971083890045E9, 0.0, 2023-04-21 12:11:48.389
11.0, -49751.272767933944, -30156.660694677914, 187500.0, 187500.0, 187500.0, 187500.0, 187500.0, 187500.0, 0.06, 0.99, -0.03, 192.0, 0.0, 0.0, 0.0, 0.0, 0.0, 0.0, 0.0, 0.0, 0.0, 1.682097108389017E9, 0.0, 2023-04-21 12:11:48.389
12.0, -49854.269606384, -30244.480698642816, 187500.0, 187500.0, 187500.0, 187500.0, 187500.0, 187500.0, 0.06, 0.99, -0.03, 192.0, 0.0, 0.0, 0.0, 0.0, 0.0, 0.0, 0.0, 0.0, 0.0, 1.6820971083890288E9, 0.0, 2023-04-21 12:11:48.389
46.0, -49940.234415559105, -30410.934139601486, 187500.0, 187500.0, 187500.0, 187500.0, 187500.0, 187500.0, 0.06, 0.99, -0.03, 192.0, 0.0, 0.0, 0.0, 0.0, 0.0, 0.0, 0.0, 0.0, 0.0, 1.68209710838904E9, 0.0, 2023-04-21 12:11:48.389
14.0, -49745.394259142195, -30054.960257406266, 187500.0, 187500.0, 187500.0, 187500.0, 187500.0, 187500.0, 0.06, 0.99, -0.03, 192.0, 0.0, 0.0, 0.0, 0.0, 0.0, 0.0, 0.0, 0.0, 0.0, 1.682097108389052E9, 0.0, 2023-04-21 12:11:48.389
15.0, -49745.41661088665, -30158.53824121216, 187500.0, 187500.0, 187500.0, 187500.0, 187500.0, 187500.0, 0.06, 0.99, -0.03, 192.0, 0.0, 0.0, 0.0, 0.0, 0.0, 0.0, 0.0, 0.0, 0.0, 1.682097108389063E9, 0.0, 2023-04-21 12:11:48.389
16.0, -49848.83813248135, -30278.164777536964, 187500.0, 187500.0, 187500.0, 187500.0, 187500.0, 187500.0, 0.06, 0.99, -0.03, 192.0, 0.0, 0.0, 0.0, 0.0, 0.0, 0.0, 0.0, 0.0, 0.0, 1.682097108389074E9, 0.0, 2023-04-21 12:11:48.389
44.0, -49824.58648974735, -30315.626301244058, 187500.0, 187500.0, 187500.0, 187500.0, 187500.0, 187500.0, 0.06, 0.99, -0.03, 192.0, 0.0, 0.0, 0.0, 0.0, 0.0, 0.0, 0.0, 0.0, 0.0, 1.6820971083890853E9, 0.0, 2023-04-21 12:11:48.389
77.0, -49745.75188705348, -30312.966443653877, 187500.0, 187500.0, 187500.0, 187500.0, 187500.0, 187500.0, 0.06, 0.99, -0.03, 192.0, 0.0, 0.0, 0.0, 0.0, 0.0, 0.0, 0.0, 0.0, 0.0, 1.682097108389104E9, 0.0, 2023-04-21 12:11:48.389
19.0, -49779.68183513664, -30213.79175350568, 187500.0, 187500.0, 187500.0, 187500.0, 187500.0, 187500.0, 0.06, 0.99, -0.03, 192.0, 0.0, 0.0, 0.0, 0.0, 0.0, 0.0, 0.0, 0.0, 0.0, 1.682097108389115E9, 0.0, 2023-04-21 12:11:48.389
40.0, -49838.95866143211, -30343.789499257746, 187500.0, 187500.0, 187500.0, 187500.0, 187500.0, 187500.0, 0.06, 0.99, -0.03, 192.0, 0.0, 0.0, 0.0, 0.0, 0.0, 0.0, 0.0, 0.0, 0.0, 1.6820971083891284E9, 0.0, 2023-04-21 12:11:48.389
75.0, -49892.91577254722, -30481.40918986907, 187500.0, 187500.0, 187500.0, 187500.0, 187500.0, 187500.0, 0.06, 0.99, -0.03, 192.0, 0.0, 0.0, 0.0, 0.0, 0.0, 0.0, 0.0, 0.0, 0.0, 1.6820971083891826E9, 0.0, 2023-04-21 12:11:48.389
73.0, -49737.74996253848, -30322.220065858375, 187500.0, 187500.0, 187500.0, 187500.0, 187500.0, 187500.0, 0.06, 0.99, -0.03, 192.0, 0.0, 0.0, 0.0, 0.0, 0.0, 0.0, 0.0, 0.0, 0.0, 1.682097108433123E9, 0.0, 2023-04-21 12:11:48.433
36.0, -49839.360992832306, -30363.481386122872, 187500.0, 187500.0, 187500.0, 187500.0, 187500.0, 187500.0, 0.06, 0.99, -0.03, 192.0, 0.0, 0.0, 0.0, 0.0, 0.0, 0.0, 0.0, 0.0, 0.0, 1.6820971084331548E9, 0.0, 2023-04-21 12:11:48.433
71.0, -49889.38419692328, -30460.97969543692, 187500.0, 187500.0, 187500.0, 187500.0, 187500.0, 187500.0, 0.06, 0.99, -0.03, 192.0, 0.0, 0.0, 0.0, 0.0, 0.0, 0.0, 0.0, 0.0, 0.0, 1.682097108433168E9, 0.0, 2023-04-21 12:11:48.433
34.0, -49919.536700193494, -30342.62720854607, 187500.0, 187500.0, 187500.0, 187500.0, 187500.0, 187500.0, 0.06, 0.99, -0.03, 192.0, 0.0, 0.0, 0.0, 0.0, 0.0, 0.0, 0.0, 0.0, 0.0, 1.6820971084331808E9, 0.0, 2023-04-21 12:11:48.433
26.0, -49878.16362120672, -30260.976286050834, 187500.0, 187500.0, 187500.0, 187500.0, 187500.0, 187500.0, 0.06, 0.99, -0.03, 192.0, 0.0, 0.0, 0.0, 0.0, 0.0, 0.0, 0.0, 0.0, 0.0, 1.6820971084331927E9, 0.0, 2023-04-21 12:11:48.433
69.0, -49754.46906739105, -30334.021786930774, 187500.0, 187500.0, 187500.0, 187500.0, 187500.0, 187500.0, 0.046, 0.996, -0.054, 192.0, 1.0, 112.0, 31.0, 32.0, 254.0, 80.0, 0.0, 0.0, 0.0, 1.6820971084332051E9, 0.0, 2023-04-21 12:11:48.433
55.0, -49892.98282778059, -30358.25107792033, 187500.0, 187500.0, 187500.0, 187500.0, 187500.0, 187500.0, 0.046, 0.996, -0.054, 192.0, 0.0, 0.0, 0.0, 0.0, 0.0, 0.0, 0.0, 0.0, 0.0, 1.682097108449257E9, 0.0, 2023-04-21 12:11:48.449
62.0, -49889.898287045755, -30478.101131689684, 187500.0, 187500.0, 187500.0, 187500.0, 187500.0, 187500.0, 0.046, 0.996, -0.054, 192.0, 0.0, 0.0, 0.0, 0.0, 0.0, 0.0, 0.0, 0.0, 0.0, 1.682097108474382E9, 0.0, 2023-04-21 12:11:48.474
67.0, -49903.35403720785, -30443.16535510604, 187500.0, 187500.0, 187500.0, 187500.0, 187500.0, 187500.0, 0.046, 0.996, -0.054, 192.0, 0.0, 0.0, 0.0, 0.0, 0.0, 0.0, 0.0, 0.0, 0.0, 1.6820971084744108E9, 0.0, 2023-04-21 12:11:48.474
60.0, -49780.95588457059, -30265.37957970853, 187500.0, 187500.0, 187500.0, 187500.0, 187500.0, 187500.0, 0.046, 0.996, -0.054, 192.0, 0.0, 0.0, 0.0, 0.0, 0.0, 0.0, 0.0, 0.0, 0.0, 1.6820971084744248E9, 0.0, 2023-04-21 12:11:48.474
56.0, -49790.45537596409, -30269.80522511068, 187500.0, 187500.0, 187500.0, 187500.0, 187500.0, 187500.0, 0.046, 0.996, -0.054, 192.0, 0.0, 0.0, 0.0, 0.0, 0.0, 0.0, 0.0, 0.0, 0.0, 1.6820971085116477E9, 0.0, 2023-04-21 12:11:48.511
65.0, -49771.76931759946, -30353.378397629072, 187500.0, 187500.0, 187500.0, 187500.0, 187500.0, 187500.0, 0.046, 0.996, -0.054, 192.0, 0.0, 0.0, 0.0, 0.0, 0.0, 0.0, 0.0, 0.0, 0.0, 1.682097108511679E9, 0.0, 2023-04-21 12:11:48.511
58.0, -49904.76219710853, -30461.27026811484, 187500.0, 187500.0, 187500.0, 187500.0, 187500.0, 187500.0, 0.046, 0.996, -0.054, 192.0, 0.0, 0.0, 0.0, 0.0, 0.0, 0.0, 0.0, 0.0, 0.0, 1.6820971085116932E9, 0.0, 2023-04-21 12:11:48.511
63.0, -49906.34917096486, -30418.06434608273, 187500.0, 187500.0, 187500.0, 187500.0, 187500.0, 187500.0, 0.046, 0.996, -0.054, 192.0, 0.0, 0.0, 0.0, 0.0, 0.0, 0.0, 0.0, 0.0, 0.0, 1.6820971085117052E9, 0.0, 2023-04-21 12:11:48.511
78.0, -49788.82369861886, -30464.4889193164, 187500.0, 187500.0, 187500.0, 187500.0, 187500.0, 187500.0, 0.046, 0.996, -0.054, 192.0, 0.0, 0.0, 0.0, 0.0, 0.0, 0.0, 0.0, 0.0, 0.0, 1.6820971085357687E9, 0.0, 2023-04-21 12:11:48.535
79.0, -49880.08587122987, -30500.430524400537, 187500.0, 187500.0, 187500.0, 187500.0, 187500.0, 187500.0, 0.046, 0.996, -0.054, 192.0, 0.0, 0.0, 0.0, 0.0, 0.0, 0.0, 0.0, 0.0, 0.0, 1.6820971085358064E9, 0.0, 2023-04-21 12:11:48.535
80.0, -49841.84203646684, -30394.952642315944, 187500.0, 187500.0, 187500.0, 187500.0, 187500.0, 187500.0, 0.048, 0.992, -0.056, 192.0, 1.0, 128.0, 31.0, 0.0, 254.0, 64.0, 0.0, 0.0, 0.0, 1.6820971085358193E9, 0.0, 2023-04-21 12:11:48.535
81.0, -49744.88016901972, -30308.227873829353, 187500.0, 187500.0, 187500.0, 187500.0, 187500.0, 187500.0, 0.048, 0.992, -0.056, 192.0, 0.0, 0.0, 0.0, 0.0, 0.0, 0.0, 0.0, 0.0, 0.0, 1.6820971085679097E9, 0.0, 2023-04-21 12:11:48.567
82.0, -49775.41265194567, -30452.463680799447, 187500.0, 187500.0, 187500.0, 187500.0, 187500.0, 187500.0, 0.048, 0.992, -0.056, 192.0, 0.0, 0.0, 0.0, 0.0, 0.0, 0.0, 0.0, 0.0, 0.0, 1.682097108567938E9, 0.0, 2023-04-21 12:11:48.567
83.0, -49873.64856882675, -30525.062146790286, 187500.0, 187500.0, 187500.0, 187500.0, 187500.0, 187500.0, 0.048, 0.992, -0.056, 192.0, 0.0, 0.0, 0.0, 0.0, 0.0, 0.0, 0.0, 0.0, 0.0, 1.6820971085679505E9, 0.0, 2023-04-21 12:11:48.567
84.0, -49861.28805414296, -30447.07691038572, 187500.0, 187500.0, 187500.0, 187500.0, 187500.0, 187500.0, 0.048, 0.992, -0.056, 192.0, 0.0, 0.0, 0.0, 0.0, 0.0, 0.0, 0.0, 0.0, 0.0, 1.682097108567963E9, 0.0, 2023-04-21 12:11:48.567
85.0, -49760.928721538636, -30332.18894388544, 187500.0, 187500.0, 187500.0, 187500.0, 187500.0, 187500.0, 0.048, 0.992, -0.056, 192.0, 0.0, 0.0, 0.0, 0.0, 0.0, 0.0, 0.0, 0.0, 0.0, 1.6820971085940237E9, 0.0, 2023-04-21 12:11:48.594
86.0, -49765.01909077395, -30433.64351196808, 187500.0, 187500.0, 187500.0, 187500.0, 187500.0, 187500.0, 0.048, 0.992, -0.056, 192.0, 0.0, 0.0, 0.0, 0.0, 0.0, 0.0, 0.0, 0.0, 0.0, 1.6820971085940566E9, 0.0, 2023-04-21 12:11:48.594
87.0, -49856.39302210725, -30511.047603016807, 187500.0, 187500.0, 187500.0, 187500.0, 187500.0, 187500.0, 0.048, 0.992, -0.056, 192.0, 0.0, 0.0, 0.0, 0.0, 0.0, 0.0, 0.0, 0.0, 0.0, 1.6820971085940695E9, 0.0, 2023-04-21 12:11:48.594
88.0, -49860.17046692019, -30452.620143010634, 187500.0, 187500.0, 187500.0, 187500.0, 187500.0, 187500.0, 0.048, 0.992, -0.056, 192.0, 0.0, 0.0, 0.0, 0.0, 0.0, 0.0, 0.0, 0.0, 0.0, 1.6820971085940816E9, 0.0, 2023-04-21 12:11:48.594
105.0, -49783.5486869274, -30444.662921984545, 187500.0, 187500.0, 187500.0, 187500.0, 187500.0, 187500.0, 0.048, 0.992, -0.056, 192.0, 0.0, 0.0, 0.0, 0.0, 0.0, 0.0, 0.0, 0.0, 0.0, 1.6820971086282084E9, 0.0, 2023-04-21 12:11:48.628
90.0, -49734.10662819226, -30408.78837213378, 187500.0, 187500.0, 187500.0, 187500.0, 187500.0, 187500.0, 0.052000000000000005, 0.988, -0.054, 192.0, 1.0, 160.0, 30.0, 224.0, 254.0, 80.0, 0.0, 0.0, 0.0, 1.6820971086282344E9, 0.0, 2023-04-21 12:11:48.628
91.0, -49813.075341352866, -30522.022309544365, 187500.0, 187500.0, 187500.0, 187500.0, 187500.0, 187500.0, 0.052000000000000005, 0.988, -0.054, 192.0, 0.0, 0.0, 0.0, 0.0, 0.0, 0.0, 0.0, 0.0, 0.0, 1.6820971086282487E9, 0.0, 2023-04-21 12:11:48.628
103.0, -49723.82482574282, -30513.46159141798, 187500.0, 187500.0, 187500.0, 187500.0, 187500.0, 187500.0, 0.052000000000000005, 0.988, -0.054, 192.0, 0.0, 0.0, 0.0, 0.0, 0.0, 0.0, 0.0, 0.0, 0.0, 1.682097108628261E9, 0.0, 2023-04-21 12:11:48.628
109.0, -49779.793593858914, -30466.142948406097, 187500.0, 187500.0, 187500.0, 187500.0, 187500.0, 187500.0, 0.052000000000000005, 0.988, -0.054, 192.0, 0.0, 0.0, 0.0, 0.0, 0.0, 0.0, 0.0, 0.0, 0.0, 1.6820971086664505E9, 0.0, 2023-04-21 12:11:48.666
101.0, -49788.1531462852, -30426.379195020105, 187500.0, 187500.0, 187500.0, 187500.0, 187500.0, 187500.0, 0.052000000000000005, 0.988, -0.054, 192.0, 0.0, 0.0, 0.0, 0.0, 0.0, 0.0, 0.0, 0.0, 0.0, 1.6820971086664748E9, 0.0, 2023-04-21 12:11:48.666
97.0, -49766.31549195236, -30371.036275748764, 187500.0, 187500.0, 187500.0, 187500.0, 187500.0, 187500.0, 0.052000000000000005, 0.988, -0.054, 192.0, 0.0, 0.0, 0.0, 0.0, 0.0, 0.0, 0.0, 0.0, 0.0, 1.682097108666487E9, 0.0, 2023-04-21 12:11:48.666
98.0, -49705.898726689666, -30355.993551730342, 187500.0, 187500.0, 187500.0, 187500.0, 187500.0, 187500.0, 0.052000000000000005, 0.988, -0.054, 192.0, 0.0, 0.0, 0.0, 0.0, 0.0, 0.0, 0.0, 0.0, 0.0, 1.6820971086664984E9, 0.0, 2023-04-21 12:11:48.666
99.0, -49776.91021882418, -30508.857132060188, 187500.0, 187500.0, 187500.0, 187500.0, 187500.0, 187500.0, 0.052000000000000005, 0.988, -0.054, 192.0, 0.0, 0.0, 0.0, 0.0, 0.0, 0.0, 0.0, 0.0, 0.0, 1.6820971086665096E9, 0.0, 2023-04-21 12:11:48.666
114.0, -49678.40608100964, -30363.906069267523, 187500.0, 187500.0, 187500.0, 187500.0, 187500.0, 187500.0, 0.052000000000000005, 0.988, -0.054, 192.0, 0.0, 0.0, 0.0, 0.0, 0.0, 0.0, 0.0, 0.0, 0.0, 1.682097108666521E9, 0.0, 2023-04-21 12:11:48.666
121.0, -49778.877172336244, -30515.205027485496, 187500.0, 187500.0, 187500.0, 187500.0, 187500.0, 187500.0, 0.05, 0.992, -0.052000000000000005, 192.0, 1.0, 144.0, 31.0, 0.0, 254.0, 96.0, 0.0, 0.0, 0.0, 1.6820971086665323E9, 0.0, 2023-04-21 12:11:48.666
111.0, -49664.95033084755, -30444.528811517815, 187500.0, 187500.0, 187500.0, 187500.0, 187500.0, 187500.0, 0.05, 0.992, -0.052000000000000005, 192.0, 0.0, 0.0, 0.0, 0.0, 0.0, 0.0, 0.0, 0.0, 0.0, 1.6820971087117102E9, 0.0, 2023-04-21 12:11:48.711
128.0, -49665.285607014375, -30501.101076734198, 187500.0, 187500.0, 187500.0, 187500.0, 187500.0, 187500.0, 0.05, 0.992, -0.052000000000000005, 192.0, 0.0, 0.0, 0.0, 0.0, 0.0, 0.0, 0.0, 0.0, 0.0, 1.6820971087117372E9, 0.0, 2023-04-21 12:11:48.711
115.0, -49665.285607014375, -30432.414166023038, 187500.0, 187500.0, 187500.0, 187500.0, 187500.0, 187500.0, 0.05, 0.992, -0.052000000000000005, 192.0, 0.0, 0.0, 0.0, 0.0, 0.0, 0.0, 0.0, 0.0, 0.0, 1.6820971087117589E9, 0.0, 2023-04-21 12:11:48.711
116.0, -49742.33207015182, -30542.47415572097, 187500.0, 187500.0, 187500.0, 187500.0, 187500.0, 187500.0, 0.05, 0.992, -0.052000000000000005, 192.0, 0.0, 0.0, 0.0, 0.0, 0.0, 0.0, 0.0, 0.0, 0.0, 1.6820971087117708E9, 0.0, 2023-04-21 12:11:48.711
126.0, -49710.74905523647, -30433.419994523527, 187500.0, 187500.0, 187500.0, 187500.0, 187500.0, 187500.0, 0.05, 0.992, -0.052000000000000005, 192.0, 0.0, 0.0, 0.0, 0.0, 0.0, 0.0, 0.0, 0.0, 0.0, 1.6820971087117827E9, 0.0, 2023-04-21 12:11:48.711
122.0, -49690.69954046006, -30395.533787671782, 187500.0, 187500.0, 187500.0, 187500.0, 187500.0, 187500.0, 0.05, 0.992, -0.052000000000000005, 192.0, 0.0, 0.0, 0.0, 0.0, 0.0, 0.0, 0.0, 0.0, 0.0, 1.6820971087117949E9, 0.0, 2023-04-21 12:11:48.711
123.0, -49611.88728951065, -30362.7661303003, 187500.0, 187500.0, 187500.0, 187500.0, 187500.0, 187500.0, 0.05, 0.992, -0.052000000000000005, 192.0, 0.0, 0.0, 0.0, 0.0, 0.0, 0.0, 0.0, 0.0, 0.0, 1.6820971087118063E9, 0.0, 2023-04-21 12:11:48.711
124.0, -49684.88808690168, -30517.261387975384, 187500.0, 187500.0, 187500.0, 187500.0, 187500.0, 187500.0, 0.05, 0.992, -0.052000000000000005, 192.0, 0.0, 0.0, 0.0, 0.0, 0.0, 0.0, 0.0, 0.0, 0.0, 1.6820971087118185E9, 0.0, 2023-04-21 12:11:48.711
129.0, -49759.9452447826, -30542.787080143346, 187500.0, 187500.0, 187500.0, 187500.0, 187500.0, 187500.0, 0.05, 0.992, -0.052000000000000005, 192.0, 0.0, 0.0, 0.0, 0.0, 0.0, 0.0, 0.0, 0.0, 0.0, 1.68209710871183E9, 0.0, 2023-04-21 12:11:48.711
134.0, -49739.78397128391, -30499.111771477674, 187500.0, 187500.0, 187500.0, 187500.0, 187500.0, 187500.0, 0.05, 0.992, -0.052000000000000005, 192.0, 0.0, 0.0, 0.0, 0.0, 0.0, 0.0, 0.0, 0.0, 0.0, 1.6820971087680075E9, 0.0, 2023-04-21 12:11:48.768
143.0, -49686.229191569, -30422.64645369607, 187500.0, 187500.0, 187500.0, 187500.0, 187500.0, 187500.0, 0.05, 0.992, -0.052000000000000005, 192.0, 0.0, 0.0, 0.0, 0.0, 0.0, 0.0, 0.0, 0.0, 0.0, 1.6820971087680297E9, 0.0, 2023-04-21 12:11:48.768
132.0, -49657.26133075492, -30493.792056297312, 187500.0, 187500.0, 187500.0, 187500.0, 187500.0, 187500.0, 0.05, 0.992, -0.052000000000000005, 192.0, 0.0, 0.0, 0.0, 0.0, 0.0, 0.0, 0.0, 0.0, 0.0, 1.6820971087961905E9, 0.0, 2023-04-21 12:11:48.796
135.0, -49630.72981008647, -30369.829281548176, 187500.0, 187500.0, 187500.0, 187500.0, 187500.0, 187500.0, 0.05, 0.992, -0.052000000000000005, 192.0, 0.0, 0.0, 0.0, 0.0, 0.0, 0.0, 0.0, 0.0, 0.0, 1.6820971087962253E9, 0.0, 2023-04-21 12:11:48.796
136.0, -49630.52864438637, -30465.830023983723, 187500.0, 187500.0, 187500.0, 187500.0, 187500.0, 187500.0, 0.05, 0.992, -0.052000000000000005, 192.0, 0.0, 0.0, 0.0, 0.0, 0.0, 0.0, 0.0, 0.0, 0.0, 1.6820971087962382E9, 0.0, 2023-04-21 12:11:48.796
141.0, -49732.117322935745, -30597.68296452558, 187500.0, 187500.0, 187500.0, 187500.0, 187500.0, 187500.0, 0.046, 0.99, -0.046, 192.0, 1.0, 112.0, 30.0, 240.0, 254.0, 144.0, 0.0, 0.0, 0.0, 1.6820971087962496E9, 0.0, 2023-04-21 12:11:48.796
151.0, -49745.97540449804, -30493.32266966375, 187500.0, 187500.0, 187500.0, 187500.0, 187500.0, 187500.0, 0.044, 0.994, -0.042, 192.0, 1.0, 96.0, 31.0, 16.0, 254.0, 176.0, 0.0, 0.0, 0.0, 1.6820971089922664E9, 0.0, 2023-04-21 12:11:48.992
149.0, -49711.285497103396, -30566.591687988246, 187500.0, 187500.0, 187500.0, 187500.0, 187500.0, 187500.0, 0.044, 0.994, -0.042, 192.0, 0.0, 0.0, 0.0, 0.0, 0.0, 0.0, 0.0, 0.0, 0.0, 1.6820971089923105E9, 0.0, 2023-04-21 12:11:48.992
145.0, -49710.32437209182, -30582.126150384684, 187500.0, 187500.0, 187500.0, 187500.0, 187500.0, 187500.0, 0.044, 0.994, -0.042, 192.0, 0.0, 0.0, 0.0, 0.0, 0.0, 0.0, 0.0, 0.0, 0.0, 1.6820971089923284E9, 0.0, 2023-04-21 12:11:48.992
146.0, -49783.61574216077, -30572.80547294682, 187500.0, 187500.0, 187500.0, 187500.0, 187500.0, 187500.0, 0.044, 0.994, -0.042, 192.0, 0.0, 0.0, 0.0, 0.0, 0.0, 0.0, 0.0, 0.0, 0.0, 1.682097108992342E9, 0.0, 2023-04-21 12:11:48.992
147.0, -49719.13095940721, -30460.42090182554, 187500.0, 187500.0, 187500.0, 187500.0, 187500.0, 187500.0, 0.044, 0.994, -0.042, 192.0, 0.0, 0.0, 0.0, 0.0, 0.0, 0.0, 0.0, 0.0, 0.0, 1.6820971089923544E9, 0.0, 2023-04-21 12:11:48.992
152.0, -49644.29731897084, -30408.050764566753, 187500.0, 187500.0, 187500.0, 187500.0, 187500.0, 187500.0, 0.044, 0.994, -0.042, 192.0, 0.0, 0.0, 0.0, 0.0, 0.0, 0.0, 0.0, 0.0, 0.0, 1.682097108992366E9, 0.0, 2023-04-21 12:11:48.992
153.0, -49677.69082518707, -30556.645161705634, 187500.0, 187500.0, 187500.0, 187500.0, 187500.0, 187500.0, 0.044, 0.994, -0.042, 192.0, 0.0, 0.0, 0.0, 0.0, 0.0, 0.0, 0.0, 0.0, 0.0, 1.682097108992378E9, 0.0, 2023-04-21 12:11:48.992
159.0, -49767.67894836413, -30549.336141268748, 187500.0, 187500.0, 187500.0, 187500.0, 187500.0, 187500.0, 0.044, 0.994, -0.042, 192.0, 0.0, 0.0, 0.0, 0.0, 0.0, 0.0, 0.0, 0.0, 0.0, 1.68209710899239E9, 0.0, 2023-04-21 12:11:48.992
155.0, -49747.74119231, -30518.535437409337, 187500.0, 187500.0, 187500.0, 187500.0, 187500.0, 187500.0, 0.044, 0.994, -0.042, 192.0, 0.0, 0.0, 0.0, 0.0, 0.0, 0.0, 0.0, 0.0, 0.0, 1.6820971089924016E9, 0.0, 2023-04-21 12:11:48.992
179.0, -49770.71878561006, -30624.482706127492, 187500.0, 187500.0, 187500.0, 187500.0, 187500.0, 187500.0, 0.044, 0.994, -0.042, 192.0, 0.0, 0.0, 0.0, 0.0, 0.0, 0.0, 0.0, 0.0, 0.0, 1.6820971089924936E9, 0.0, 2023-04-21 12:11:48.992
177.0, -49652.433353952576, -30434.425823024016, 187500.0, 187500.0, 187500.0, 187500.0, 187500.0, 187500.0, 0.044, 0.994, -0.042, 192.0, 0.0, 0.0, 0.0, 0.0, 0.0, 0.0, 0.0, 0.0, 0.0, 1.682097108992506E9, 0.0, 2023-04-21 12:11:48.992
160.0, -49650.39934520714, -30409.235407022883, 187500.0, 187500.0, 187500.0, 187500.0, 187500.0, 187500.0, 0.044, 0.994, -0.042, 192.0, 0.0, 0.0, 0.0, 0.0, 0.0, 0.0, 0.0, 0.0, 0.0, 1.682097108992518E9, 0.0, 2023-04-21 12:11:48.992
161.0, -49660.92701684559, -30505.079687247242, 187500.0, 187500.0, 187500.0, 187500.0, 187500.0, 187500.0, 0.046, 0.996, -0.042, 192.0, 1.0, 112.0, 31.0, 32.0, 254.0, 176.0, 0.0, 0.0, 0.0, 1.6820971089925303E9, 0.0, 2023-04-21 12:11:48.992
175.0, -49796.490346967024, -30620.48174386999, 187500.0, 187500.0, 187500.0, 187500.0, 187500.0, 187500.0, 0.046, 0.996, -0.042, 192.0, 0.0, 0.0, 0.0, 0.0, 0.0, 0.0, 0.0, 0.0, 0.0, 1.6820971089925435E9, 0.0, 2023-04-21 12:11:48.992
163.0, -49800.066626079875, -30575.62179274819, 187500.0, 187500.0, 187500.0, 187500.0, 187500.0, 187500.0, 0.046, 0.996, -0.042, 192.0, 0.0, 0.0, 0.0, 0.0, 0.0, 0.0, 0.0, 0.0, 0.0, 1.6820971089925551E9, 0.0, 2023-04-21 12:11:48.992
173.0, -49666.58200819278, -30469.853337985678, 187500.0, 187500.0, 187500.0, 187500.0, 187500.0, 187500.0, 0.046, 0.996, -0.042, 192.0, 0.0, 0.0, 0.0, 0.0, 0.0, 0.0, 0.0, 0.0, 0.0, 1.682097108992567E9, 0.0, 2023-04-21 12:11:48.992
165.0, -49651.18165626308, -30484.113750948163, 187500.0, 187500.0, 187500.0, 187500.0, 187500.0, 187500.0, 0.046, 0.996, -0.042, 192.0, 0.0, 0.0, 0.0, 0.0, 0.0, 0.0, 0.0, 0.0, 0.0, 1.6820971089925787E9, 0.0, 2023-04-21 12:11:48.992
171.0, -49807.30859128339, -30618.783011291387, 187500.0, 187500.0, 187500.0, 187500.0, 187500.0, 187500.0, 0.046, 0.996, -0.042, 192.0, 0.0, 0.0, 0.0, 0.0, 0.0, 0.0, 0.0, 0.0, 0.0, 1.6820971089925904E9, 0.0, 2023-04-21 12:11:48.992
167.0, -49799.82075689087, -30596.25245288044, 187500.0, 187500.0, 187500.0, 187500.0, 187500.0, 187500.0, 0.046, 0.996, -0.042, 192.0, 0.0, 0.0, 0.0, 0.0, 0.0, 0.0, 0.0, 0.0, 0.0, 1.6820971089926023E9, 0.0, 2023-04-21 12:11:48.992
184.0, -49768.30479720888, -30567.932792655563, 187500.0, 187500.0, 187500.0, 187500.0, 187500.0, 187500.0, 0.046, 0.996, -0.042, 192.0, 0.0, 0.0, 0.0, 0.0, 0.0, 0.0, 0.0, 0.0, 0.0, 1.682097108992614E9, 0.0, 2023-04-21 12:11:48.992
169.0, -49640.676336369084, -30464.51127106086, 187500.0, 187500.0, 187500.0, 187500.0, 187500.0, 187500.0, 0.046, 0.996, -0.042, 192.0, 0.0, 0.0, 0.0, 0.0, 0.0, 0.0, 0.0, 0.0, 0.0, 1.6820971089926257E9, 0.0, 2023-04-21 12:11:48.992
180.0, -49750.66927083365, -30536.99797832942, 187500.0, 187500.0, 187500.0, 187500.0, 187500.0, 187500.0, 0.046, 0.996, -0.042, 192.0, 0.0, 0.0, 0.0, 0.0, 0.0, 0.0, 0.0, 0.0, 0.0, 1.6820971089926374E9, 0.0, 2023-04-21 12:11:48.992
195.0, -49720.60617454126, -30622.91808401562, 187500.0, 187500.0, 187500.0, 187500.0, 187500.0, 187500.0, 0.046, 0.996, -0.042, 192.0, 0.0, 0.0, 0.0, 0.0, 0.0, 0.0, 0.0, 0.0, 0.0, 1.6820971089926493E9, 0.0, 2023-04-21 12:11:48.992
182.0, -49657.663662155115, -30534.539286439336, 187500.0, 187500.0, 187500.0, 187500.0, 187500.0, 187500.0, 0.044, 0.984, -0.044, 192.0, 1.0, 96.0, 30.0, 192.0, 254.0, 160.0, 0.0, 0.0, 0.0, 1.6820971089926608E9, 0.0, 2023-04-21 12:11:48.992
185.0, -49652.92509233059, -30434.44817476847, 187500.0, 187500.0, 187500.0, 187500.0, 187500.0, 187500.0, 0.044, 0.984, -0.044, 192.0, 0.0, 0.0, 0.0, 0.0, 0.0, 0.0, 0.0, 0.0, 0.0, 1.6820971089926937E9, 0.0, 2023-04-21 12:11:48.992
186.0, -49649.39351670665, -30524.637463645635, 187500.0, 187500.0, 187500.0, 187500.0, 187500.0, 187500.0, 0.044, 0.984, -0.044, 192.0, 0.0, 0.0, 0.0, 0.0, 0.0, 0.0, 0.0, 0.0, 0.0, 1.6820971089927056E9, 0.0, 2023-04-21 12:11:48.992
192.0, -49794.813966132875, -30607.96476697502, 187500.0, 187500.0, 187500.0, 187500.0, 187500.0, 187500.0, 0.04, 0.992, -0.042, 192.0, 1.0, 64.0, 31.0, 0.0, 254.0, 176.0, 0.0, 0.0, 0.0, 1.6820971089927175E9, 0.0, 2023-04-21 12:11:48.992
190.0, -49648.1194672727, -30492.696820819, 187500.0, 187500.0, 187500.0, 187500.0, 187500.0, 187500.0, 0.04, 0.992, -0.042, 192.0, 0.0, 0.0, 0.0, 0.0, 0.0, 0.0, 0.0, 0.0, 0.0, 1.6820971089927304E9, 0.0, 2023-04-21 12:11:48.992
193.0, -49698.701464975056, -30475.016590954852, 187500.0, 187500.0, 187500.0, 187500.0, 187500.0, 187500.0, 0.04, 0.992, -0.042, 192.0, 0.0, 0.0, 0.0, 0.0, 0.0, 0.0, 0.0, 0.0, 0.0, 1.6820971089927423E9, 0.0, 2023-04-21 12:11:48.992
196.0, -49788.77899512995, -30622.38164214869, 187500.0, 187500.0, 187500.0, 187500.0, 187500.0, 187500.0, 0.04, 0.992, -0.042, 192.0, 0.0, 0.0, 0.0, 0.0, 0.0, 0.0, 0.0, 0.0, 0.0, 1.682097108992754E9, 0.0, 2023-04-21 12:11:48.992
197.0, -49727.33404962231, -30512.388707684127, 187500.0, 187500.0, 187500.0, 187500.0, 187500.0, 187500.0, 0.04, 0.992, -0.042, 192.0, 0.0, 0.0, 0.0, 0.0, 0.0, 0.0, 0.0, 0.0, 0.0, 1.6820971089927683E9, 0.0, 2023-04-21 12:11:48.992
198.0, -49638.19529273454, -30455.347055834183, 187500.0, 187500.0, 187500.0, 187500.0, 187500.0, 187500.0, 0.04, 0.992, -0.042, 192.0, 0.0, 0.0, 0.0, 0.0, 0.0, 0.0, 0.0, 0.0, 0.0, 1.6820971089927804E9, 0.0, 2023-04-21 12:11:48.992
199.0, -49695.81808994032, -30610.44581060956, 187500.0, 187500.0, 187500.0, 187500.0, 187500.0, 187500.0, 0.04, 0.992, -0.042, 192.0, 0.0, 0.0, 0.0, 0.0, 0.0, 0.0, 0.0, 0.0, 0.0, 1.682097108992792E9, 0.0, 2023-04-21 12:11:48.992
200.0, -49782.721672382555, -30640.508906901945, 187500.0, 187500.0, 187500.0, 187500.0, 187500.0, 187500.0, 0.04, 0.992, -0.042, 192.0, 0.0, 0.0, 0.0, 0.0, 0.0, 0.0, 0.0, 0.0, 0.0, 1.682097108992804E9, 0.0, 2023-04-21 12:11:48.992
201.0, -49740.163950939655, -30540.842478375733, 187500.0, 187500.0, 187500.0, 187500.0, 187500.0, 187500.0, 0.04, 0.992, -0.042, 192.0, 0.0, 0.0, 0.0, 0.0, 0.0, 0.0, 0.0, 0.0, 0.0, 1.6820971089928155E9, 0.0, 2023-04-21 12:11:48.992
202.0, -49638.97760379048, -30445.02054989583, 187500.0, 187500.0, 187500.0, 187500.0, 187500.0, 187500.0, 0.034, 0.99, -0.042, 192.0, 1.0, 16.0, 30.0, 240.0, 254.0, 176.0, 0.0, 0.0, 0.0, 1.682097108992828E9, 0.0, 2023-04-21 12:11:48.992
203.0, -49679.43426125458, -30587.982307431976, 187500.0, 187500.0, 187500.0, 187500.0, 187500.0, 187500.0, 0.034, 0.99, -0.042, 192.0, 0.0, 0.0, 0.0, 0.0, 0.0, 0.0, 0.0, 0.0, 0.0, 1.6820971089928408E9, 0.0, 2023-04-21 12:11:48.992
204.0, -49778.31837872486, -30653.048235541373, 187500.0, 187500.0, 187500.0, 187500.0, 187500.0, 187500.0, 0.034, 0.99, -0.042, 192.0, 0.0, 0.0, 0.0, 0.0, 0.0, 0.0, 0.0, 0.0, 0.0, 1.6820971089928527E9, 0.0, 2023-04-21 12:11:48.992
205.0, -49751.02689874493, -30581.142673628652, 187500.0, 187500.0, 187500.0, 187500.0, 187500.0, 187500.0, 0.034, 0.99, -0.042, 192.0, 0.0, 0.0, 0.0, 0.0, 0.0, 0.0, 0.0, 0.0, 0.0, 1.6820971089928646E9, 0.0, 2023-04-21 12:11:48.992
206.0, -49612.46843486648, -30459.41507332505, 187500.0, 187500.0, 187500.0, 187500.0, 187500.0, 187500.0, 0.034, 0.99, -0.042, 192.0, 0.0, 0.0, 0.0, 0.0, 0.0, 0.0, 0.0, 0.0, 0.0, 1.6820971089929638E9, 0.0, 2023-04-21 12:11:48.992
207.0, -49618.34694365823, -30567.083426366262, 187500.0, 187500.0, 187500.0, 187500.0, 187500.0, 187500.0, 0.034, 0.99, -0.042, 192.0, 0.0, 0.0, 0.0, 0.0, 0.0, 0.0, 0.0, 0.0, 0.0, 1.6820971089929764E9, 0.0, 2023-04-21 12:11:48.992
208.0, -49715.91230820565, -30656.557459420856, 187500.0, 187500.0, 187500.0, 187500.0, 187500.0, 187500.0, 0.034, 0.99, -0.042, 192.0, 0.0, 0.0, 0.0, 0.0, 0.0, 0.0, 0.0, 0.0, 0.0, 1.6820971089929888E9, 0.0, 2023-04-21 12:11:48.992
209.0, -49726.104703677265, -30592.251490622937, 187500.0, 187500.0, 187500.0, 187500.0, 187500.0, 187500.0, 0.034, 0.99, -0.042, 192.0, 0.0, 0.0, 0.0, 0.0, 0.0, 0.0, 0.0, 0.0, 0.0, 1.6820971089930007E9, 0.0, 2023-04-21 12:11:48.993
210.0, -49617.54228085784, -30464.153643149573, 187500.0, 187500.0, 187500.0, 187500.0, 187500.0, 187500.0, 0.034, 0.99, -0.042, 192.0, 0.0, 0.0, 0.0, 0.0, 0.0, 0.0, 0.0, 0.0, 0.0, 1.6820971089930124E9, 0.0, 2023-04-21 12:11:48.993
211.0, -49606.25464990791, -30549.24673429093, 187500.0, 187500.0, 187500.0, 187500.0, 187500.0, 187500.0, 0.034, 0.99, -0.042, 192.0, 0.0, 0.0, 0.0, 0.0, 0.0, 0.0, 0.0, 0.0, 0.0, 1.6820971089930243E9, 0.0, 2023-04-21 12:11:48.993
212.0, -49695.84044168478, -30664.335866491303, 187500.0, 187500.0, 187500.0, 187500.0, 187500.0, 187500.0, 0.034, 0.99, -0.042, 192.0, 0.0, 0.0, 0.0, 0.0, 0.0, 0.0, 0.0, 0.0, 0.0, 1.6820971089930363E9, 0.0, 2023-04-21 12:11:48.993
213.0, -49734.12897993672, -30618.604197335746, 187500.0, 187500.0, 187500.0, 187500.0, 187500.0, 187500.0, 0.032, 0.994, -0.042, 192.0, 1.0, 0.0, 31.0, 16.0, 254.0, 176.0, 0.0, 0.0, 0.0, 1.6820971089930482E9, 0.0, 2023-04-21 12:11:48.993
214.0, -49631.55682463131, -30486.863015516166, 187500.0, 187500.0, 187500.0, 187500.0, 187500.0, 187500.0, 0.032, 0.994, -0.042, 192.0, 0.0, 0.0, 0.0, 0.0, 0.0, 0.0, 0.0, 0.0, 0.0, 1.6820971089930606E9, 0.0, 2023-04-21 12:11:48.993
215.0, -49573.75521346989, -30508.208931470985, 187500.0, 187500.0, 187500.0, 187500.0, 187500.0, 187500.0, 0.032, 0.994, -0.042, 192.0, 0.0, 0.0, 0.0, 0.0, 0.0, 0.0, 0.0, 0.0, 0.0, 1.6820971089930725E9, 0.0, 2023-04-21 12:11:48.993
216.0, -49651.80750510783, -30641.15710749115, 187500.0, 187500.0, 187500.0, 187500.0, 187500.0, 187500.0, 0.032, 0.994, -0.042, 192.0, 0.0, 0.0, 0.0, 0.0, 0.0, 0.0, 0.0, 0.0, 0.0, 1.6820971089930842E9, 0.0, 2023-04-21 12:11:48.993
217.0, -49704.51291853344, -30622.851028782254, 187500.0, 187500.0, 187500.0, 187500.0, 187500.0, 187500.0, 0.032, 0.994, -0.042, 192.0, 0.0, 0.0, 0.0, 0.0, 0.0, 0.0, 0.0, 0.0, 0.0, 1.682097108993096E9, 0.0, 2023-04-21 12:11:48.993
218.0, -49619.129254714164, -30500.8999110341, 187500.0, 187500.0, 187500.0, 187500.0, 187500.0, 187500.0, 0.032, 0.994, -0.042, 192.0, 0.0, 0.0, 0.0, 0.0, 0.0, 0.0, 0.0, 0.0, 0.0, 1.682097108993111E9, 0.0, 2023-04-21 12:11:48.993
219.0, -49551.35876552567, -30483.46555035896, 187500.0, 187500.0, 187500.0, 187500.0, 187500.0, 187500.0, 0.032, 0.994, -0.042, 192.0, 0.0, 0.0, 0.0, 0.0, 0.0, 0.0, 0.0, 0.0, 0.0, 1.6820971089931228E9, 0.0, 2023-04-21 12:11:48.993
220.0, -49612.89311801113, -30634.384528921193, 187500.0, 187500.0, 187500.0, 187500.0, 187500.0, 187500.0, 0.032, 0.994, -0.042, 192.0, 0.0, 0.0, 0.0, 0.0, 0.0, 0.0, 0.0, 0.0, 0.0, 1.6820971089931345E9, 0.0, 2023-04-21 12:11:48.993
221.0, -49697.226249841005, -30650.947171562577, 187500.0, 187500.0, 187500.0, 187500.0, 187500.0, 187500.0, 0.032, 0.994, -0.042, 192.0, 0.0, 0.0, 0.0, 0.0, 0.0, 0.0, 0.0, 0.0, 0.0, 1.6820971090736969E9, 0.0, 2023-04-21 12:11:49.073
222.0, -49646.28662422737, -30552.62184770368, 187500.0, 187500.0, 187500.0, 187500.0, 187500.0, 187500.0, 0.032, 0.994, -0.042, 192.0, 0.0, 0.0, 0.0, 0.0, 0.0, 0.0, 0.0, 0.0, 0.0, 1.6820971090737307E9, 0.0, 2023-04-21 12:11:49.073
223.0, -49542.55217821028, -30475.59773631069, 187500.0, 187500.0, 187500.0, 187500.0, 187500.0, 187500.0, 0.034, 1.0, -0.048, 192.0, 1.0, 16.0, 31.0, 64.0, 254.0, 128.0, 0.0, 0.0, 0.0, 1.6820971090737443E9, 0.0, 2023-04-21 12:11:49.073
224.0, -49585.60163803121, -30618.20186593555, 187500.0, 187500.0, 187500.0, 187500.0, 187500.0, 187500.0, 0.034, 1.0, -0.048, 192.0, 0.0, 0.0, 0.0, 0.0, 0.0, 0.0, 0.0, 0.0, 0.0, 1.682097109073758E9, 0.0, 2023-04-21 12:11:49.073
225.0, -49678.271970542904, -30651.863593085243, 187500.0, 187500.0, 187500.0, 187500.0, 187500.0, 187500.0, 0.034, 1.0, -0.048, 192.0, 0.0, 0.0, 0.0, 0.0, 0.0, 0.0, 0.0, 0.0, 0.0, 1.68209710907377E9, 0.0, 2023-04-21 12:11:49.073
226.0, -49643.49265617045, -30558.545059984335, 187500.0, 187500.0, 187500.0, 187500.0, 187500.0, 187500.0, 0.034, 1.0, -0.048, 192.0, 0.0, 0.0, 0.0, 0.0, 0.0, 0.0, 0.0, 0.0, 0.0, 1.682097109073782E9, 0.0, 2023-04-21 12:11:49.073
227.0, -49534.90788160657, -30458.275134357827, 187500.0, 187500.0, 187500.0, 187500.0, 187500.0, 187500.0, 0.034, 1.0, -0.048, 192.0, 0.0, 0.0, 0.0, 0.0, 0.0, 0.0, 0.0, 0.0, 0.0, 1.682097109073794E9, 0.0, 2023-04-21 12:11:49.073
228.0, -49567.60848374468, -30598.10764767023, 187500.0, 187500.0, 187500.0, 187500.0, 187500.0, 187500.0, 0.034, 1.0, -0.048, 192.0, 0.0, 0.0, 0.0, 0.0, 0.0, 0.0, 0.0, 0.0, 0.0, 1.682097109073806E9, 0.0, 2023-04-21 12:11:49.073
229.0, -49665.59853143675, -30666.481633959014, 187500.0, 187500.0, 187500.0, 187500.0, 187500.0, 187500.0, 0.034, 1.0, -0.048, 192.0, 0.0, 0.0, 0.0, 0.0, 0.0, 0.0, 0.0, 0.0, 0.0, 1.682097109073818E9, 0.0, 2023-04-21 12:11:49.073
230.0, -49664.369185491705, -30596.09599066925, 187500.0, 187500.0, 187500.0, 187500.0, 187500.0, 187500.0, 0.034, 1.0, -0.048, 192.0, 0.0, 0.0, 0.0, 0.0, 0.0, 0.0, 0.0, 0.0, 0.0, 1.6820971090738301E9, 0.0, 2023-04-21 12:11:49.073
231.0, -49547.961300368464, -30471.88734673111, 187500.0, 187500.0, 187500.0, 187500.0, 187500.0, 187500.0, 0.034, 1.0, -0.048, 192.0, 0.0, 0.0, 0.0, 0.0, 0.0, 0.0, 0.0, 0.0, 0.0, 1.682097109073842E9, 0.0, 2023-04-21 12:11:49.073
232.0, -49555.315024294265, -30581.634412006668, 187500.0, 187500.0, 187500.0, 187500.0, 187500.0, 187500.0, 0.034, 1.0, -0.048, 192.0, 0.0, 0.0, 0.0, 0.0, 0.0, 0.0, 0.0, 0.0, 0.0, 1.682097109073854E9, 0.0, 2023-04-21 12:11:49.073
233.0, -49648.54415041735, -30678.01513409795, 187500.0, 187500.0, 187500.0, 187500.0, 187500.0, 187500.0, 0.036000000000000004, 0.998, -0.05, 192.0, 1.0, 32.0, 31.0, 48.0, 254.0, 112.0, 0.0, 0.0, 0.0, 1.682097109073866E9, 0.0, 2023-04-21 12:11:49.073
234.0, -49672.25935128443, -30619.63237758069, 187500.0, 187500.0, 187500.0, 187500.0, 187500.0, 187500.0, 0.036000000000000004, 0.998, -0.05, 192.0, 0.0, 0.0, 0.0, 0.0, 0.0, 0.0, 0.0, 0.0, 0.0, 1.6820971090738792E9, 0.0, 2023-04-21 12:11:49.073
235.0, -49559.74066969642, -30488.449989372493, 187500.0, 187500.0, 187500.0, 187500.0, 187500.0, 187500.0, 0.036000000000000004, 0.998, -0.05, 192.0, 0.0, 0.0, 0.0, 0.0, 0.0, 0.0, 0.0, 0.0, 0.0, 1.6820971090738912E9, 0.0, 2023-04-21 12:11:49.073
236.0, -49525.1401692796, -30546.72098716748, 187500.0, 187500.0, 187500.0, 187500.0, 187500.0, 187500.0, 0.036000000000000004, 0.998, -0.05, 192.0, 0.0, 0.0, 0.0, 0.0, 0.0, 0.0, 0.0, 0.0, 0.0, 1.6820971090739574E9, 0.0, 2023-04-21 12:11:49.073
237.0, -49616.961135502, -30666.97337233703, 187500.0, 187500.0, 187500.0, 187500.0, 187500.0, 187500.0, 0.036000000000000004, 0.998, -0.05, 192.0, 0.0, 0.0, 0.0, 0.0, 0.0, 0.0, 0.0, 0.0, 0.0, 1.68209710907397E9, 0.0, 2023-04-21 12:11:49.073
238.0, -49666.604359937235, -30636.10561324425, 187500.0, 187500.0, 187500.0, 187500.0, 187500.0, 187500.0, 0.036000000000000004, 0.998, -0.05, 192.0, 0.0, 0.0, 0.0, 0.0, 0.0, 0.0, 0.0, 0.0, 0.0, 1.6820971091793041E9, 0.0, 2023-04-21 12:11:49.179
239.0, -49565.90975116608, -30503.068030246264, 187500.0, 187500.0, 187500.0, 187500.0, 187500.0, 187500.0, 0.036000000000000004, 0.998, -0.05, 192.0, 0.0, 0.0, 0.0, 0.0, 0.0, 0.0, 0.0, 0.0, 0.0, 1.6820971091793313E9, 0.0, 2023-04-21 12:11:49.179
240.0, -49522.90499483407, -30528.83959160323, 187500.0, 187500.0, 187500.0, 187500.0, 187500.0, 187500.0, 0.036000000000000004, 0.998, -0.05, 192.0, 0.0, 0.0, 0.0, 0.0, 0.0, 0.0, 0.0, 0.0, 0.0, 1.6820971091793578E9, 0.0, 2023-04-21 12:11:49.179
241.0, -49607.77456853087, -30674.081227073817, 187500.0, 187500.0, 187500.0, 187500.0, 187500.0, 187500.0, 0.036000000000000004, 0.998, -0.05, 192.0, 0.0, 0.0, 0.0, 0.0, 0.0, 0.0, 0.0, 0.0, 0.0, 1.6820971091793702E9, 0.0, 2023-04-21 12:11:49.179
242.0, -49664.995034336454, -30646.16389824914, 187500.0, 187500.0, 187500.0, 187500.0, 187500.0, 187500.0, 0.036000000000000004, 0.998, -0.05, 192.0, 0.0, 0.0, 0.0, 0.0, 0.0, 0.0, 0.0, 0.0, 0.0, 1.6820971091793823E9, 0.0, 2023-04-21 12:11:49.179
243.0, -49588.64147527712, -30522.29053047783, 187500.0, 187500.0, 187500.0, 187500.0, 187500.0, 187500.0, 0.036000000000000004, 0.994, -0.05, 192.0, 1.0, 32.0, 31.0, 16.0, 254.0, 112.0, 0.0, 0.0, 0.0, 1.6820971091793942E9, 0.0, 2023-04-21 12:11:49.179
244.0, -49519.21695699894, -30497.077762732242, 187500.0, 187500.0, 187500.0, 187500.0, 187500.0, 187500.0, 0.036000000000000004, 0.994, -0.05, 192.0, 0.0, 0.0, 0.0, 0.0, 0.0, 0.0, 0.0, 0.0, 0.0, 1.6820971092115076E9, 0.0, 2023-04-21 12:11:49.211
245.0, -49585.08754790873, -30649.382549450704, 187500.0, 187500.0, 187500.0, 187500.0, 187500.0, 187500.0, 0.036000000000000004, 0.994, -0.05, 192.0, 0.0, 0.0, 0.0, 0.0, 0.0, 0.0, 0.0, 0.0, 0.0, 1.6820971092276027E9, 0.0, 2023-04-21 12:11:49.227
246.0, -49671.87937162869, -30662.391264723694, 187500.0, 187500.0, 187500.0, 187500.0, 187500.0, 187500.0, 0.036000000000000004, 0.994, -0.05, 192.0, 0.0, 0.0, 0.0, 0.0, 0.0, 0.0, 0.0, 0.0, 0.0, 1.68209710922763E9, 0.0, 2023-04-21 12:11:49.227
247.0, -49624.06899023879, -30553.985304115453, 187500.0, 187500.0, 187500.0, 187500.0, 187500.0, 187500.0, 0.036000000000000004, 0.994, -0.05, 192.0, 0.0, 0.0, 0.0, 0.0, 0.0, 0.0, 0.0, 0.0, 0.0, 1.682097109275874E9, 0.0, 2023-04-21 12:11:49.275
249.0, -49587.38977758763, -30637.983159778498, 187500.0, 187500.0, 187500.0, 187500.0, 187500.0, 187500.0, 0.036000000000000004, 0.994, -0.05, 192.0, 0.0, 0.0, 0.0, 0.0, 0.0, 0.0, 0.0, 0.0, 0.0, 1.6820971093000333E9, 0.0, 2023-04-21 12:11:49.300
250.0, -49687.50324100295, -30677.299878275382, 187500.0, 187500.0, 187500.0, 187500.0, 187500.0, 187500.0, 0.036000000000000004, 0.994, -0.05, 192.0, 0.0, 0.0, 0.0, 0.0, 0.0, 0.0, 0.0, 0.0, 0.0, 1.682097109300068E9, 0.0, 2023-04-21 12:11:49.300
251.0, -49651.42752545208, -30587.57997603178, 187500.0, 187500.0, 187500.0, 187500.0, 187500.0, 187500.0, 0.036000000000000004, 0.994, -0.05, 192.0, 0.0, 0.0, 0.0, 0.0, 0.0, 0.0, 0.0, 0.0, 0.0, 1.6820971093000793E9, 0.0, 2023-04-21 12:11:49.300
23.0, -49651.47222894099, -30643.59344763678, 187500.0, 187500.0, 187500.0, 187500.0, 187500.0, 187500.0, 0.036000000000000004, 0.994, -0.05, 192.0, 0.0, 0.0, 0.0, 0.0, 0.0, 0.0, 0.0, 0.0, 0.0, 1.6820971093381922E9, 0.0, 2023-04-21 12:11:49.338
21.0, -49533.007983327865, -30447.613352252647, 187500.0, 187500.0, 187500.0, 187500.0, 187500.0, 187500.0, 0.036000000000000004, 0.994, -0.05, 192.0, 0.0, 0.0, 0.0, 0.0, 0.0, 0.0, 0.0, 0.0, 0.0, 1.6820971093382192E9, 0.0, 2023-04-21 12:11:49.338
254.0, -49688.911400903635, -30701.775038453943, 187500.0, 187500.0, 187500.0, 187500.0, 187500.0, 187500.0, 0.036000000000000004, 0.996, -0.046, 192.0, 1.0, 32.0, 31.0, 32.0, 254.0, 144.0, 0.0, 0.0, 0.0, 1.682097109338235E9, 0.0, 2023-04-21 12:11:49.338
255.0, -49680.30597928834, -30616.05609846784, 187500.0, 187500.0, 187500.0, 187500.0, 187500.0, 187500.0, 0.036000000000000004, 0.996, -0.046, 192.0, 0.0, 0.0, 0.0, 0.0, 0.0, 0.0, 0.0, 0.0, 0.0, 1.6820971093382506E9, 0.0, 2023-04-21 12:11:49.338
19.0, -49674.11454607422, -30648.086148272294, 187500.0, 187500.0, 187500.0, 187500.0, 187500.0, 187500.0, 0.036000000000000004, 0.996, -0.046, 192.0, 0.0, 0.0, 0.0, 0.0, 0.0, 0.0, 0.0, 0.0, 0.0, 1.6820971093703978E9, 0.0, 2023-04-21 12:11:49.370
17.0, -49533.85734961717, -30458.49865180238, 187500.0, 187500.0, 187500.0, 187500.0, 187500.0, 187500.0, 0.036000000000000004, 0.996, -0.046, 192.0, 0.0, 0.0, 0.0, 0.0, 0.0, 0.0, 0.0, 0.0, 0.0, 1.6820971094307387E9, 0.0, 2023-04-21 12:11:49.430
2.0, -49656.07668829879, -30677.232823042017, 187500.0, 187500.0, 187500.0, 187500.0, 187500.0, 187500.0, 0.036000000000000004, 0.996, -0.046, 192.0, 0.0, 0.0, 0.0, 0.0, 0.0, 0.0, 0.0, 0.0, 0.0, 1.6820971094307687E9, 0.0, 2023-04-21 12:11:49.430
3.0, -49675.723871675, -30613.843275766765, 187500.0, 187500.0, 187500.0, 187500.0, 187500.0, 187500.0, 0.036000000000000004, 0.996, -0.046, 192.0, 0.0, 0.0, 0.0, 0.0, 0.0, 0.0, 0.0, 0.0, 0.0, 1.6820971094307814E9, 0.0, 2023-04-21 12:11:49.430
15.0, -49679.14368857667, -30643.816965081332, 187500.0, 187500.0, 187500.0, 187500.0, 187500.0, 187500.0, 0.036000000000000004, 0.996, -0.046, 192.0, 0.0, 0.0, 0.0, 0.0, 0.0, 0.0, 0.0, 0.0, 0.0, 1.6820971094307933E9, 0.0, 2023-04-21 12:11:49.430
5.0, -49543.781524155325, -30532.058242804796, 187500.0, 187500.0, 187500.0, 187500.0, 187500.0, 187500.0, 0.036000000000000004, 0.996, -0.046, 192.0, 0.0, 0.0, 0.0, 0.0, 0.0, 0.0, 0.0, 0.0, 0.0, 1.6820971094308045E9, 0.0, 2023-04-21 12:11:49.430
13.0, -49516.870023831136, -30465.025361183332, 187500.0, 187500.0, 187500.0, 187500.0, 187500.0, 187500.0, 0.036000000000000004, 0.996, -0.046, 192.0, 0.0, 0.0, 0.0, 0.0, 0.0, 0.0, 0.0, 0.0, 0.0, 1.6820971094308252E9, 0.0, 2023-04-21 12:11:49.430
37.0, -49632.78617057636, -30537.310902751793, 187500.0, 187500.0, 187500.0, 187500.0, 187500.0, 187500.0, 0.036000000000000004, 0.996, -0.046, 192.0, 0.0, 0.0, 0.0, 0.0, 0.0, 0.0, 0.0, 0.0, 0.0, 1.682097109430837E9, 0.0, 2023-04-21 12:11:49.430
52.0, -49650.0193655514, -30664.246459513484, 187500.0, 187500.0, 187500.0, 187500.0, 187500.0, 187500.0, 0.036000000000000004, 0.996, -0.046, 192.0, 0.0, 0.0, 0.0, 0.0, 0.0, 0.0, 0.0, 0.0, 0.0, 1.682097109430848E9, 0.0, 2023-04-21 12:11:49.430
9.0, -49527.75532338087, -30500.56463486727, 187500.0, 187500.0, 187500.0, 187500.0, 187500.0, 187500.0, 0.036000000000000004, 0.996, -0.046, 192.0, 0.0, 0.0, 0.0, 0.0, 0.0, 0.0, 0.0, 0.0, 0.0, 1.6820971094308593E9, 0.0, 2023-04-21 12:11:49.430
50.0, -49561.66291971957, -30459.54918379178, 187500.0, 187500.0, 187500.0, 187500.0, 187500.0, 187500.0, 0.036000000000000004, 0.996, -0.046, 192.0, 0.0, 0.0, 0.0, 0.0, 0.0, 0.0, 0.0, 0.0, 0.0, 1.6820971094308708E9, 0.0, 2023-04-21 12:11:49.430
48.0, -49673.242828040464, -30669.320305504836, 187500.0, 187500.0, 187500.0, 187500.0, 187500.0, 187500.0, 0.036000000000000004, 0.996, -0.046, 192.0, 0.0, 0.0, 0.0, 0.0, 0.0, 0.0, 0.0, 0.0, 0.0, 1.682097109430882E9, 0.0, 2023-04-21 12:11:49.430
31.0, -49624.78424606136, -30666.30282000337, 187500.0, 187500.0, 187500.0, 187500.0, 187500.0, 187500.0, 0.036000000000000004, 0.996, -0.046, 192.0, 0.0, 0.0, 0.0, 0.0, 0.0, 0.0, 0.0, 0.0, 0.0, 1.6820971094309487E9, 0.0, 2023-04-21 12:11:49.430
41.0, -49638.46351366801, -30554.208821560005, 187500.0, 187500.0, 187500.0, 187500.0, 187500.0, 187500.0, 0.036000000000000004, 0.996, -0.046, 192.0, 0.0, 0.0, 0.0, 0.0, 0.0, 0.0, 0.0, 0.0, 0.0, 1.6820971094309604E9, 0.0, 2023-04-21 12:11:49.430
57.0, -49700.087273131285, -30633.155182976152, 187500.0, 187500.0, 187500.0, 187500.0, 187500.0, 187500.0, 0.036000000000000004, 0.996, -0.046, 192.0, 0.0, 0.0, 0.0, 0.0, 0.0, 0.0, 0.0, 0.0, 0.0, 1.682097109430972E9, 0.0, 2023-04-21 12:11:49.430
78.0, -49711.66547675914, -30677.188119553106, 187500.0, 187500.0, 187500.0, 187500.0, 187500.0, 187500.0, 0.036000000000000004, 0.996, -0.046, 192.0, 0.0, 0.0, 0.0, 0.0, 0.0, 0.0, 0.0, 0.0, 0.0, 1.6820971094309833E9, 0.0, 2023-04-21 12:11:49.430
55.0, -49564.680405221035, -30531.499449193416, 187500.0, 187500.0, 187500.0, 187500.0, 187500.0, 187500.0, 0.036000000000000004, 0.996, -0.046, 192.0, 0.0, 0.0, 0.0, 0.0, 0.0, 0.0, 0.0, 0.0, 0.0, 1.682097109455891E9, 0.0, 2023-04-21 12:11:49.455
76.0, -49564.36748079866, -30588.965784188007, 187500.0, 187500.0, 187500.0, 187500.0, 187500.0, 187500.0, 0.036000000000000004, 0.996, -0.046, 192.0, 0.0, 0.0, 0.0, 0.0, 0.0, 0.0, 0.0, 0.0, 0.0, 1.6820971094559295E9, 0.0, 2023-04-21 12:11:49.455
42.0, -49534.46084671746, -30461.27026811484, 187500.0, 187500.0, 187500.0, 187500.0, 187500.0, 187500.0, 0.036000000000000004, 0.996, -0.046, 192.0, 0.0, 0.0, 0.0, 0.0, 0.0, 0.0, 0.0, 0.0, 0.0, 1.6820971094970913E9, 0.0, 2023-04-21 12:11:49.497
74.0, -49683.97166537901, -30633.892790543177, 187500.0, 187500.0, 187500.0, 187500.0, 187500.0, 187500.0, 0.036000000000000004, 0.996, -0.046, 192.0, 0.0, 0.0, 0.0, 0.0, 0.0, 0.0, 0.0, 0.0, 0.0, 1.6820971094971151E9, 0.0, 2023-04-21 12:11:49.497
58.0, -49614.63655407865, -30514.89210306312, 187500.0, 187500.0, 187500.0, 187500.0, 187500.0, 187500.0, 0.036000000000000004, 0.996, -0.046, 192.0, 0.0, 0.0, 0.0, 0.0, 0.0, 0.0, 0.0, 0.0, 0.0, 1.6820971094971278E9, 0.0, 2023-04-21 12:11:49.497
59.0, -49552.163428326065, -30509.170056482562, 187500.0, 187500.0, 187500.0, 187500.0, 187500.0, 187500.0, 0.036000000000000004, 0.986, -0.048, 192.0, 1.0, 32.0, 30.0, 208.0, 254.0, 128.0, 0.0, 0.0, 0.0, 1.6820971094971397E9, 0.0, 2023-04-21 12:11:49.497
72.0, -49578.6502455056, -30611.42928736559, 187500.0, 187500.0, 187500.0, 187500.0, 187500.0, 187500.0, 0.036000000000000004, 0.986, -0.048, 192.0, 0.0, 0.0, 0.0, 0.0, 0.0, 0.0, 0.0, 0.0, 0.0, 1.6820971094971523E9, 0.0, 2023-04-21 12:11:49.497
65.0, -49699.2826103309, -30657.74210187699, 187500.0, 187500.0, 187500.0, 187500.0, 187500.0, 187500.0, 0.036000000000000004, 0.986, -0.048, 192.0, 0.0, 0.0, 0.0, 0.0, 0.0, 0.0, 0.0, 0.0, 0.0, 1.6820971094971635E9, 0.0, 2023-04-21 12:11:49.497
70.0, -49682.49645024496, -30592.29619411185, 187500.0, 187500.0, 187500.0, 187500.0, 187500.0, 187500.0, 0.036000000000000004, 0.986, -0.048, 192.0, 0.0, 0.0, 0.0, 0.0, 0.0, 0.0, 0.0, 0.0, 0.0, 1.6820971095233352E9, 0.0, 2023-04-21 12:11:49.523
67.0, -49557.03610861732, -30469.31689611875, 187500.0, 187500.0, 187500.0, 187500.0, 187500.0, 187500.0, 0.036000000000000004, 0.986, -0.048, 192.0, 0.0, 0.0, 0.0, 0.0, 0.0, 0.0, 0.0, 0.0, 0.0, 1.682097109523378E9, 0.0, 2023-04-21 12:11:49.523
68.0, -49599.92910622706, -30612.144543188162, 187500.0, 187500.0, 187500.0, 187500.0, 187500.0, 187500.0, 0.036000000000000004, 0.986, -0.048, 192.0, 0.0, 0.0, 0.0, 0.0, 0.0, 0.0, 0.0, 0.0, 0.0, 1.6820971095233915E9, 0.0, 2023-04-21 12:11:49.523
79.0, -49607.10401619721, -30539.121394052672, 187500.0, 187500.0, 187500.0, 187500.0, 187500.0, 187500.0, 0.042, 0.986, -0.042, 192.0, 1.0, 80.0, 30.0, 208.0, 254.0, 176.0, 0.0, 0.0, 0.0, 1.682097109546403E9, 0.0, 2023-04-21 12:11:49.546
80.0, -49561.05942261928, -30565.831728676767, 187500.0, 187500.0, 187500.0, 187500.0, 187500.0, 187500.0, 0.042, 0.986, -0.042, 192.0, 0.0, 0.0, 0.0, 0.0, 0.0, 0.0, 0.0, 0.0, 0.0, 1.682097109546446E9, 0.0, 2023-04-21 12:11:49.546
81.0, -49652.85803709723, -30711.11806763626, 187500.0, 187500.0, 187500.0, 187500.0, 187500.0, 187500.0, 0.042, 0.986, -0.042, 192.0, 0.0, 0.0, 0.0, 0.0, 0.0, 0.0, 0.0, 0.0, 0.0, 1.6820971095464597E9, 0.0, 2023-04-21 12:11:49.546
82.0, -49716.35934309475, -30694.801294183886, 187500.0, 187500.0, 187500.0, 187500.0, 187500.0, 187500.0, 0.042, 0.986, -0.042, 192.0, 0.0, 0.0, 0.0, 0.0, 0.0, 0.0, 0.0, 0.0, 0.0, 1.6820971095464733E9, 0.0, 2023-04-21 12:11:49.546
83.0, -49627.44410365154, -30569.51976651189, 187500.0, 187500.0, 187500.0, 187500.0, 187500.0, 187500.0, 0.042, 0.986, -0.042, 192.0, 0.0, 0.0, 0.0, 0.0, 0.0, 0.0, 0.0, 0.0, 0.0, 1.6820971095624776E9, 0.0, 2023-04-21 12:11:49.562
84.0, -49564.389832543115, -30559.439129762548, 187500.0, 187500.0, 187500.0, 187500.0, 187500.0, 187500.0, 0.042, 0.986, -0.042, 192.0, 0.0, 0.0, 0.0, 0.0, 0.0, 0.0, 0.0, 0.0, 0.0, 1.6820971095946553E9, 0.0, 2023-04-21 12:11:49.594
85.0, -49636.67537411158, -30708.771134468454, 187500.0, 187500.0, 187500.0, 187500.0, 187500.0, 187500.0, 0.042, 0.986, -0.042, 192.0, 0.0, 0.0, 0.0, 0.0, 0.0, 0.0, 0.0, 0.0, 0.0, 1.6820971096248364E9, 0.0, 2023-04-21 12:11:49.624
86.0, -49702.25539234345, -30704.278433832937, 187500.0, 187500.0, 187500.0, 187500.0, 187500.0, 187500.0, 0.042, 0.986, -0.042, 192.0, 0.0, 0.0, 0.0, 0.0, 0.0, 0.0, 0.0, 0.0, 0.0, 1.6820971096248627E9, 0.0, 2023-04-21 12:11:49.624
87.0, -49633.52377814338, -30587.535272542867, 187500.0, 187500.0, 187500.0, 187500.0, 187500.0, 187500.0, 0.042, 0.986, -0.042, 192.0, 0.0, 0.0, 0.0, 0.0, 0.0, 0.0, 0.0, 0.0, 0.0, 1.6820971096248748E9, 0.0, 2023-04-21 12:11:49.624
88.0, -49539.82526538674, -30518.155457753597, 187500.0, 187500.0, 187500.0, 187500.0, 187500.0, 187500.0, 0.042, 0.986, -0.042, 192.0, 0.0, 0.0, 0.0, 0.0, 0.0, 0.0, 0.0, 0.0, 0.0, 1.6820971096248865E9, 0.0, 2023-04-21 12:11:49.624
89.0, -49593.64826603512, -30667.040427570395, 187500.0, 187500.0, 187500.0, 187500.0, 187500.0, 187500.0, 0.042, 0.986, -0.042, 192.0, 0.0, 0.0, 0.0, 0.0, 0.0, 0.0, 0.0, 0.0, 0.0, 1.682097109670051E9, 0.0, 2023-04-21 12:11:49.670
90.0, -49686.34095029128, -30706.6477187452, 187500.0, 187500.0, 187500.0, 187500.0, 187500.0, 187500.0, 0.034, 0.992, -0.048, 192.0, 1.0, 16.0, 31.0, 0.0, 254.0, 128.0, 0.0, 0.0, 0.0, 1.6820971096700728E9, 0.0, 2023-04-21 12:11:49.670
91.0, -49644.49848467094, -30606.40014486315, 187500.0, 187500.0, 187500.0, 187500.0, 187500.0, 187500.0, 0.034, 0.992, -0.048, 192.0, 0.0, 0.0, 0.0, 0.0, 0.0, 0.0, 0.0, 0.0, 0.0, 1.6820971096861644E9, 0.0, 2023-04-21 12:11:49.686
92.0, -49548.877721891135, -30514.780344340845, 187500.0, 187500.0, 187500.0, 187500.0, 187500.0, 187500.0, 0.034, 0.992, -0.048, 192.0, 0.0, 0.0, 0.0, 0.0, 0.0, 0.0, 0.0, 0.0, 0.0, 1.6820971097173545E9, 0.0, 2023-04-21 12:11:49.717
93.0, -49588.663827021584, -30665.766378136443, 187500.0, 187500.0, 187500.0, 187500.0, 187500.0, 187500.0, 0.034, 0.992, -0.048, 192.0, 0.0, 0.0, 0.0, 0.0, 0.0, 0.0, 0.0, 0.0, 0.0, 1.682097109717394E9, 0.0, 2023-04-21 12:11:49.717
103.0, -49706.47987204551, -30699.74102970851, 187500.0, 187500.0, 187500.0, 187500.0, 187500.0, 187500.0, 0.034, 0.992, -0.048, 192.0, 0.0, 0.0, 0.0, 0.0, 0.0, 0.0, 0.0, 0.0, 0.0, 1.6820971098993797E9, 0.0, 2023-04-21 12:11:49.899
101.0, -49566.04386163281, -30599.91813897111, 187500.0, 187500.0, 187500.0, 187500.0, 187500.0, 187500.0, 0.034, 0.992, -0.048, 192.0, 0.0, 0.0, 0.0, 0.0, 0.0, 0.0, 0.0, 0.0, 0.0, 1.6820971098994167E9, 0.0, 2023-04-21 12:11:49.899
98.0, -49664.369185491705, -30729.155925411695, 187500.0, 187500.0, 187500.0, 187500.0, 187500.0, 187500.0, 0.034, 0.992, -0.048, 192.0, 0.0, 0.0, 0.0, 0.0, 0.0, 0.0, 0.0, 0.0, 0.0, 1.6820971098994308E9, 0.0, 2023-04-21 12:11:49.899
99.0, -49671.40998499513, -30655.81985185383, 187500.0, 187500.0, 187500.0, 187500.0, 187500.0, 187500.0, 0.034, 0.992, -0.048, 192.0, 0.0, 0.0, 0.0, 0.0, 0.0, 0.0, 0.0, 0.0, 0.0, 1.6820971098994424E9, 0.0, 2023-04-21 12:11:49.899
104.0, -49602.32074288378, -30567.821033933287, 187500.0, 187500.0, 187500.0, 187500.0, 187500.0, 187500.0, 0.034, 0.992, -0.048, 192.0, 0.0, 0.0, 0.0, 0.0, 0.0, 0.0, 0.0, 0.0, 0.0, 1.6820971098994539E9, 0.0, 2023-04-21 12:11:49.899
105.0, -49556.47731500594, -30582.70729574052, 187500.0, 187500.0, 187500.0, 187500.0, 187500.0, 187500.0, 0.034, 0.992, -0.048, 192.0, 0.0, 0.0, 0.0, 0.0, 0.0, 0.0, 0.0, 0.0, 0.0, 1.6820971098994648E9, 0.0, 2023-04-21 12:11:49.899
113.0, -49545.94964336749, -30528.571370669768, 187500.0, 187500.0, 187500.0, 187500.0, 187500.0, 187500.0, 0.034, 0.992, -0.048, 192.0, 0.0, 0.0, 0.0, 0.0, 0.0, 0.0, 0.0, 0.0, 0.0, 1.682097109899476E9, 0.0, 2023-04-21 12:11:49.899
111.0, -49695.79573819587, -30717.823590972854, 187500.0, 187500.0, 187500.0, 187500.0, 187500.0, 187500.0, 0.034, 0.992, -0.048, 192.0, 0.0, 0.0, 0.0, 0.0, 0.0, 0.0, 0.0, 0.0, 0.0, 1.682097109899495E9, 0.0, 2023-04-21 12:11:49.899
108.0, -49625.432446650564, -30585.233042863973, 187500.0, 187500.0, 187500.0, 187500.0, 187500.0, 187500.0, 0.034, 0.992, -0.048, 192.0, 0.0, 0.0, 0.0, 0.0, 0.0, 0.0, 0.0, 0.0, 0.0, 1.682097109899506E9, 0.0, 2023-04-21 12:11:49.899
109.0, -49553.12455333764, -30562.47896700847, 187500.0, 187500.0, 187500.0, 187500.0, 187500.0, 187500.0, 0.034, 0.992, -0.048, 192.0, 0.0, 0.0, 0.0, 0.0, 0.0, 0.0, 0.0, 0.0, 0.0, 1.6820971098995187E9, 0.0, 2023-04-21 12:11:49.899
125.0, -49591.43544333404, -30545.581048200256, 187500.0, 187500.0, 187500.0, 187500.0, 187500.0, 187500.0, 0.034, 0.992, -0.048, 192.0, 0.0, 0.0, 0.0, 0.0, 0.0, 0.0, 0.0, 0.0, 0.0, 1.6820971098995297E9, 0.0, 2023-04-21 12:11:49.899
118.0, -49587.03214967634, -30666.705151403567, 187500.0, 187500.0, 187500.0, 187500.0, 187500.0, 187500.0, 0.034, 0.992, -0.048, 192.0, 0.0, 0.0, 0.0, 0.0, 0.0, 0.0, 0.0, 0.0, 0.0, 1.682097109899541E9, 0.0, 2023-04-21 12:11:49.899
116.0, -49645.50431317143, -30609.48468559798, 187500.0, 187500.0, 187500.0, 187500.0, 187500.0, 187500.0, 0.034, 0.992, -0.048, 192.0, 0.0, 0.0, 0.0, 0.0, 0.0, 0.0, 0.0, 0.0, 0.0, 1.6820971098995519E9, 0.0, 2023-04-21 12:11:49.899
130.0, -49560.45592551898, -30571.79964444633, 187500.0, 187500.0, 187500.0, 187500.0, 187500.0, 187500.0, 0.034, 0.992, -0.048, 192.0, 0.0, 0.0, 0.0, 0.0, 0.0, 0.0, 0.0, 0.0, 0.0, 1.6820971098995628E9, 0.0, 2023-04-21 12:11:49.899
136.0, -49700.95899116505, -30691.761456937966, 187500.0, 187500.0, 187500.0, 187500.0, 187500.0, 187500.0, 0.034, 0.992, -0.048, 192.0, 0.0, 0.0, 0.0, 0.0, 0.0, 0.0, 0.0, 0.0, 0.0, 1.682097109899574E9, 0.0, 2023-04-21 12:11:49.899
150.0, -49611.19438543253, -30509.527684393848, 187500.0, 187500.0, 187500.0, 187500.0, 187500.0, 187500.0, 0.034, 0.992, -0.048, 192.0, 0.0, 0.0, 0.0, 0.0, 0.0, 0.0, 0.0, 0.0, 0.0, 1.6820971098996265E9, 0.0, 2023-04-21 12:11:49.899
155.0, -49560.90296040809, -30519.451858932003, 187500.0, 187500.0, 187500.0, 187500.0, 187500.0, 187500.0, 0.034, 0.992, -0.048, 192.0, 0.0, 0.0, 0.0, 0.0, 0.0, 0.0, 0.0, 0.0, 0.0, 1.682097109899638E9, 0.0, 2023-04-21 12:11:49.899
134.0, -49545.9943468564, -30524.458649689994, 187500.0, 187500.0, 187500.0, 187500.0, 187500.0, 187500.0, 0.034, 0.992, -0.048, 192.0, 0.0, 0.0, 0.0, 0.0, 0.0, 0.0, 0.0, 0.0, 0.0, 1.6820971098996494E9, 0.0, 2023-04-21 12:11:49.899
153.0, -49711.12903489221, -30654.16582276414, 187500.0, 187500.0, 187500.0, 187500.0, 187500.0, 187500.0, 0.034, 0.992, -0.048, 192.0, 0.0, 0.0, 0.0, 0.0, 0.0, 0.0, 0.0, 0.0, 0.0, 1.6820971098996603E9, 0.0, 2023-04-21 12:11:49.899
146.0, -49574.38106231464, -30497.32363192125, 187500.0, 187500.0, 187500.0, 187500.0, 187500.0, 187500.0, 0.034, 0.992, -0.048, 192.0, 0.0, 0.0, 0.0, 0.0, 0.0, 0.0, 0.0, 0.0, 0.0, 1.6820971098996713E9, 0.0, 2023-04-21 12:11:49.899
161.0, -49706.658686001145, -30647.59440989428, 187500.0, 187500.0, 187500.0, 187500.0, 187500.0, 187500.0, 0.026000000000000002, 0.992, -0.038, 192.0, 0.0, 208.0, 31.0, 0.0, 254.0, 208.0, 0.0, 0.0, 0.0, 1.6820971098996823E9, 0.0, 2023-04-21 12:11:49.899
139.0, -49605.38293187415, -30660.267849000436, 187500.0, 187500.0, 187500.0, 187500.0, 187500.0, 187500.0, 0.026000000000000002, 0.992, -0.038, 192.0, 0.0, 0.0, 0.0, 0.0, 0.0, 0.0, 0.0, 0.0, 0.0, 1.682097109899694E9, 0.0, 2023-04-21 12:11:49.899
166.0, -49686.16213633563, -30575.53238577037, 187500.0, 187500.0, 187500.0, 187500.0, 187500.0, 187500.0, 0.026000000000000002, 0.992, -0.038, 192.0, 0.0, 0.0, 0.0, 0.0, 0.0, 0.0, 0.0, 0.0, 0.0, 1.6820971098997052E9, 0.0, 2023-04-21 12:11:49.899
151.0, -49566.75911745538, -30549.336141268748, 187500.0, 187500.0, 187500.0, 187500.0, 187500.0, 187500.0, 0.022, 0.992, -0.042, 192.0, 0.0, 176.0, 31.0, 0.0, 254.0, 176.0, 0.0, 0.0, 0.0, 1.682097109899716E9, 0.0, 2023-04-21 12:11:49.899
164.0, -49626.550033873325, -30616.905464757143, 187500.0, 187500.0, 187500.0, 187500.0, 187500.0, 187500.0, 0.022, 0.992, -0.042, 192.0, 0.0, 0.0, 0.0, 0.0, 0.0, 0.0, 0.0, 0.0, 0.0, 1.6820971098997278E9, 0.0, 2023-04-21 12:11:49.899
157.0, -49709.184433124596, -30657.16095652115, 187500.0, 187500.0, 187500.0, 187500.0, 187500.0, 187500.0, 0.022, 0.992, -0.042, 192.0, 0.0, 0.0, 0.0, 0.0, 0.0, 0.0, 0.0, 0.0, 0.0, 1.6820971098997388E9, 0.0, 2023-04-21 12:11:49.899
162.0, -49651.516932429906, -30536.372129484673, 187500.0, 187500.0, 187500.0, 187500.0, 187500.0, 187500.0, 0.022, 0.992, -0.042, 192.0, 0.0, 0.0, 0.0, 0.0, 0.0, 0.0, 0.0, 0.0, 0.0, 1.6820971098997495E9, 0.0, 2023-04-21 12:11:49.899
167.0, -49594.184707902044, -30497.502445876893, 187500.0, 187500.0, 187500.0, 187500.0, 187500.0, 187500.0, 0.022, 0.992, -0.042, 192.0, 0.0, 0.0, 0.0, 0.0, 0.0, 0.0, 0.0, 0.0, 0.0, 1.6820971098997607E9, 0.0, 2023-04-21 12:11:49.899
168.0, -49606.61227781919, -30622.985139248987, 187500.0, 187500.0, 187500.0, 187500.0, 187500.0, 187500.0, 0.022, 0.992, -0.042, 192.0, 0.0, 0.0, 0.0, 0.0, 0.0, 0.0, 0.0, 0.0, 0.0, 1.6820971098997743E9, 0.0, 2023-04-21 12:11:49.899
169.0, -49707.17277612362, -30708.145285623705, 187500.0, 187500.0, 187500.0, 187500.0, 187500.0, 187500.0, 0.022, 0.992, -0.042, 192.0, 0.0, 0.0, 0.0, 0.0, 0.0, 0.0, 0.0, 0.0, 0.0, 1.6820971098997853E9, 0.0, 2023-04-21 12:11:49.899
170.0, -49719.30977336285, -30641.49238365798, 187500.0, 187500.0, 187500.0, 187500.0, 187500.0, 187500.0, 0.022, 0.992, -0.042, 192.0, 0.0, 0.0, 0.0, 0.0, 0.0, 0.0, 0.0, 0.0, 0.0, 1.6820971098998113E9, 0.0, 2023-04-21 12:11:49.899
171.0, -49598.18567015954, -30500.810504056277, 187500.0, 187500.0, 187500.0, 187500.0, 187500.0, 187500.0, 0.022, 0.992, -0.042, 192.0, 0.0, 0.0, 0.0, 0.0, 0.0, 0.0, 0.0, 0.0, 0.0, 1.6820971098998225E9, 0.0, 2023-04-21 12:11:49.899
172.0, -49590.563725300286, -30590.306888855328, 187500.0, 187500.0, 187500.0, 187500.0, 187500.0, 187500.0, 0.036000000000000004, 0.996, -0.04, 192.0, 1.0, 32.0, 31.0, 32.0, 254.0, 192.0, 0.0, 0.0, 0.0, 1.6820971098998337E9, 0.0, 2023-04-21 12:11:49.899
173.0, -49691.97358989401, -30701.842093687308, 187500.0, 187500.0, 187500.0, 187500.0, 187500.0, 187500.0, 0.036000000000000004, 0.996, -0.04, 192.0, 0.0, 0.0, 0.0, 0.0, 0.0, 0.0, 0.0, 0.0, 0.0, 1.6820971098998458E9, 0.0, 2023-04-21 12:11:49.899
174.0, -49724.070694931834, -30645.82862208231, 187500.0, 187500.0, 187500.0, 187500.0, 187500.0, 187500.0, 0.036000000000000004, 0.996, -0.04, 192.0, 0.0, 0.0, 0.0, 0.0, 0.0, 0.0, 0.0, 0.0, 0.0, 1.682097109899857E9, 0.0, 2023-04-21 12:11:49.899
175.0, -49614.0107052339, -30498.485922632924, 187500.0, 187500.0, 187500.0, 187500.0, 187500.0, 187500.0, 0.036000000000000004, 0.996, -0.04, 192.0, 0.0, 0.0, 0.0, 0.0, 0.0, 0.0, 0.0, 0.0, 0.0, 1.682097109899868E9, 0.0, 2023-04-21 12:11:49.899
176.0, -49578.98552167243, -30543.077652821263, 187500.0, 187500.0, 187500.0, 187500.0, 187500.0, 187500.0, 0.036000000000000004, 0.996, -0.04, 192.0, 0.0, 0.0, 0.0, 0.0, 0.0, 0.0, 0.0, 0.0, 0.0, 1.6820971098998787E9, 0.0, 2023-04-21 12:11:49.899
177.0, -49673.332235018286, -30681.50200623298, 187500.0, 187500.0, 187500.0, 187500.0, 187500.0, 187500.0, 0.036000000000000004, 0.996, -0.04, 192.0, 0.0, 0.0, 0.0, 0.0, 0.0, 0.0, 0.0, 0.0, 0.0, 1.68209710989989E9, 0.0, 2023-04-21 12:11:49.899
178.0, -49727.33404962231, -30651.036578540396, 187500.0, 187500.0, 187500.0, 187500.0, 187500.0, 187500.0, 0.036000000000000004, 0.996, -0.04, 192.0, 0.0, 0.0, 0.0, 0.0, 0.0, 0.0, 0.0, 0.0, 0.0, 1.682097109899901E9, 0.0, 2023-04-21 12:11:49.899
179.0, -49648.566502161804, -30493.725001063944, 187500.0, 187500.0, 187500.0, 187500.0, 187500.0, 187500.0, 0.036000000000000004, 0.996, -0.04, 192.0, 0.0, 0.0, 0.0, 0.0, 0.0, 0.0, 0.0, 0.0, 0.0, 1.6820971098999119E9, 0.0, 2023-04-21 12:11:49.899
180.0, -49589.066158421774, -30436.526887002816, 187500.0, 187500.0, 187500.0, 187500.0, 187500.0, 187500.0, 0.036000000000000004, 0.996, -0.04, 192.0, 0.0, 0.0, 0.0, 0.0, 0.0, 0.0, 0.0, 0.0, 0.0, 1.6820971098999228E9, 0.0, 2023-04-21 12:11:49.899
181.0, -49674.62863619669, -30592.20678713403, 187500.0, 187500.0, 187500.0, 187500.0, 187500.0, 187500.0, 0.036000000000000004, 0.996, -0.04, 192.0, 0.0, 0.0, 0.0, 0.0, 0.0, 0.0, 0.0, 0.0, 0.0, 1.6820971098999336E9, 0.0, 2023-04-21 12:11:49.899
182.0, -49745.28250041992, -30585.076580652785, 187500.0, 187500.0, 187500.0, 187500.0, 187500.0, 187500.0, 0.034, 1.0, -0.038, 192.0, 1.0, 16.0, 31.0, 64.0, 254.0, 208.0, 0.0, 0.0, 0.0, 1.6820971098999443E9, 0.0, 2023-04-21 12:11:49.899
183.0, -49677.802583909346, -30464.8912507166, 187500.0, 187500.0, 187500.0, 187500.0, 187500.0, 187500.0, 0.034, 1.0, -0.038, 192.0, 0.0, 0.0, 0.0, 0.0, 0.0, 0.0, 0.0, 0.0, 0.0, 1.6820971098999562E9, 0.0, 2023-04-21 12:11:49.899
184.0, -49596.64339979213, -30413.750459402858, 187500.0, 187500.0, 187500.0, 187500.0, 187500.0, 187500.0, 0.034, 1.0, -0.038, 192.0, 0.0, 0.0, 0.0, 0.0, 0.0, 0.0, 0.0, 0.0, 0.0, 1.6820971098999672E9, 0.0, 2023-04-21 12:11:49.899
185.0, -49660.25646451193, -30575.28651658136, 187500.0, 187500.0, 187500.0, 187500.0, 187500.0, 187500.0, 0.034, 1.0, -0.038, 192.0, 0.0, 0.0, 0.0, 0.0, 0.0, 0.0, 0.0, 0.0, 0.0, 1.6820971100773976E9, 0.0, 2023-04-21 12:11:50.077
186.0, -49749.48462837752, -30600.365173860217, 187500.0, 187500.0, 187500.0, 187500.0, 187500.0, 187500.0, 0.034, 1.0, -0.038, 192.0, 0.0, 0.0, 0.0, 0.0, 0.0, 0.0, 0.0, 0.0, 0.0, 1.682097110077443E9, 0.0, 2023-04-21 12:11:50.077
187.0, -49710.32437209182, -30496.630727843134, 187500.0, 187500.0, 187500.0, 187500.0, 187500.0, 187500.0, 0.034, 1.0, -0.038, 192.0, 0.0, 0.0, 0.0, 0.0, 0.0, 0.0, 0.0, 0.0, 0.0, 1.6820971100774584E9, 0.0, 2023-04-21 12:11:50.077
188.0, -49606.992257474936, -30407.134343044087, 187500.0, 187500.0, 187500.0, 187500.0, 187500.0, 187500.0, 0.034, 1.0, -0.038, 192.0, 0.0, 0.0, 0.0, 0.0, 0.0, 0.0, 0.0, 0.0, 0.0, 1.6820971100774732E9, 0.0, 2023-04-21 12:11:50.077
189.0, -49643.62676663718, -30548.66558893509, 187500.0, 187500.0, 187500.0, 187500.0, 187500.0, 187500.0, 0.034, 1.0, -0.038, 192.0, 0.0, 0.0, 0.0, 0.0, 0.0, 0.0, 0.0, 0.0, 0.0, 1.6820971100774992E9, 0.0, 2023-04-21 12:11:50.077
190.0, -49742.041497473896, -30606.71306928552, 187500.0, 187500.0, 187500.0, 187500.0, 187500.0, 187500.0, 0.034, 1.0, -0.038, 192.0, 0.0, 0.0, 0.0, 0.0, 0.0, 0.0, 0.0, 0.0, 0.0, 1.6820971100775137E9, 0.0, 2023-04-21 12:11:50.077
191.0, -49727.356401366764, -30521.977606055454, 187500.0, 187500.0, 187500.0, 187500.0, 187500.0, 187500.0, 0.034, 1.0, -0.038, 192.0, 0.0, 0.0, 0.0, 0.0, 0.0, 0.0, 0.0, 0.0, 0.0, 1.6820971100775278E9, 0.0, 2023-04-21 12:11:50.077
192.0, -49618.34694365823, -30404.586244176182, 187500.0, 187500.0, 187500.0, 187500.0, 187500.0, 187500.0, 0.028, 0.992, -0.034, 192.0, 0.0, 224.0, 31.0, 0.0, 254.0, 240.0, 0.0, 0.0, 0.0, 1.6820971100775416E9, 0.0, 2023-04-21 12:11:50.077
193.0, -49629.902795541624, -30523.18460025604, 187500.0, 187500.0, 187500.0, 187500.0, 187500.0, 187500.0, 0.028, 0.992, -0.034, 192.0, 0.0, 0.0, 0.0, 0.0, 0.0, 0.0, 0.0, 0.0, 0.0, 1.6820971100775604E9, 0.0, 2023-04-21 12:11:50.077
194.0, -49714.12416864922, -30597.14652265865, 187500.0, 187500.0, 187500.0, 187500.0, 187500.0, 187500.0, 0.028, 0.992, -0.034, 192.0, 0.0, 0.0, 0.0, 0.0, 0.0, 0.0, 0.0, 0.0, 0.0, 1.682097110077576E9, 0.0, 2023-04-21 12:11:50.077
195.0, -49725.41179959915, -30531.99118757143, 187500.0, 187500.0, 187500.0, 187500.0, 187500.0, 187500.0, 0.028, 0.992, -0.034, 192.0, 0.0, 0.0, 0.0, 0.0, 0.0, 0.0, 0.0, 0.0, 0.0, 1.6820971100775928E9, 0.0, 2023-04-21 12:11:50.077
196.0, -49618.59281284724, -30402.373421475106, 187500.0, 187500.0, 187500.0, 187500.0, 187500.0, 187500.0, 0.028, 0.992, -0.034, 192.0, 0.0, 0.0, 0.0, 0.0, 0.0, 0.0, 0.0, 0.0, 0.0, 1.6820971100776095E9, 0.0, 2023-04-21 12:11:50.077
197.0, -49604.82413826277, -30479.218718912452, 187500.0, 187500.0, 187500.0, 187500.0, 187500.0, 187500.0, 0.028, 0.992, -0.034, 192.0, 0.0, 0.0, 0.0, 0.0, 0.0, 0.0, 0.0, 0.0, 0.0, 1.6820971100776284E9, 0.0, 2023-04-21 12:11:50.077
198.0, -49701.33897082078, -30596.274804624893, 187500.0, 187500.0, 187500.0, 187500.0, 187500.0, 187500.0, 0.028, 0.992, -0.034, 192.0, 0.0, 0.0, 0.0, 0.0, 0.0, 0.0, 0.0, 0.0, 0.0, 1.682097110077643E9, 0.0, 2023-04-21 12:11:50.077
199.0, -49730.53034907942, -30537.646178918625, 187500.0, 187500.0, 187500.0, 187500.0, 187500.0, 187500.0, 0.028, 0.992, -0.034, 192.0, 0.0, 0.0, 0.0, 0.0, 0.0, 0.0, 0.0, 0.0, 0.0, 1.6820971100776567E9, 0.0, 2023-04-21 12:11:50.077
200.0, -49632.003859520424, -30398.618328406614, 187500.0, 187500.0, 187500.0, 187500.0, 187500.0, 187500.0, 0.028, 0.992, -0.034, 192.0, 0.0, 0.0, 0.0, 0.0, 0.0, 0.0, 0.0, 0.0, 0.0, 1.6820971100776708E9, 0.0, 2023-04-21 12:11:50.077
201.0, -49596.15166141411, -30435.945741646978, 187500.0, 187500.0, 187500.0, 187500.0, 187500.0, 187500.0, 0.028, 0.992, -0.034, 192.0, 0.0, 0.0, 0.0, 0.0, 0.0, 0.0, 0.0, 0.0, 0.0, 1.68209711007776E9, 0.0, 2023-04-21 12:11:50.077
202.0, -49692.822956183314, -30589.077542910287, 187500.0, 187500.0, 187500.0, 187500.0, 187500.0, 187500.0, 0.022, 0.996, -0.032, 192.0, 0.0, 176.0, 31.0, 32.0, 255.0, 0.0, 0.0, 0.0, 0.0, 1.6820971100777748E9, 0.0, 2023-04-21 12:11:50.077
218.0, -49639.98343229097, -30492.048620229798, 187500.0, 187500.0, 187500.0, 187500.0, 187500.0, 187500.0, 0.022, 0.996, -0.032, 192.0, 0.0, 0.0, 0.0, 0.0, 0.0, 0.0, 0.0, 0.0, 0.0, 1.6820971100777905E9, 0.0, 2023-04-21 12:11:50.077
204.0, -49668.280740771384, -30435.92338990252, 187500.0, 187500.0, 187500.0, 187500.0, 187500.0, 187500.0, 0.022, 0.996, -0.032, 192.0, 0.0, 0.0, 0.0, 0.0, 0.0, 0.0, 0.0, 0.0, 0.0, 1.6820971100778043E9, 0.0, 2023-04-21 12:11:50.077
205.0, -49605.24882140742, -30421.282997284296, 187500.0, 187500.0, 187500.0, 187500.0, 187500.0, 187500.0, 0.022, 0.996, -0.032, 192.0, 0.0, 0.0, 0.0, 0.0, 0.0, 0.0, 0.0, 0.0, 0.0, 1.6820971100778186E9, 0.0, 2023-04-21 12:11:50.077
206.0, -49679.9259996326, -30575.890013681656, 187500.0, 187500.0, 187500.0, 187500.0, 187500.0, 187500.0, 0.022, 0.996, -0.032, 192.0, 0.0, 0.0, 0.0, 0.0, 0.0, 0.0, 0.0, 0.0, 0.0, 1.6820971100778327E9, 0.0, 2023-04-21 12:11:50.077
207.0, -49764.70616635158, -30584.562490530312, 187500.0, 187500.0, 187500.0, 187500.0, 187500.0, 187500.0, 0.022, 0.996, -0.032, 192.0, 0.0, 0.0, 0.0, 0.0, 0.0, 0.0, 0.0, 0.0, 0.0, 1.6820971100778468E9, 0.0, 2023-04-21 12:11:50.077
216.0, -49732.877282247224, -30495.066105731265, 187500.0, 187500.0, 187500.0, 187500.0, 187500.0, 187500.0, 0.022, 0.996, -0.032, 192.0, 0.0, 0.0, 0.0, 0.0, 0.0, 0.0, 0.0, 0.0, 0.0, 1.682097110077861E9, 0.0, 2023-04-21 12:11:50.077
214.0, -49647.49361842795, -30520.390632199127, 187500.0, 187500.0, 187500.0, 187500.0, 187500.0, 187500.0, 0.022, 0.996, -0.032, 192.0, 0.0, 0.0, 0.0, 0.0, 0.0, 0.0, 0.0, 0.0, 0.0, 1.6820971100778754E9, 0.0, 2023-04-21 12:11:50.077
210.0, -49660.34587148975, -30549.60436220221, 187500.0, 187500.0, 187500.0, 187500.0, 187500.0, 187500.0, 0.022, 0.996, -0.032, 192.0, 0.0, 0.0, 0.0, 0.0, 0.0, 0.0, 0.0, 0.0, 0.0, 1.6820971100778897E9, 0.0, 2023-04-21 12:11:50.077
211.0, -49747.31650916535, -30578.39340906065, 187500.0, 187500.0, 187500.0, 187500.0, 187500.0, 187500.0, 0.022, 0.996, -0.032, 192.0, 0.0, 0.0, 0.0, 0.0, 0.0, 0.0, 0.0, 0.0, 0.0, 1.6820971100779064E9, 0.0, 2023-04-21 12:11:50.077
212.0, -49710.77140698092, -30476.536509577814, 187500.0, 187500.0, 187500.0, 187500.0, 187500.0, 187500.0, 0.028, 0.994, -0.026000000000000002, 192.0, 0.0, 224.0, 31.0, 16.0, 255.0, 48.0, 0.0, 0.0, 0.0, 1.6820971100779204E9, 0.0, 2023-04-21 12:11:50.077
219.0, -49731.64793630218, -30573.81130144731, 187500.0, 187500.0, 187500.0, 187500.0, 187500.0, 187500.0, 0.028, 0.994, -0.026000000000000002, 192.0, 0.0, 0.0, 0.0, 0.0, 0.0, 0.0, 0.0, 0.0, 0.0, 1.6820971100779352E9, 0.0, 2023-04-21 12:11:50.077
220.0, -49742.91321550766, -30506.376088425648, 187500.0, 187500.0, 187500.0, 187500.0, 187500.0, 187500.0, 0.028, 0.994, -0.026000000000000002, 192.0, 0.0, 0.0, 0.0, 0.0, 0.0, 0.0, 0.0, 0.0, 0.0, 1.6820971100779493E9, 0.0, 2023-04-21 12:11:50.077
221.0, -49637.12240900069, -30371.282144937773, 187500.0, 187500.0, 187500.0, 187500.0, 187500.0, 187500.0, 0.028, 0.994, -0.026000000000000002, 192.0, 0.0, 0.0, 0.0, 0.0, 0.0, 0.0, 0.0, 0.0, 0.0, 1.6820971100779636E9, 0.0, 2023-04-21 12:11:50.077
222.0, -49631.95915603151, -30452.620143010634, 187500.0, 187500.0, 187500.0, 187500.0, 187500.0, 187500.0, 0.028, 0.994, -0.026000000000000002, 192.0, 0.0, 0.0, 0.0, 0.0, 0.0, 0.0, 0.0, 0.0, 0.0, 1.6820971100779989E9, 0.0, 2023-04-21 12:11:50.077
223.0, -49730.999735712976, -30578.348705571738, 187500.0, 187500.0, 187500.0, 187500.0, 187500.0, 187500.0, 0.024, 0.99, -0.028, 192.0, 0.0, 192.0, 30.0, 240.0, 255.0, 32.0, 0.0, 0.0, 0.0, 1.6820971100780127E9, 0.0, 2023-04-21 12:11:50.078
224.0, -49769.78001234293, -30531.94648408252, 187500.0, 187500.0, 187500.0, 187500.0, 187500.0, 187500.0, 0.024, 0.99, -0.028, 192.0, 0.0, 0.0, 0.0, 0.0, 0.0, 0.0, 0.0, 0.0, 0.0, 1.6820971100780275E9, 0.0, 2023-04-21 12:11:50.078
225.0, -49668.48190647148, -30393.611537648623, 187500.0, 187500.0, 187500.0, 187500.0, 187500.0, 187500.0, 0.024, 0.99, -0.028, 192.0, 0.0, 0.0, 0.0, 0.0, 0.0, 0.0, 0.0, 0.0, 0.0, 1.6820971100780416E9, 0.0, 2023-04-21 12:11:50.078
226.0, -49631.17684497558, -30426.893285142578, 187500.0, 187500.0, 187500.0, 187500.0, 187500.0, 187500.0, 0.024, 0.99, -0.028, 192.0, 0.0, 0.0, 0.0, 0.0, 0.0, 0.0, 0.0, 0.0, 0.0, 1.6820971100780556E9, 0.0, 2023-04-21 12:11:50.078
227.0, -49713.878299460215, -30566.926964155075, 187500.0, 187500.0, 187500.0, 187500.0, 187500.0, 187500.0, 0.024, 0.99, -0.028, 192.0, 0.0, 0.0, 0.0, 0.0, 0.0, 0.0, 0.0, 0.0, 0.0, 1.6820971100780697E9, 0.0, 2023-04-21 12:11:50.078
228.0, -49773.93743681162, -30547.95033311252, 187500.0, 187500.0, 187500.0, 187500.0, 187500.0, 187500.0, 0.024, 0.99, -0.028, 192.0, 0.0, 0.0, 0.0, 0.0, 0.0, 0.0, 0.0, 0.0, 0.0, 1.6820971100780835E9, 0.0, 2023-04-21 12:11:50.078
229.0, -49688.95610439254, -30418.287863527283, 187500.0, 187500.0, 187500.0, 187500.0, 187500.0, 187500.0, 0.024, 0.99, -0.028, 192.0, 0.0, 0.0, 0.0, 0.0, 0.0, 0.0, 0.0, 0.0, 0.0, 1.682097110078097E9, 0.0, 2023-04-21 12:11:50.078
230.0, -49618.39164714714, -30392.985688803878, 187500.0, 187500.0, 187500.0, 187500.0, 187500.0, 187500.0, 0.024, 0.99, -0.028, 192.0, 0.0, 0.0, 0.0, 0.0, 0.0, 0.0, 0.0, 0.0, 0.0, 1.6820971100781116E9, 0.0, 2023-04-21 12:11:50.078
231.0, -49696.22042134052, -30555.99696111643, 187500.0, 187500.0, 187500.0, 187500.0, 187500.0, 187500.0, 0.024, 0.99, -0.028, 192.0, 0.0, 0.0, 0.0, 0.0, 0.0, 0.0, 0.0, 0.0, 0.0, 1.6820971100781257E9, 0.0, 2023-04-21 12:11:50.078
232.0, -49773.8480298338, -30561.47313850798, 187500.0, 187500.0, 187500.0, 187500.0, 187500.0, 187500.0, 0.024, 0.99, -0.028, 192.0, 0.0, 0.0, 0.0, 0.0, 0.0, 0.0, 0.0, 0.0, 0.0, 1.6820971100781393E9, 0.0, 2023-04-21 12:11:50.078
233.0, -49714.302982604866, -30446.5851720077, 187500.0, 187500.0, 187500.0, 187500.0, 187500.0, 187500.0, 0.034, 0.988, -0.026000000000000002, 192.0, 1.0, 16.0, 30.0, 224.0, 255.0, 48.0, 0.0, 0.0, 0.0, 1.6820971100781534E9, 0.0, 2023-04-21 12:11:50.078
234.0, -49631.53447288686, -30381.96627878741, 187500.0, 187500.0, 187500.0, 187500.0, 187500.0, 187500.0, 0.034, 0.988, -0.026000000000000002, 192.0, 0.0, 0.0, 0.0, 0.0, 0.0, 0.0, 0.0, 0.0, 0.0, 1.6820971104132051E9, 0.0, 2023-04-21 12:11:50.413
235.0, -49692.66649397212, -30545.33517901125, 187500.0, 187500.0, 187500.0, 187500.0, 187500.0, 187500.0, 0.034, 0.988, -0.026000000000000002, 192.0, 0.0, 0.0, 0.0, 0.0, 0.0, 0.0, 0.0, 0.0, 0.0, 1.6820971104132335E9, 0.0, 2023-04-21 12:11:50.413
236.0, -49775.47970717904, -30574.19128110305, 187500.0, 187500.0, 187500.0, 187500.0, 187500.0, 187500.0, 0.034, 0.988, -0.026000000000000002, 192.0, 0.0, 0.0, 0.0, 0.0, 0.0, 0.0, 0.0, 0.0, 0.0, 1.6820971104132528E9, 0.0, 2023-04-21 12:11:50.413
237.0, -49747.22710218753, -30477.341172378205, 187500.0, 187500.0, 187500.0, 187500.0, 187500.0, 187500.0, 0.034, 0.988, -0.026000000000000002, 192.0, 0.0, 0.0, 0.0, 0.0, 0.0, 0.0, 0.0, 0.0, 0.0, 1.6820971104133058E9, 0.0, 2023-04-21 12:11:50.413
238.0, -49644.05144978183, -30375.48427289537, 187500.0, 187500.0, 187500.0, 187500.0, 187500.0, 187500.0, 0.034, 0.988, -0.026000000000000002, 192.0, 0.0, 0.0, 0.0, 0.0, 0.0, 0.0, 0.0, 0.0, 0.0, 1.6820971104133213E9, 0.0, 2023-04-21 12:11:50.413
239.0, -49668.30309251584, -30509.639443116124, 187500.0, 187500.0, 187500.0, 187500.0, 187500.0, 187500.0, 0.034, 0.988, -0.026000000000000002, 192.0, 0.0, 0.0, 0.0, 0.0, 0.0, 0.0, 0.0, 0.0, 0.0, 1.6820971104133315E9, 0.0, 2023-04-21 12:11:50.413
240.0, -49769.55649489838, -30581.589708517757, 187500.0, 187500.0, 187500.0, 187500.0, 187500.0, 187500.0, 0.034, 0.988, -0.026000000000000002, 192.0, 0.0, 0.0, 0.0, 0.0, 0.0, 0.0, 0.0, 0.0, 0.0, 1.6820971104133415E9, 0.0, 2023-04-21 12:11:50.413
241.0, -49762.00160527249, -30495.31197492027, 187500.0, 187500.0, 187500.0, 187500.0, 187500.0, 187500.0, 0.034, 0.988, -0.026000000000000002, 192.0, 0.0, 0.0, 0.0, 0.0, 0.0, 0.0, 0.0, 0.0, 0.0, 1.6820971104133515E9, 0.0, 2023-04-21 12:11:50.413
242.0, -49651.87456034119, -30367.571755358193, 187500.0, 187500.0, 187500.0, 187500.0, 187500.0, 187500.0, 0.034, 0.988, -0.026000000000000002, 192.0, 0.0, 0.0, 0.0, 0.0, 0.0, 0.0, 0.0, 0.0, 0.0, 1.6820971104133615E9, 0.0, 2023-04-21 12:11:50.413
243.0, -49660.59174067876, -30480.068085201754, 187500.0, 187500.0, 187500.0, 187500.0, 187500.0, 187500.0, 0.032, 0.988, -0.024, 192.0, 1.0, 0.0, 30.0, 224.0, 255.0, 64.0, 0.0, 0.0, 0.0, 1.6820971104133716E9, 0.0, 2023-04-21 12:11:50.413
244.0, -49762.26982620595, -30584.450731808036, 187500.0, 187500.0, 187500.0, 187500.0, 187500.0, 187500.0, 0.032, 0.988, -0.024, 192.0, 0.0, 0.0, 0.0, 0.0, 0.0, 0.0, 0.0, 0.0, 0.0, 1.6820971104133823E9, 0.0, 2023-04-21 12:11:50.413
245.0, -49784.30864623888, -30525.866809590676, 187500.0, 187500.0, 187500.0, 187500.0, 187500.0, 187500.0, 0.032, 0.988, -0.024, 192.0, 0.0, 0.0, 0.0, 0.0, 0.0, 0.0, 0.0, 0.0, 0.0, 1.6820971104133925E9, 0.0, 2023-04-21 12:11:50.413
246.0, -49678.294322287366, -30388.0236015348, 187500.0, 187500.0, 187500.0, 187500.0, 187500.0, 187500.0, 0.032, 0.988, -0.024, 192.0, 0.0, 0.0, 0.0, 0.0, 0.0, 0.0, 0.0, 0.0, 0.0, 1.6820971104134028E9, 0.0, 2023-04-21 12:11:50.413
247.0, -49667.96781634901, -30459.50448030287, 187500.0, 187500.0, 187500.0, 187500.0, 187500.0, 187500.0, 0.032, 0.988, -0.024, 192.0, 0.0, 0.0, 0.0, 0.0, 0.0, 0.0, 0.0, 0.0, 0.0, 1.6820971104134123E9, 0.0, 2023-04-21 12:11:50.413
248.0, -49761.062832005366, -30587.06588590931, 187500.0, 187500.0, 187500.0, 187500.0, 187500.0, 187500.0, 0.032, 0.988, -0.024, 192.0, 0.0, 0.0, 0.0, 0.0, 0.0, 0.0, 0.0, 0.0, 0.0, 1.6820971104134223E9, 0.0, 2023-04-21 12:11:50.413
249.0, -49798.99374234602, -30540.32838825326, 187500.0, 187500.0, 187500.0, 187500.0, 187500.0, 187500.0, 0.032, 0.988, -0.024, 192.0, 0.0, 0.0, 0.0, 0.0, 0.0, 0.0, 0.0, 0.0, 0.0, 1.6820971104134324E9, 0.0, 2023-04-21 12:11:50.413
250.0, -49708.02214241292, -30410.352994245648, 187500.0, 187500.0, 187500.0, 187500.0, 187500.0, 187500.0, 0.032, 0.988, -0.024, 192.0, 0.0, 0.0, 0.0, 0.0, 0.0, 0.0, 0.0, 0.0, 0.0, 1.6820971104134424E9, 0.0, 2023-04-21 12:11:50.413
251.0, -49663.76568839142, -30428.033224109797, 187500.0, 187500.0, 187500.0, 187500.0, 187500.0, 187500.0, 0.032, 0.988, -0.024, 192.0, 0.0, 0.0, 0.0, 0.0, 0.0, 0.0, 0.0, 0.0, 0.0, 1.682097110413452E9, 0.0, 2023-04-21 12:11:50.413
252.0, -49752.43505864561, -30576.38175205967, 187500.0, 187500.0, 187500.0, 187500.0, 187500.0, 187500.0, 0.032, 0.988, -0.024, 192.0, 0.0, 0.0, 0.0, 0.0, 0.0, 0.0, 0.0, 0.0, 0.0, 1.6820971104134765E9, 0.0, 2023-04-21 12:11:50.413
253.0, -49804.98400986004, -30545.42458598907, 187500.0, 187500.0, 187500.0, 187500.0, 187500.0, 187500.0, 0.022, 1.0, -0.026000000000000002, 192.0, 0.0, 176.0, 31.0, 64.0, 255.0, 48.0, 0.0, 0.0, 0.0, 1.6820971104134865E9, 0.0, 2023-04-21 12:11:50.413
254.0, -49729.07748568982, -30404.385078476083, 187500.0, 187500.0, 187500.0, 187500.0, 187500.0, 187500.0, 0.022, 1.0, -0.026000000000000002, 192.0, 0.0, 0.0, 0.0, 0.0, 0.0, 0.0, 0.0, 0.0, 0.0, 1.6820971104134972E9, 0.0, 2023-04-21 12:11:50.413
255.0, -49655.22732200949, -30354.227763918374, 187500.0, 187500.0, 187500.0, 187500.0, 187500.0, 187500.0, 0.022, 1.0, -0.026000000000000002, 192.0, 0.0, 0.0, 0.0, 0.0, 0.0, 0.0, 0.0, 0.0, 0.0, 1.6820971104135072E9, 0.0, 2023-04-21 12:11:50.413
0.0, -49728.965726967544, -30509.617091371667, 187500.0, 187500.0, 187500.0, 187500.0, 187500.0, 187500.0, 0.022, 1.0, -0.026000000000000002, 192.0, 0.0, 0.0, 0.0, 0.0, 0.0, 0.0, 0.0, 0.0, 0.0, 1.6820971104135172E9, 0.0, 2023-04-21 12:11:50.413
1.0, -49810.23666980704, -30517.14962925311, 187500.0, 187500.0, 187500.0, 187500.0, 187500.0, 187500.0, 0.022, 1.0, -0.026000000000000002, 192.0, 0.0, 0.0, 0.0, 0.0, 0.0, 0.0, 0.0, 0.0, 0.0, 1.682097110413527E9, 0.0, 2023-04-21 12:11:50.413
2.0, -49753.1950179571, -30407.35786048864, 187500.0, 187500.0, 187500.0, 187500.0, 187500.0, 187500.0, 0.022, 1.0, -0.026000000000000002, 192.0, 0.0, 0.0, 0.0, 0.0, 0.0, 0.0, 0.0, 0.0, 0.0, 1.682097110413537E9, 0.0, 2023-04-21 12:11:50.413
3.0, -49666.2243802815, -30335.653464276013, 187500.0, 187500.0, 187500.0, 187500.0, 187500.0, 187500.0, 0.022, 1.0, -0.026000000000000002, 192.0, 0.0, 0.0, 0.0, 0.0, 0.0, 0.0, 0.0, 0.0, 0.0, 1.6820971104135485E9, 0.0, 2023-04-21 12:11:50.413
4.0, -49706.234002856494, -30477.207061911475, 187500.0, 187500.0, 187500.0, 187500.0, 187500.0, 187500.0, 0.022, 1.0, -0.026000000000000002, 192.0, 0.0, 0.0, 0.0, 0.0, 0.0, 0.0, 0.0, 0.0, 0.0, 1.6820971104135585E9, 0.0, 2023-04-21 12:11:50.413
5.0, -49795.90920161119, -30509.03594601583, 187500.0, 187500.0, 187500.0, 187500.0, 187500.0, 187500.0, 0.022, 1.0, -0.026000000000000002, 192.0, 0.0, 0.0, 0.0, 0.0, 0.0, 0.0, 0.0, 0.0, 0.0, 1.6820971104135683E9, 0.0, 2023-04-21 12:11:50.413
6.0, -49769.75766059848, -30406.620252921613, 187500.0, 187500.0, 187500.0, 187500.0, 187500.0, 187500.0, 0.022, 1.0, -0.026000000000000002, 192.0, 0.0, 0.0, 0.0, 0.0, 0.0, 0.0, 0.0, 0.0, 0.0, 1.6820971104135783E9, 0.0, 2023-04-21 12:11:50.413
7.0, -49672.43816524007, -30302.37171678206, 187500.0, 187500.0, 187500.0, 187500.0, 187500.0, 187500.0, 0.022, 1.0, -0.026000000000000002, 192.0, 0.0, 0.0, 0.0, 0.0, 0.0, 0.0, 0.0, 0.0, 0.0, 1.682097110413588E9, 0.0, 2023-04-21 12:11:50.413
8.0, -49699.77434870891, -30437.040977125285, 187500.0, 187500.0, 187500.0, 187500.0, 187500.0, 187500.0, 0.024, 0.994, -0.026000000000000002, 192.0, 0.0, 192.0, 31.0, 16.0, 255.0, 48.0, 0.0, 0.0, 0.0, 1.6820971104135978E9, 0.0, 2023-04-21 12:11:50.413
9.0, -49788.98016083004, -30502.062201745775, 187500.0, 187500.0, 187500.0, 187500.0, 187500.0, 187500.0, 0.024, 0.994, -0.026000000000000002, 192.0, 0.0, 0.0, 0.0, 0.0, 0.0, 0.0, 0.0, 0.0, 0.0, 1.6820971104136083E9, 0.0, 2023-04-21 12:11:50.413
10.0, -49789.80717537489, -30429.530790988305, 187500.0, 187500.0, 187500.0, 187500.0, 187500.0, 187500.0, 0.024, 0.994, -0.026000000000000002, 192.0, 0.0, 0.0, 0.0, 0.0, 0.0, 0.0, 0.0, 0.0, 0.0, 1.6820971104136186E9, 0.0, 2023-04-21 12:11:50.413
16.0, -49677.73552867598, -30376.937136284967, 187500.0, 187500.0, 187500.0, 187500.0, 187500.0, 187500.0, 0.024, 0.994, -0.026000000000000002, 192.0, 0.0, 0.0, 0.0, 0.0, 0.0, 0.0, 0.0, 0.0, 0.0, 1.6820971104136417E9, 0.0, 2023-04-21 12:11:50.413
12.0, -49683.77049967891, -30402.708697641934, 187500.0, 187500.0, 187500.0, 187500.0, 187500.0, 187500.0, 0.024, 0.994, -0.026000000000000002, 192.0, 0.0, 0.0, 0.0, 0.0, 0.0, 0.0, 0.0, 0.0, 0.0, 1.6820971104136517E9, 0.0, 2023-04-21 12:11:50.413
13.0, -49772.35046295529, -30502.352774423693, 187500.0, 187500.0, 187500.0, 187500.0, 187500.0, 187500.0, 0.024, 0.994, -0.026000000000000002, 192.0, 0.0, 0.0, 0.0, 0.0, 0.0, 0.0, 0.0, 0.0, 0.0, 1.682097110413662E9, 0.0, 2023-04-21 12:11:50.413
14.0, -49801.541841213926, -30449.222677853428, 187500.0, 187500.0, 187500.0, 187500.0, 187500.0, 187500.0, 0.024, 0.994, -0.026000000000000002, 192.0, 0.0, 0.0, 0.0, 0.0, 0.0, 0.0, 0.0, 0.0, 0.0, 1.6820971104136717E9, 0.0, 2023-04-21 12:11:50.413
17.0, -49763.163895984166, -30503.492713390915, 187500.0, 187500.0, 187500.0, 187500.0, 187500.0, 187500.0, 0.024, 0.994, -0.026000000000000002, 192.0, 0.0, 0.0, 0.0, 0.0, 0.0, 0.0, 0.0, 0.0, 0.0, 1.6820971104136815E9, 0.0, 2023-04-21 12:11:50.413
18.0, -49822.083094368354, -30482.012686969363, 187500.0, 187500.0, 187500.0, 187500.0, 187500.0, 187500.0, 0.026000000000000002, 0.994, -0.028, 192.0, 0.0, 208.0, 31.0, 16.0, 255.0, 32.0, 0.0, 0.0, 0.0, 1.6820971104136915E9, 0.0, 2023-04-21 12:11:50.413
19.0, -49722.684886775605, -30347.186964414952, 187500.0, 187500.0, 187500.0, 187500.0, 187500.0, 187500.0, 0.026000000000000002, 0.994, -0.028, 192.0, 0.0, 0.0, 0.0, 0.0, 0.0, 0.0, 0.0, 0.0, 0.0, 1.6820971104137022E9, 0.0, 2023-04-21 12:11:50.413
20.0, -49667.587836693274, -30348.975103971377, 187500.0, 187500.0, 187500.0, 187500.0, 187500.0, 187500.0, 0.026000000000000002, 0.994, -0.028, 192.0, 0.0, 0.0, 0.0, 0.0, 0.0, 0.0, 0.0, 0.0, 0.0, 1.6820971104137125E9, 0.0, 2023-04-21 12:11:50.413
21.0, -49752.23389294552, -30496.541320865315, 187500.0, 187500.0, 187500.0, 187500.0, 187500.0, 187500.0, 0.026000000000000002, 0.994, -0.028, 192.0, 0.0, 0.0, 0.0, 0.0, 0.0, 0.0, 0.0, 0.0, 0.0, 1.6820971104137225E9, 0.0, 2023-04-21 12:11:50.413
22.0, -49819.087960611345, -30484.40432362608, 187500.0, 187500.0, 187500.0, 187500.0, 187500.0, 187500.0, 0.026000000000000002, 0.994, -0.028, 192.0, 0.0, 0.0, 0.0, 0.0, 0.0, 0.0, 0.0, 0.0, 0.0, 1.6820971104137323E9, 0.0, 2023-04-21 12:11:50.413
23.0, -49740.365116639754, -30357.24524941984, 187500.0, 187500.0, 187500.0, 187500.0, 187500.0, 187500.0, 0.026000000000000002, 0.994, -0.028, 192.0, 0.0, 0.0, 0.0, 0.0, 0.0, 0.0, 0.0, 0.0, 0.0, 1.682097110413742E9, 0.0, 2023-04-21 12:11:50.413
24.0, -49663.7209849025, -30321.504810035804, 187500.0, 187500.0, 187500.0, 187500.0, 187500.0, 187500.0, 0.026000000000000002, 0.994, -0.028, 192.0, 0.0, 0.0, 0.0, 0.0, 0.0, 0.0, 0.0, 0.0, 0.0, 1.682097110413752E9, 0.0, 2023-04-21 12:11:50.413
25.0, -49732.89963399168, -30483.443198614503, 187500.0, 187500.0, 187500.0, 187500.0, 187500.0, 187500.0, 0.026000000000000002, 0.994, -0.028, 192.0, 0.0, 0.0, 0.0, 0.0, 0.0, 0.0, 0.0, 0.0, 0.0, 1.682097110413762E9, 0.0, 2023-04-21 12:11:50.413
26.0, -49812.53889948594, -30499.447047644502, 187500.0, 187500.0, 187500.0, 187500.0, 187500.0, 187500.0, 0.026000000000000002, 0.994, -0.028, 192.0, 0.0, 0.0, 0.0, 0.0, 0.0, 0.0, 0.0, 0.0, 0.0, 1.6820971104137716E9, 0.0, 2023-04-21 12:11:50.413
27.0, -49747.87530277673, -30380.15578748653, 187500.0, 187500.0, 187500.0, 187500.0, 187500.0, 187500.0, 0.026000000000000002, 0.994, -0.028, 192.0, 0.0, 0.0, 0.0, 0.0, 0.0, 0.0, 0.0, 0.0, 0.0, 1.6820971104137836E9, 0.0, 2023-04-21 12:11:50.413
28.0, -49649.19235100655, -30293.47572248885, 187500.0, 187500.0, 187500.0, 187500.0, 187500.0, 187500.0, 0.04, 0.99, -0.026000000000000002, 192.0, 1.0, 64.0, 30.0, 240.0, 255.0, 48.0, 0.0, 0.0, 0.0, 1.6820971104138055E9, 0.0, 2023-04-21 12:11:50.413
29.0, -49695.9298486626, -30443.567686506238, 187500.0, 187500.0, 187500.0, 187500.0, 187500.0, 187500.0, 0.04, 0.99, -0.026000000000000002, 192.0, 0.0, 0.0, 0.0, 0.0, 0.0, 0.0, 0.0, 0.0, 0.0, 1.6820971104138165E9, 0.0, 2023-04-21 12:11:50.413
30.0, -49792.154108542694, -30491.51217836287, 187500.0, 187500.0, 187500.0, 187500.0, 187500.0, 187500.0, 0.04, 0.99, -0.026000000000000002, 192.0, 0.0, 0.0, 0.0, 0.0, 0.0, 0.0, 0.0, 0.0, 0.0, 1.6820971104138262E9, 0.0, 2023-04-21 12:11:50.413
31.0, -49768.48361116453, -30399.087715040176, 187500.0, 187500.0, 187500.0, 187500.0, 187500.0, 187500.0, 0.04, 0.99, -0.026000000000000002, 192.0, 0.0, 0.0, 0.0, 0.0, 0.0, 0.0, 0.0, 0.0, 0.0, 1.682097110413836E9, 0.0, 2023-04-21 12:11:50.413
32.0, -49661.73167964598, -30288.200710797395, 187500.0, 187500.0, 187500.0, 187500.0, 187500.0, 187500.0, 0.04, 0.99, -0.026000000000000002, 192.0, 0.0, 0.0, 0.0, 0.0, 0.0, 0.0, 0.0, 0.0, 0.0, 1.682097110413846E9, 0.0, 2023-04-21 12:11:50.413
33.0, -49696.64510448517, -30427.429727009505, 187500.0, 187500.0, 187500.0, 187500.0, 187500.0, 187500.0, 0.04, 0.99, -0.026000000000000002, 192.0, 0.0, 0.0, 0.0, 0.0, 0.0, 0.0, 0.0, 0.0, 0.0, 1.682097110413856E9, 0.0, 2023-04-21 12:11:50.413
34.0, -49790.54478294191, -30499.335288922226, 187500.0, 187500.0, 187500.0, 187500.0, 187500.0, 187500.0, 0.04, 0.99, -0.026000000000000002, 192.0, 0.0, 0.0, 0.0, 0.0, 0.0, 0.0, 0.0, 0.0, 0.0, 1.6820971104138658E9, 0.0, 2023-04-21 12:11:50.413
35.0, -49789.315436996876, -30421.39475600657, 187500.0, 187500.0, 187500.0, 187500.0, 187500.0, 187500.0, 0.04, 0.99, -0.026000000000000002, 192.0, 0.0, 0.0, 0.0, 0.0, 0.0, 0.0, 0.0, 0.0, 0.0, 1.6820971104138756E9, 0.0, 2023-04-21 12:11:50.413
36.0, -49667.83370588228, -30286.23375728533, 187500.0, 187500.0, 187500.0, 187500.0, 187500.0, 187500.0, 0.04, 0.99, -0.026000000000000002, 192.0, 0.0, 0.0, 0.0, 0.0, 0.0, 0.0, 0.0, 0.0, 0.0, 1.6820971104138856E9, 0.0, 2023-04-21 12:11:50.413
37.0, -49662.759859890924, -30380.133435742075, 187500.0, 187500.0, 187500.0, 187500.0, 187500.0, 187500.0, 0.04, 0.99, -0.026000000000000002, 192.0, 0.0, 0.0, 0.0, 0.0, 0.0, 0.0, 0.0, 0.0, 0.0, 1.6820971104138951E9, 0.0, 2023-04-21 12:11:50.413
38.0, -49760.95107328309, -30490.483998117925, 187500.0, 187500.0, 187500.0, 187500.0, 187500.0, 187500.0, 0.034, 0.98, -0.024, 192.0, 1.0, 16.0, 30.0, 160.0, 255.0, 64.0, 0.0, 0.0, 0.0, 1.6820971104139051E9, 0.0, 2023-04-21 12:11:50.413
39.0, -49794.36693124377, -30454.07300640023, 187500.0, 187500.0, 187500.0, 187500.0, 187500.0, 187500.0, 0.034, 0.98, -0.024, 192.0, 0.0, 0.0, 0.0, 0.0, 0.0, 0.0, 0.0, 0.0, 0.0, 1.6820971104139156E9, 0.0, 2023-04-21 12:11:50.413
40.0, -49682.16117407813, -30360.821528532688, 187500.0, 187500.0, 187500.0, 187500.0, 187500.0, 187500.0, 0.034, 0.98, -0.024, 192.0, 0.0, 0.0, 0.0, 0.0, 0.0, 0.0, 0.0, 0.0, 0.0, 1.6820971104139254E9, 0.0, 2023-04-21 12:11:50.413
41.0, -49648.074763783785, -30437.957398647955, 187500.0, 187500.0, 187500.0, 187500.0, 187500.0, 187500.0, 0.034, 0.98, -0.024, 192.0, 0.0, 0.0, 0.0, 0.0, 0.0, 0.0, 0.0, 0.0, 0.0, 1.6820971104139352E9, 0.0, 2023-04-21 12:11:50.413
42.0, -49744.56724459735, -30579.24277534995, 187500.0, 187500.0, 187500.0, 187500.0, 187500.0, 187500.0, 0.034, 0.98, -0.024, 192.0, 0.0, 0.0, 0.0, 0.0, 0.0, 0.0, 0.0, 0.0, 0.0, 1.682097110413945E9, 0.0, 2023-04-21 12:11:50.413
43.0, -49801.117158069275, -30554.18646981555, 187500.0, 187500.0, 187500.0, 187500.0, 187500.0, 187500.0, 0.034, 0.98, -0.024, 192.0, 0.0, 0.0, 0.0, 0.0, 0.0, 0.0, 0.0, 0.0, 0.0, 1.6820971104139552E9, 0.0, 2023-04-21 12:11:50.413
44.0, -49715.9346599501, -30430.35780553315, 187500.0, 187500.0, 187500.0, 187500.0, 187500.0, 187500.0, 0.034, 0.98, -0.024, 192.0, 0.0, 0.0, 0.0, 0.0, 0.0, 0.0, 0.0, 0.0, 0.0, 1.6820971104140391E9, 0.0, 2023-04-21 12:11:50.414
45.0, -49649.549978917836, -30423.093488585175, 187500.0, 187500.0, 187500.0, 187500.0, 187500.0, 187500.0, 0.034, 0.98, -0.024, 192.0, 0.0, 0.0, 0.0, 0.0, 0.0, 0.0, 0.0, 0.0, 0.0, 1.68209711041405E9, 0.0, 2023-04-21 12:11:50.414
46.0, -49719.35447685176, -30564.24475482044, 187500.0, 187500.0, 187500.0, 187500.0, 187500.0, 187500.0, 0.034, 0.98, -0.024, 192.0, 0.0, 0.0, 0.0, 0.0, 0.0, 0.0, 0.0, 0.0, 0.0, 1.68209711041406E9, 0.0, 2023-04-21 12:11:50.414
47.0, -49795.5515736999, -30566.792853688345, 187500.0, 187500.0, 187500.0, 187500.0, 187500.0, 187500.0, 0.034, 0.98, -0.024, 192.0, 0.0, 0.0, 0.0, 0.0, 0.0, 0.0, 0.0, 0.0, 0.0, 1.6820971104140708E9, 0.0, 2023-04-21 12:11:50.414
48.0, -49735.403029370675, -30453.44715755548, 187500.0, 187500.0, 187500.0, 187500.0, 187500.0, 187500.0, 0.034, 0.98, -0.024, 192.0, 0.0, 0.0, 0.0, 0.0, 0.0, 0.0, 0.0, 0.0, 0.0, 1.6820971104140832E9, 0.0, 2023-04-21 12:11:50.414
49.0, -49659.78707787837, -30393.38802020407, 187500.0, 187500.0, 187500.0, 187500.0, 187500.0, 187500.0, 0.024, 0.992, -0.03, 192.0, 0.0, 192.0, 31.0, 0.0, 255.0, 16.0, 0.0, 0.0, 0.0, 1.6820971104140935E9, 0.0, 2023-04-21 12:11:50.414
50.0, -49737.99583172749, -30562.546022241837, 187500.0, 187500.0, 187500.0, 187500.0, 187500.0, 187500.0, 0.024, 0.992, -0.03, 192.0, 0.0, 0.0, 0.0, 0.0, 0.0, 0.0, 0.0, 0.0, 0.0, 1.6820971104141045E9, 0.0, 2023-04-21 12:11:50.414
51.0, -49824.47473102507, -30587.110589398217, 187500.0, 187500.0, 187500.0, 187500.0, 187500.0, 187500.0, 0.024, 0.992, -0.03, 192.0, 0.0, 0.0, 0.0, 0.0, 0.0, 0.0, 0.0, 0.0, 0.0, 1.6820971104141147E9, 0.0, 2023-04-21 12:11:50.414
52.0, -49773.31158796688, -30475.284811888316, 187500.0, 187500.0, 187500.0, 187500.0, 187500.0, 187500.0, 0.024, 0.992, -0.03, 192.0, 0.0, 0.0, 0.0, 0.0, 0.0, 0.0, 0.0, 0.0, 0.0, 1.6820971104141252E9, 0.0, 2023-04-21 12:11:50.414
53.0, -49674.27100828541, -30386.078999767185, 187500.0, 187500.0, 187500.0, 187500.0, 187500.0, 187500.0, 0.024, 0.992, -0.03, 192.0, 0.0, 0.0, 0.0, 0.0, 0.0, 0.0, 0.0, 0.0, 0.0, 1.6820971104141374E9, 0.0, 2023-04-21 12:11:50.414
54.0, -49718.46040707355, -30534.651045161612, 187500.0, 187500.0, 187500.0, 187500.0, 187500.0, 187500.0, 0.024, 0.992, -0.03, 192.0, 0.0, 0.0, 0.0, 0.0, 0.0, 0.0, 0.0, 0.0, 0.0, 1.682097110414148E9, 0.0, 2023-04-21 12:11:50.414
55.0, -49812.04716110792, -30585.72478124199, 187500.0, 187500.0, 187500.0, 187500.0, 187500.0, 187500.0, 0.024, 0.992, -0.03, 192.0, 0.0, 0.0, 0.0, 0.0, 0.0, 0.0, 0.0, 0.0, 0.0, 1.682097110414158E9, 0.0, 2023-04-21 12:11:50.414
56.0, -49789.24838176351, -30497.077762732242, 187500.0, 187500.0, 187500.0, 187500.0, 187500.0, 187500.0, 0.024, 0.992, -0.03, 192.0, 0.0, 0.0, 0.0, 0.0, 0.0, 0.0, 0.0, 0.0, 0.0, 1.6820971104141684E9, 0.0, 2023-04-21 12:11:50.414
57.0, -49681.132993833184, -30385.453150922436, 187500.0, 187500.0, 187500.0, 187500.0, 187500.0, 187500.0, 0.024, 0.992, -0.03, 192.0, 0.0, 0.0, 0.0, 0.0, 0.0, 0.0, 0.0, 0.0, 0.0, 1.6820971104141788E9, 0.0, 2023-04-21 12:11:50.414
58.0, -49702.36715106573, -30511.539341394826, 187500.0, 187500.0, 187500.0, 187500.0, 187500.0, 187500.0, 0.024, 0.992, -0.03, 192.0, 0.0, 0.0, 0.0, 0.0, 0.0, 0.0, 0.0, 0.0, 0.0, 1.682097110414189E9, 0.0, 2023-04-21 12:11:50.414
59.0, -49802.39120750323, -30594.91134821312, 187500.0, 187500.0, 187500.0, 187500.0, 187500.0, 187500.0, 0.022, 0.998, -0.034, 192.0, 0.0, 176.0, 31.0, 48.0, 254.0, 240.0, 0.0, 0.0, 0.0, 1.6820971104142144E9, 0.0, 2023-04-21 12:11:50.414
60.0, -49806.973315116564, -30522.558751411292, 187500.0, 187500.0, 187500.0, 187500.0, 187500.0, 187500.0, 0.022, 0.998, -0.034, 192.0, 0.0, 0.0, 0.0, 0.0, 0.0, 0.0, 0.0, 0.0, 0.0, 1.682097110414225E9, 0.0, 2023-04-21 12:11:50.414
61.0, -49693.44880502806, -30391.57752890319, 187500.0, 187500.0, 187500.0, 187500.0, 187500.0, 187500.0, 0.022, 0.998, -0.034, 192.0, 0.0, 0.0, 0.0, 0.0, 0.0, 0.0, 0.0, 0.0, 0.0, 1.6820971104142356E9, 0.0, 2023-04-21 12:11:50.414
