%OpenBCI Raw EEG Data
%Number of channels = 8
%Sample Rate = 250 Hz
%Board = OpenBCI_GUI$BoardCytonSerial
Sample Index, EXG Channel 0, EXG Channel 1, EXG Channel 2, EXG Channel 3, EXG Channel 4, EXG Channel 5, EXG Channel 6, EXG Channel 7, Accel Channel 0, Accel Channel 1, Accel Channel 2, Other, Other, Other, Other, Other, Other, Other, Analog Channel 0, Analog Channel 1, Analog Channel 2, Timestamp, Other, Timestamp (Formatted)
42.0, -50634.68076404104, -31044.896667587363, 187500.0, 187500.0, 187500.0, 187500.0, 187500.0, 187500.0, 0.0, 0.0, 0.0, 192.0, 0.0, 0.0, 0.0, 0.0, 0.0, 0.0, 0.0, 0.0, 0.0, 1.6820971767976787E9, 0.0, 2023-04-21 12:12:56.797
43.0, -50568.988987086894, -30945.40905301679, 187500.0, 187500.0, 187500.0, 187500.0, 187500.0, 187500.0, 0.0, 0.0, 0.0, 192.0, 0.0, 0.0, 0.0, 0.0, 0.0, 0.0, 0.0, 0.0, 0.0, 1.682097176797701E9, 0.0, 2023-04-21 12:12:56.797
44.0, -50537.13775123808, -30963.31280032549, 187500.0, 187500.0, 187500.0, 187500.0, 187500.0, 187500.0, 0.0, 0.0, 0.0, 192.0, 0.0, 0.0, 0.0, 0.0, 0.0, 0.0, 0.0, 0.0, 0.0, 1.6820971767977133E9, 0.0, 2023-04-21 12:12:56.797
45.0, -50552.73926886789, -31025.09302199996, 187500.0, 187500.0, 187500.0, 187500.0, 187500.0, 187500.0, -0.034, 0.996, 0.022, 192.0, 254.0, 240.0, 31.0, 32.0, 0.0, 176.0, 0.0, 0.0, 0.0, 1.6820971767977245E9, 0.0, 2023-04-21 12:12:56.797
46.0, -50644.73904904593, -31069.751807421664, 187500.0, 187500.0, 187500.0, 187500.0, 187500.0, 187500.0, -0.034, 0.996, 0.022, 192.0, 0.0, 0.0, 0.0, 0.0, 0.0, 0.0, 0.0, 0.0, 0.0, 1.6820971767977397E9, 0.0, 2023-04-21 12:12:56.797
47.0, -50614.89947019809, -30997.645079808844, 187500.0, 187500.0, 187500.0, 187500.0, 187500.0, 187500.0, -0.034, 0.996, 0.022, 192.0, 0.0, 0.0, 0.0, 0.0, 0.0, 0.0, 0.0, 0.0, 0.0, 1.6820971767977517E9, 0.0, 2023-04-21 12:12:56.797
48.0, -50563.5351614398, -30961.70347472471, 187500.0, 187500.0, 187500.0, 187500.0, 187500.0, 187500.0, -0.034, 0.996, 0.022, 192.0, 0.0, 0.0, 0.0, 0.0, 0.0, 0.0, 0.0, 0.0, 0.0, 1.682097176797763E9, 0.0, 2023-04-21 12:12:56.797
49.0, -50535.88605354859, -31019.415678908314, 187500.0, 187500.0, 187500.0, 187500.0, 187500.0, 187500.0, -0.034, 0.996, 0.022, 192.0, 0.0, 0.0, 0.0, 0.0, 0.0, 0.0, 0.0, 0.0, 0.0, 1.6820971767977788E9, 0.0, 2023-04-21 12:12:56.797
50.0, -50604.505909026375, -31050.015217067627, 187500.0, 187500.0, 187500.0, 187500.0, 187500.0, 187500.0, -0.034, 0.996, 0.022, 192.0, 0.0, 0.0, 0.0, 0.0, 0.0, 0.0, 0.0, 0.0, 0.0, 1.6820971767977903E9, 0.0, 2023-04-21 12:12:56.797
51.0, -50611.59141201871, -30996.013402463606, 187500.0, 187500.0, 187500.0, 187500.0, 187500.0, 187500.0, -0.034, 0.996, 0.022, 192.0, 0.0, 0.0, 0.0, 0.0, 0.0, 0.0, 0.0, 0.0, 0.0, 1.6820971767978044E9, 0.0, 2023-04-21 12:12:56.797
52.0, -50584.61285646116, -30944.962018127684, 187500.0, 187500.0, 187500.0, 187500.0, 187500.0, 187500.0, -0.034, 0.996, 0.022, 192.0, 0.0, 0.0, 0.0, 0.0, 0.0, 0.0, 0.0, 0.0, 0.0, 1.682097176797816E9, 0.0, 2023-04-21 12:12:56.797
53.0, -50579.65076919208, -31032.08911801447, 187500.0, 187500.0, 187500.0, 187500.0, 187500.0, 187500.0, -0.034, 0.996, 0.022, 192.0, 0.0, 0.0, 0.0, 0.0, 0.0, 0.0, 0.0, 0.0, 0.0, 1.682097176797829E9, 0.0, 2023-04-21 12:12:56.797
54.0, -50618.274583610844, -31072.009333611648, 187500.0, 187500.0, 187500.0, 187500.0, 187500.0, 187500.0, -0.034, 0.996, 0.022, 192.0, 0.0, 0.0, 0.0, 0.0, 0.0, 0.0, 0.0, 0.0, 0.0, 1.6820971767978415E9, 0.0, 2023-04-21 12:12:56.797
55.0, -50614.54184228681, -31021.583798120475, 187500.0, 187500.0, 187500.0, 187500.0, 187500.0, 187500.0, -0.034, 0.996, 0.022, 192.0, 0.0, 0.0, 0.0, 0.0, 0.0, 0.0, 0.0, 0.0, 0.0, 1.6820971767978532E9, 0.0, 2023-04-21 12:12:56.797
56.0, -50585.283408794814, -30955.37793104386, 187500.0, 187500.0, 187500.0, 187500.0, 187500.0, 187500.0, -0.056, 1.002, 0.024, 192.0, 254.0, 64.0, 31.0, 80.0, 0.0, 192.0, 0.0, 0.0, 0.0, 1.6820971767978647E9, 0.0, 2023-04-21 12:12:56.797
57.0, -50558.930702082005, -31034.346644204456, 187500.0, 187500.0, 187500.0, 187500.0, 187500.0, 187500.0, -0.056, 1.002, 0.024, 192.0, 0.0, 0.0, 0.0, 0.0, 0.0, 0.0, 0.0, 0.0, 0.0, 1.6820971767978773E9, 0.0, 2023-04-21 12:12:56.797
58.0, -50617.13464464363, -31090.427171042822, 187500.0, 187500.0, 187500.0, 187500.0, 187500.0, 187500.0, -0.056, 1.002, 0.024, 192.0, 0.0, 0.0, 0.0, 0.0, 0.0, 0.0, 0.0, 0.0, 0.0, 1.6820971767980645E9, 0.0, 2023-04-21 12:12:56.798
59.0, -50651.19870319351, -31072.38931326739, 187500.0, 187500.0, 187500.0, 187500.0, 187500.0, 187500.0, -0.056, 1.002, 0.024, 192.0, 0.0, 0.0, 0.0, 0.0, 0.0, 0.0, 0.0, 0.0, 0.0, 1.682097176798077E9, 0.0, 2023-04-21 12:12:56.798
60.0, -50605.73525497142, -31001.534283344066, 187500.0, 187500.0, 187500.0, 187500.0, 187500.0, 187500.0, -0.056, 1.002, 0.024, 192.0, 0.0, 0.0, 0.0, 0.0, 0.0, 0.0, 0.0, 0.0, 0.0, 1.6820971767980886E9, 0.0, 2023-04-21 12:12:56.798
61.0, -50562.73049863941, -31040.33691171848, 187500.0, 187500.0, 187500.0, 187500.0, 187500.0, 187500.0, -0.056, 1.002, 0.024, 192.0, 0.0, 0.0, 0.0, 0.0, 0.0, 0.0, 0.0, 0.0, 0.0, 1.6820971767981005E9, 0.0, 2023-04-21 12:12:56.798
62.0, -50569.972463842925, -31062.95687710725, 187500.0, 187500.0, 187500.0, 187500.0, 187500.0, 187500.0, -0.056, 1.002, 0.024, 192.0, 0.0, 0.0, 0.0, 0.0, 0.0, 0.0, 0.0, 0.0, 0.0, 1.682097176798112E9, 0.0, 2023-04-21 12:12:56.798
63.0, -50638.45820885399, -31076.837310413997, 187500.0, 187500.0, 187500.0, 187500.0, 187500.0, 187500.0, -0.056, 1.002, 0.024, 192.0, 0.0, 0.0, 0.0, 0.0, 0.0, 0.0, 0.0, 0.0, 0.0, 1.6820971767981243E9, 0.0, 2023-04-21 12:12:56.798
64.0, -50648.002403736406, -31008.642138080853, 187500.0, 187500.0, 187500.0, 187500.0, 187500.0, 187500.0, -0.056, 1.002, 0.024, 192.0, 0.0, 0.0, 0.0, 0.0, 0.0, 0.0, 0.0, 0.0, 0.0, 1.6820971767981367E9, 0.0, 2023-04-21 12:12:56.798
65.0, -50585.551629728274, -31040.940408818773, 187500.0, 187500.0, 187500.0, 187500.0, 187500.0, 187500.0, -0.056, 1.002, 0.024, 192.0, 0.0, 0.0, 0.0, 0.0, 0.0, 0.0, 0.0, 0.0, 0.0, 1.6820971767981472E9, 0.0, 2023-04-21 12:12:56.798
0.0, 0.0, 0.0, 0.0, 0.0, 0.0, 0.0, 0.0, 0.0, -0.05, 1.006, 0.042, 192.0, 254.0, 112.0, 31.0, 112.0, 1.0, 80.0, 0.0, 0.0, 0.0, 1.6820971769481943E9, 0.0, 2023-04-21 12:12:56.948
1.0, -48954.03074670205, -31427.379718706576, 187500.0, 187500.0, 187500.0, 187500.0, 187500.0, 187500.0, -0.05, 1.006, 0.042, 192.0, 0.0, 0.0, 0.0, 0.0, 0.0, 0.0, 0.0, 0.0, 0.0, 1.6820971769482205E9, 0.0, 2023-04-21 12:12:56.948
2.0, -49028.350297015946, -31442.55655319173, 187500.0, 187500.0, 187500.0, 187500.0, 187500.0, 187500.0, -0.05, 1.006, 0.042, 192.0, 0.0, 0.0, 0.0, 0.0, 0.0, 0.0, 0.0, 0.0, 0.0, 1.6820971769482343E9, 0.0, 2023-04-21 12:12:56.948
3.0, -49087.31419888904, -31456.191117309467, 187500.0, 187500.0, 187500.0, 187500.0, 187500.0, 187500.0, -0.05, 1.006, 0.042, 192.0, 0.0, 0.0, 0.0, 0.0, 0.0, 0.0, 0.0, 0.0, 0.0, 1.6820971769482465E9, 0.0, 2023-04-21 12:12:56.948
4.0, -49030.56311971702, -31401.3622881606, 187500.0, 187500.0, 187500.0, 187500.0, 187500.0, 187500.0, -0.05, 1.006, 0.042, 192.0, 0.0, 0.0, 0.0, 0.0, 0.0, 0.0, 0.0, 0.0, 0.0, 1.682097176948258E9, 0.0, 2023-04-21 12:12:56.948
5.0, -48962.8596857619, -31427.98321580687, 187500.0, 187500.0, 187500.0, 187500.0, 187500.0, 187500.0, -0.05, 1.006, 0.042, 192.0, 0.0, 0.0, 0.0, 0.0, 0.0, 0.0, 0.0, 0.0, 0.0, 1.6820971769482696E9, 0.0, 2023-04-21 12:12:56.948
6.0, -49023.164692302315, -31431.067756541703, 187500.0, 187500.0, 187500.0, 187500.0, 187500.0, 187500.0, -0.05, 1.006, 0.042, 192.0, 0.0, 0.0, 0.0, 0.0, 0.0, 0.0, 0.0, 0.0, 0.0, 1.6820971769482808E9, 0.0, 2023-04-21 12:12:56.948
7.0, -49100.680542073314, -31446.89279161606, 187500.0, 187500.0, 187500.0, 187500.0, 187500.0, 187500.0, -0.05, 1.006, 0.042, 192.0, 0.0, 0.0, 0.0, 0.0, 0.0, 0.0, 0.0, 0.0, 0.0, 1.682097176948418E9, 0.0, 2023-04-21 12:12:56.948
8.0, -49035.055820352536, -31384.889052497037, 187500.0, 187500.0, 187500.0, 187500.0, 187500.0, 187500.0, -0.028, 0.998, 0.052000000000000005, 192.0, 255.0, 32.0, 31.0, 48.0, 1.0, 160.0, 0.0, 0.0, 0.0, 1.6820971769484303E9, 0.0, 2023-04-21 12:12:56.948
9.0, -48960.84802876092, -31413.253416210824, 187500.0, 187500.0, 187500.0, 187500.0, 187500.0, 187500.0, -0.028, 0.998, 0.052000000000000005, 192.0, 0.0, 0.0, 0.0, 0.0, 0.0, 0.0, 0.0, 0.0, 0.0, 1.6820971769484432E9, 0.0, 2023-04-21 12:12:56.948
10.0, -49002.08699728096, -31425.435116938967, 187500.0, 187500.0, 187500.0, 187500.0, 187500.0, 187500.0, -0.028, 0.998, 0.052000000000000005, 192.0, 0.0, 0.0, 0.0, 0.0, 0.0, 0.0, 0.0, 0.0, 0.0, 1.682097176964292E9, 0.0, 2023-04-21 12:12:56.964
11.0, -49089.21409716774, -31455.431157997988, 187500.0, 187500.0, 187500.0, 187500.0, 187500.0, 187500.0, -0.028, 0.998, 0.052000000000000005, 192.0, 0.0, 0.0, 0.0, 0.0, 0.0, 0.0, 0.0, 0.0, 0.0, 1.6820971770226748E9, 0.0, 2023-04-21 12:12:57.022
12.0, -49064.35895733345, -31395.88611076905, 187500.0, 187500.0, 187500.0, 187500.0, 187500.0, 187500.0, -0.028, 0.998, 0.052000000000000005, 192.0, 0.0, 0.0, 0.0, 0.0, 0.0, 0.0, 0.0, 0.0, 0.0, 1.6820971770227132E9, 0.0, 2023-04-21 12:12:57.022
13.0, -48988.921819796786, -31414.50511390032, 187500.0, 187500.0, 187500.0, 187500.0, 187500.0, 187500.0, -0.028, 0.998, 0.052000000000000005, 192.0, 0.0, 0.0, 0.0, 0.0, 0.0, 0.0, 0.0, 0.0, 0.0, 1.682097177022728E9, 0.0, 2023-04-21 12:12:57.022
14.0, -48997.95192455673, -31423.959901804916, 187500.0, 187500.0, 187500.0, 187500.0, 187500.0, 187500.0, -0.028, 0.998, 0.052000000000000005, 192.0, 0.0, 0.0, 0.0, 0.0, 0.0, 0.0, 0.0, 0.0, 0.0, 1.6820971770227416E9, 0.0, 2023-04-21 12:12:57.022
15.0, -49092.76802453614, -31461.55553597874, 187500.0, 187500.0, 187500.0, 187500.0, 187500.0, 187500.0, -0.028, 0.998, 0.052000000000000005, 192.0, 0.0, 0.0, 0.0, 0.0, 0.0, 0.0, 0.0, 0.0, 0.0, 1.682097177022756E9, 0.0, 2023-04-21 12:12:57.022
16.0, -49086.017797710636, -31425.904503572525, 187500.0, 187500.0, 187500.0, 187500.0, 187500.0, 187500.0, -0.028, 0.998, 0.052000000000000005, 192.0, 0.0, 0.0, 0.0, 0.0, 0.0, 0.0, 0.0, 0.0, 0.0, 1.682097177022769E9, 0.0, 2023-04-21 12:12:57.022
17.0, -48995.29206696655, -31429.592541407652, 187500.0, 187500.0, 187500.0, 187500.0, 187500.0, 187500.0, -0.028, 0.998, 0.052000000000000005, 192.0, 0.0, 0.0, 0.0, 0.0, 0.0, 0.0, 0.0, 0.0, 0.0, 1.6820971770227823E9, 0.0, 2023-04-21 12:12:57.022
18.0, -48977.90240978032, -31439.78493687927, 187500.0, 187500.0, 187500.0, 187500.0, 187500.0, 187500.0, 0.012, 1.002, 0.052000000000000005, 192.0, 0.0, 96.0, 31.0, 80.0, 1.0, 160.0, 0.0, 0.0, 0.0, 1.6820971770227957E9, 0.0, 2023-04-21 12:12:57.022
19.0, -49088.72235878973, -31461.108501089635, 187500.0, 187500.0, 187500.0, 187500.0, 187500.0, 187500.0, 0.012, 1.002, 0.052000000000000005, 192.0, 0.0, 0.0, 0.0, 0.0, 0.0, 0.0, 0.0, 0.0, 0.0, 1.6820971770228295E9, 0.0, 2023-04-21 12:12:57.022
20.0, -49107.05078924308, -31433.057061798223, 187500.0, 187500.0, 187500.0, 187500.0, 187500.0, 187500.0, 0.012, 1.002, 0.052000000000000005, 192.0, 0.0, 0.0, 0.0, 0.0, 0.0, 0.0, 0.0, 0.0, 0.0, 1.6820971770228431E9, 0.0, 2023-04-21 12:12:57.022
21.0, -49029.4231807498, -31413.387526677554, 187500.0, 187500.0, 187500.0, 187500.0, 187500.0, 187500.0, 0.012, 1.002, 0.052000000000000005, 192.0, 0.0, 0.0, 0.0, 0.0, 0.0, 0.0, 0.0, 0.0, 0.0, 1.682097177022856E9, 0.0, 2023-04-21 12:12:57.022
22.0, -48985.99374127314, -31419.64601512504, 187500.0, 187500.0, 187500.0, 187500.0, 187500.0, 187500.0, 0.012, 1.002, 0.052000000000000005, 192.0, 0.0, 0.0, 0.0, 0.0, 0.0, 0.0, 0.0, 0.0, 0.0, 1.682097177022958E9, 0.0, 2023-04-21 12:12:57.022
23.0, -49078.61937029593, -31435.962788577413, 187500.0, 187500.0, 187500.0, 187500.0, 187500.0, 187500.0, 0.012, 1.002, 0.052000000000000005, 192.0, 0.0, 0.0, 0.0, 0.0, 0.0, 0.0, 0.0, 0.0, 0.0, 1.6820971770229716E9, 0.0, 2023-04-21 12:12:57.022
24.0, -49111.67760034533, -31442.89182935856, 187500.0, 187500.0, 187500.0, 187500.0, 187500.0, 187500.0, 0.012, 1.002, 0.052000000000000005, 192.0, 0.0, 0.0, 0.0, 0.0, 0.0, 0.0, 0.0, 0.0, 0.0, 1.6820971770679128E9, 0.0, 2023-04-21 12:12:57.067
25.0, -49024.95283185874, -31407.73253533036, 187500.0, 187500.0, 187500.0, 187500.0, 187500.0, 187500.0, 0.012, 1.002, 0.052000000000000005, 192.0, 0.0, 0.0, 0.0, 0.0, 0.0, 0.0, 0.0, 0.0, 0.0, 1.6820971770679522E9, 0.0, 2023-04-21 12:12:57.067
26.0, -48961.18330492775, -31431.045404797245, 187500.0, 187500.0, 187500.0, 187500.0, 187500.0, 187500.0, 0.012, 1.002, 0.052000000000000005, 192.0, 0.0, 0.0, 0.0, 0.0, 0.0, 0.0, 0.0, 0.0, 0.0, 1.6820971770679655E9, 0.0, 2023-04-21 12:12:57.067
27.0, -49036.732201186685, -31434.88990484356, 187500.0, 187500.0, 187500.0, 187500.0, 187500.0, 187500.0, 0.012, 1.002, 0.052000000000000005, 192.0, 0.0, 0.0, 0.0, 0.0, 0.0, 0.0, 0.0, 0.0, 0.0, 1.682097177067978E9, 0.0, 2023-04-21 12:12:57.067
28.0, -49115.5444521361, -31439.60612292363, 187500.0, 187500.0, 187500.0, 187500.0, 187500.0, 187500.0, 0.016, 0.982, 0.032, 192.0, 0.0, 128.0, 30.0, 176.0, 1.0, 0.0, 0.0, 0.0, 0.0, 1.6820971770679908E9, 0.0, 2023-04-21 12:12:57.067
29.0, -49072.40558533736, -31424.250474482833, 187500.0, 187500.0, 187500.0, 187500.0, 187500.0, 187500.0, 0.016, 0.982, 0.032, 192.0, 0.0, 0.0, 0.0, 0.0, 0.0, 0.0, 0.0, 0.0, 0.0, 1.6820971770680046E9, 0.0, 2023-04-21 12:12:57.068
30.0, -48980.3611016704, -31433.41468970951, 187500.0, 187500.0, 187500.0, 187500.0, 187500.0, 187500.0, 0.016, 0.982, 0.032, 192.0, 0.0, 0.0, 0.0, 0.0, 0.0, 0.0, 0.0, 0.0, 0.0, 1.6820971770680168E9, 0.0, 2023-04-21 12:12:57.068
31.0, -49033.155922073835, -31431.02305305279, 187500.0, 187500.0, 187500.0, 187500.0, 187500.0, 187500.0, 0.016, 0.982, 0.032, 192.0, 0.0, 0.0, 0.0, 0.0, 0.0, 0.0, 0.0, 0.0, 0.0, 1.6820971770680287E9, 0.0, 2023-04-21 12:12:57.068
32.0, -49102.513385118655, -31454.55943996423, 187500.0, 187500.0, 187500.0, 187500.0, 187500.0, 187500.0, 0.016, 0.982, 0.032, 192.0, 0.0, 0.0, 0.0, 0.0, 0.0, 0.0, 0.0, 0.0, 0.0, 1.6820971770680401E9, 0.0, 2023-04-21 12:12:57.068
33.0, -49050.70204147125, -31402.63633759455, 187500.0, 187500.0, 187500.0, 187500.0, 187500.0, 187500.0, 0.016, 0.982, 0.032, 192.0, 0.0, 0.0, 0.0, 0.0, 0.0, 0.0, 0.0, 0.0, 0.0, 1.6820971772589762E9, 0.0, 2023-04-21 12:12:57.258
34.0, -48965.87717126336, -31426.373890206087, 187500.0, 187500.0, 187500.0, 187500.0, 187500.0, 187500.0, 0.016, 0.982, 0.032, 192.0, 0.0, 0.0, 0.0, 0.0, 0.0, 0.0, 0.0, 0.0, 0.0, 1.682097177259029E9, 0.0, 2023-04-21 12:12:57.259
36.0, -49088.20826866726, -31469.378646538098, 187500.0, 187500.0, 187500.0, 187500.0, 187500.0, 187500.0, 0.016, 0.982, 0.032, 192.0, 0.0, 0.0, 0.0, 0.0, 0.0, 0.0, 0.0, 0.0, 0.0, 1.6820971772590466E9, 0.0, 2023-04-21 12:12:57.259
37.0, -49044.3764977904, -31420.3165674587, 187500.0, 187500.0, 187500.0, 187500.0, 187500.0, 187500.0, 0.016, 0.982, 0.032, 192.0, 0.0, 0.0, 0.0, 0.0, 0.0, 0.0, 0.0, 0.0, 0.0, 1.682097177259063E9, 0.0, 2023-04-21 12:12:57.259
38.0, -48957.0035287146, -31437.393300222553, 187500.0, 187500.0, 187500.0, 187500.0, 187500.0, 187500.0, 0.016, 0.982, 0.032, 192.0, 0.0, 0.0, 0.0, 0.0, 0.0, 0.0, 0.0, 0.0, 0.0, 1.6820971772590797E9, 0.0, 2023-04-21 12:12:57.259
39.0, -48980.02582550357, -31440.477840957385, 187500.0, 187500.0, 187500.0, 187500.0, 187500.0, 187500.0, 0.008, 1.008, 0.012, 192.0, 0.0, 64.0, 31.0, 128.0, 0.0, 96.0, 0.0, 0.0, 0.0, 1.6820971772593465E9, 0.0, 2023-04-21 12:12:57.259
40.0, -49070.57274229202, -31455.744082420362, 187500.0, 187500.0, 187500.0, 187500.0, 187500.0, 187500.0, 0.008, 1.008, 0.012, 192.0, 0.0, 0.0, 0.0, 0.0, 0.0, 0.0, 0.0, 0.0, 0.0, 1.6820971772593658E9, 0.0, 2023-04-21 12:12:57.259
41.0, -49074.50664931615, -31424.630454138573, 187500.0, 187500.0, 187500.0, 187500.0, 187500.0, 187500.0, 0.008, 1.008, 0.012, 192.0, 0.0, 0.0, 0.0, 0.0, 0.0, 0.0, 0.0, 0.0, 0.0, 1.6820971772593963E9, 0.0, 2023-04-21 12:12:57.259
42.0, -48994.286238466055, -31441.88600085807, 187500.0, 187500.0, 187500.0, 187500.0, 187500.0, 187500.0, 0.008, 1.008, 0.012, 192.0, 0.0, 0.0, 0.0, 0.0, 0.0, 0.0, 0.0, 0.0, 0.0, 1.6820971772594123E9, 0.0, 2023-04-21 12:12:57.259
43.0, -48983.98208427216, -31447.585695694175, 187500.0, 187500.0, 187500.0, 187500.0, 187500.0, 187500.0, 0.008, 1.008, 0.012, 192.0, 0.0, 0.0, 0.0, 0.0, 0.0, 0.0, 0.0, 0.0, 0.0, 1.6820971772594285E9, 0.0, 2023-04-21 12:12:57.259
44.0, -49052.26666358312, -31467.54580349276, 187500.0, 187500.0, 187500.0, 187500.0, 187500.0, 187500.0, 0.008, 1.008, 0.012, 192.0, 0.0, 0.0, 0.0, 0.0, 0.0, 0.0, 0.0, 0.0, 0.0, 1.68209717725947E9, 0.0, 2023-04-21 12:12:57.259
45.0, -49074.30548361606, -31448.524468961295, 187500.0, 187500.0, 187500.0, 187500.0, 187500.0, 187500.0, 0.008, 1.008, 0.012, 192.0, 0.0, 0.0, 0.0, 0.0, 0.0, 0.0, 0.0, 0.0, 0.0, 1.682097177259487E9, 0.0, 2023-04-21 12:12:57.259
46.0, -48994.286238466055, -31446.490460215864, 187500.0, 187500.0, 187500.0, 187500.0, 187500.0, 187500.0, 0.008, 1.008, 0.012, 192.0, 0.0, 0.0, 0.0, 0.0, 0.0, 0.0, 0.0, 0.0, 0.0, 1.6820971772595024E9, 0.0, 2023-04-21 12:12:57.259
47.0, -48944.71006926418, -31461.622591212108, 187500.0, 187500.0, 187500.0, 187500.0, 187500.0, 187500.0, 0.008, 1.008, 0.012, 192.0, 0.0, 0.0, 0.0, 0.0, 0.0, 0.0, 0.0, 0.0, 0.0, 1.6820971772595184E9, 0.0, 2023-04-21 12:12:57.259
48.0, -49039.83909366597, -31478.922841420514, 187500.0, 187500.0, 187500.0, 187500.0, 187500.0, 187500.0, 0.008, 1.008, 0.012, 192.0, 0.0, 0.0, 0.0, 0.0, 0.0, 0.0, 0.0, 0.0, 0.0, 1.6820971772595348E9, 0.0, 2023-04-21 12:12:57.259
49.0, -49063.88957069988, -31468.261059315333, 187500.0, 187500.0, 187500.0, 187500.0, 187500.0, 187500.0, 0.008, 0.996, 0.0, 192.0, 0.0, 64.0, 31.0, 32.0, 0.0, 0.0, 0.0, 0.0, 0.0, 1.682097177259554E9, 0.0, 2023-04-21 12:12:57.259
50.0, -48973.02972948906, -31431.537143175265, 187500.0, 187500.0, 187500.0, 187500.0, 187500.0, 187500.0, 0.008, 0.996, 0.0, 192.0, 0.0, 0.0, 0.0, 0.0, 0.0, 0.0, 0.0, 0.0, 0.0, 1.6820971772595704E9, 0.0, 2023-04-21 12:12:57.259
51.0, -48924.70525797668, -31459.633285955584, 187500.0, 187500.0, 187500.0, 187500.0, 187500.0, 187500.0, 0.008, 0.996, 0.0, 192.0, 0.0, 0.0, 0.0, 0.0, 0.0, 0.0, 0.0, 0.0, 0.0, 1.682097177259586E9, 0.0, 2023-04-21 12:12:57.259
52.0, -49004.70215138223, -31447.943323605457, 187500.0, 187500.0, 187500.0, 187500.0, 187500.0, 187500.0, 0.008, 0.996, 0.0, 192.0, 0.0, 0.0, 0.0, 0.0, 0.0, 0.0, 0.0, 0.0, 0.0, 1.6820971772596014E9, 0.0, 2023-04-21 12:12:57.259
53.0, -49077.99352145118, -31460.013265611324, 187500.0, 187500.0, 187500.0, 187500.0, 187500.0, 187500.0, 0.008, 0.996, 0.0, 192.0, 0.0, 0.0, 0.0, 0.0, 0.0, 0.0, 0.0, 0.0, 0.0, 1.6820971772596173E9, 0.0, 2023-04-21 12:12:57.259
54.0, -49023.54467195805, -31421.948244803938, 187500.0, 187500.0, 187500.0, 187500.0, 187500.0, 187500.0, 0.008, 0.996, 0.0, 192.0, 0.0, 0.0, 0.0, 0.0, 0.0, 0.0, 0.0, 0.0, 0.0, 1.6820971772596593E9, 0.0, 2023-04-21 12:12:57.259
55.0, -48956.37767986985, -31451.296085273756, 187500.0, 187500.0, 187500.0, 187500.0, 187500.0, 187500.0, 0.008, 0.996, 0.0, 192.0, 0.0, 0.0, 0.0, 0.0, 0.0, 0.0, 0.0, 0.0, 0.0, 1.6820971772596755E9, 0.0, 2023-04-21 12:12:57.259
56.0, -49012.72642764168, -31453.710073674927, 187500.0, 187500.0, 187500.0, 187500.0, 187500.0, 187500.0, 0.008, 0.996, 0.0, 192.0, 0.0, 0.0, 0.0, 0.0, 0.0, 0.0, 0.0, 0.0, 0.0, 1.6820971772596912E9, 0.0, 2023-04-21 12:12:57.259
57.0, -49069.656320769354, -31461.66729470102, 187500.0, 187500.0, 187500.0, 187500.0, 187500.0, 187500.0, 0.008, 0.996, 0.0, 192.0, 0.0, 0.0, 0.0, 0.0, 0.0, 0.0, 0.0, 0.0, 0.0, 1.6820971772597067E9, 0.0, 2023-04-21 12:12:57.259
58.0, -49019.543709700556, -31418.371965691087, 187500.0, 187500.0, 187500.0, 187500.0, 187500.0, 187500.0, 0.008, 0.996, 0.0, 192.0, 0.0, 0.0, 0.0, 0.0, 0.0, 0.0, 0.0, 0.0, 0.0, 1.682097177259723E9, 0.0, 2023-04-21 12:12:57.259
59.0, -48969.967540498685, -31460.61676271162, 187500.0, 187500.0, 187500.0, 187500.0, 187500.0, 187500.0, 0.048, 0.968, -0.02, 192.0, 1.0, 128.0, 30.0, 64.0, 255.0, 96.0, 0.0, 0.0, 0.0, 1.6820971772597387E9, 0.0, 2023-04-21 12:12:57.259
60.0, -49001.43879669176, -31459.096844088657, 187500.0, 187500.0, 187500.0, 187500.0, 187500.0, 187500.0, 0.048, 0.968, -0.02, 192.0, 0.0, 0.0, 0.0, 0.0, 0.0, 0.0, 0.0, 0.0, 0.0, 1.6820971772597573E9, 0.0, 2023-04-21 12:12:57.259
61.0, -49083.96143722075, -31471.122082605612, 187500.0, 187500.0, 187500.0, 187500.0, 187500.0, 187500.0, 0.048, 0.968, -0.02, 192.0, 0.0, 0.0, 0.0, 0.0, 0.0, 0.0, 0.0, 0.0, 0.0, 1.682097177259773E9, 0.0, 2023-04-21 12:12:57.259
62.0, -49047.639852480876, -31410.571206876186, 187500.0, 187500.0, 187500.0, 187500.0, 187500.0, 187500.0, 0.048, 0.968, -0.02, 192.0, 0.0, 0.0, 0.0, 0.0, 0.0, 0.0, 0.0, 0.0, 0.0, 1.682097177259789E9, 0.0, 2023-04-21 12:12:57.259
63.0, -48950.29800537801, -31436.56628567771, 187500.0, 187500.0, 187500.0, 187500.0, 187500.0, 187500.0, 0.048, 0.968, -0.02, 192.0, 0.0, 0.0, 0.0, 0.0, 0.0, 0.0, 0.0, 0.0, 0.0, 1.6820971772598171E9, 0.0, 2023-04-21 12:12:57.259
64.0, -48965.899523007814, -31434.912256588013, 187500.0, 187500.0, 187500.0, 187500.0, 187500.0, 187500.0, 0.048, 0.968, -0.02, 192.0, 0.0, 0.0, 0.0, 0.0, 0.0, 0.0, 0.0, 0.0, 0.0, 1.6820971772598329E9, 0.0, 2023-04-21 12:12:57.259
65.0, -49071.57857079251, -31451.98898935187, 187500.0, 187500.0, 187500.0, 187500.0, 187500.0, 187500.0, 0.048, 0.968, -0.02, 192.0, 0.0, 0.0, 0.0, 0.0, 0.0, 0.0, 0.0, 0.0, 0.0, 1.6820971772598486E9, 0.0, 2023-04-21 12:12:57.259
66.0, -49059.46392529773, -31427.759698362315, 187500.0, 187500.0, 187500.0, 187500.0, 187500.0, 187500.0, 0.048, 0.968, -0.02, 192.0, 0.0, 0.0, 0.0, 0.0, 0.0, 0.0, 0.0, 0.0, 0.0, 1.6820971772598643E9, 0.0, 2023-04-21 12:12:57.259
67.0, -48987.89363955184, -31453.79948065275, 187500.0, 187500.0, 187500.0, 187500.0, 187500.0, 187500.0, 0.048, 0.968, -0.02, 192.0, 0.0, 0.0, 0.0, 0.0, 0.0, 0.0, 0.0, 0.0, 0.0, 1.68209717725988E9, 0.0, 2023-04-21 12:12:57.259
68.0, -48973.521467867075, -31481.649754244063, 187500.0, 187500.0, 187500.0, 187500.0, 187500.0, 187500.0, 0.048, 0.968, -0.02, 192.0, 0.0, 0.0, 0.0, 0.0, 0.0, 0.0, 0.0, 0.0, 0.0, 1.6820971772598956E9, 0.0, 2023-04-21 12:12:57.259
69.0, -49059.06159389754, -31489.74108573688, 187500.0, 187500.0, 187500.0, 187500.0, 187500.0, 187500.0, 0.024, 0.988, -0.03, 192.0, 0.0, 192.0, 30.0, 224.0, 255.0, 16.0, 0.0, 0.0, 0.0, 1.6820971772599316E9, 0.0, 2023-04-21 12:12:57.259
70.0, -49044.64471872387, -31446.2222392824, 187500.0, 187500.0, 187500.0, 187500.0, 187500.0, 187500.0, 0.024, 0.988, -0.03, 192.0, 0.0, 0.0, 0.0, 0.0, 0.0, 0.0, 0.0, 0.0, 0.0, 1.682097177259948E9, 0.0, 2023-04-21 12:12:57.259
71.0, -48968.291159664535, -31443.36121599212, 187500.0, 187500.0, 187500.0, 187500.0, 187500.0, 187500.0, 0.024, 0.988, -0.03, 192.0, 0.0, 0.0, 0.0, 0.0, 0.0, 0.0, 0.0, 0.0, 0.0, 1.6820971772599642E9, 0.0, 2023-04-21 12:12:57.259
72.0, -48947.48168557664, -31484.868405445628, 187500.0, 187500.0, 187500.0, 187500.0, 187500.0, 187500.0, 0.024, 0.988, -0.03, 192.0, 0.0, 0.0, 0.0, 0.0, 0.0, 0.0, 0.0, 0.0, 0.0, 1.68209717725998E9, 0.0, 2023-04-21 12:12:57.259
73.0, -49023.83524463597, -31495.843111973183, 187500.0, 187500.0, 187500.0, 187500.0, 187500.0, 187500.0, 0.024, 0.988, -0.03, 192.0, 0.0, 0.0, 0.0, 0.0, 0.0, 0.0, 0.0, 0.0, 0.0, 1.6820971772599957E9, 0.0, 2023-04-21 12:12:57.259
74.0, -49041.71664020022, -31466.584678481184, 187500.0, 187500.0, 187500.0, 187500.0, 187500.0, 187500.0, 0.024, 0.988, -0.03, 192.0, 0.0, 0.0, 0.0, 0.0, 0.0, 0.0, 0.0, 0.0, 0.0, 1.6820971772600086E9, 0.0, 2023-04-21 12:12:57.260
75.0, -48972.98502600015, -31451.899582374048, 187500.0, 187500.0, 187500.0, 187500.0, 187500.0, 187500.0, 0.024, 0.988, -0.03, 192.0, 0.0, 0.0, 0.0, 0.0, 0.0, 0.0, 0.0, 0.0, 0.0, 1.6820971772600217E9, 0.0, 2023-04-21 12:12:57.260
76.0, -48919.0949701184, -31470.47388201641, 187500.0, 187500.0, 187500.0, 187500.0, 187500.0, 187500.0, 0.024, 0.988, -0.03, 192.0, 0.0, 0.0, 0.0, 0.0, 0.0, 0.0, 0.0, 0.0, 0.0, 1.6820971772600338E9, 0.0, 2023-04-21 12:12:57.260
77.0, -49001.52820366958, -31469.98214363839, 187500.0, 187500.0, 187500.0, 187500.0, 187500.0, 187500.0, 0.024, 0.988, -0.03, 192.0, 0.0, 0.0, 0.0, 0.0, 0.0, 0.0, 0.0, 0.0, 0.0, 1.6820971772600462E9, 0.0, 2023-04-21 12:12:57.260
78.0, -49037.201587820244, -31469.22218432691, 187500.0, 187500.0, 187500.0, 187500.0, 187500.0, 187500.0, 0.024, 0.988, -0.03, 192.0, 0.0, 0.0, 0.0, 0.0, 0.0, 0.0, 0.0, 0.0, 0.0, 1.6820971772600584E9, 0.0, 2023-04-21 12:12:57.260
79.0, -49002.60108740343, -31437.75092813384, 187500.0, 187500.0, 187500.0, 187500.0, 187500.0, 187500.0, 0.024, 0.988, -0.03, 192.0, 0.0, 0.0, 0.0, 0.0, 0.0, 0.0, 0.0, 0.0, 0.0, 1.6820971772600708E9, 0.0, 2023-04-21 12:12:57.260
80.0, -48964.223142173665, -31490.724562492916, 187500.0, 187500.0, 187500.0, 187500.0, 187500.0, 187500.0, 0.028, 0.978, -0.032, 192.0, 0.0, 224.0, 30.0, 144.0, 255.0, 0.0, 0.0, 0.0, 0.0, 1.6820971772600832E9, 0.0, 2023-04-21 12:12:57.260
81.0, -49002.60108740343, -31468.395169782067, 187500.0, 187500.0, 187500.0, 187500.0, 187500.0, 187500.0, 0.028, 0.978, -0.032, 192.0, 0.0, 0.0, 0.0, 0.0, 0.0, 0.0, 0.0, 0.0, 0.0, 1.6820971772600951E9, 0.0, 2023-04-21 12:12:57.260
82.0, -49050.23265483769, -31456.571096965206, 187500.0, 187500.0, 187500.0, 187500.0, 187500.0, 187500.0, 0.028, 0.978, -0.032, 192.0, 0.0, 0.0, 0.0, 0.0, 0.0, 0.0, 0.0, 0.0, 0.0, 1.6820971772601068E9, 0.0, 2023-04-21 12:12:57.260
83.0, -49015.408636976324, -31426.798573350738, 187500.0, 187500.0, 187500.0, 187500.0, 187500.0, 187500.0, 0.028, 0.978, -0.032, 192.0, 0.0, 0.0, 0.0, 0.0, 0.0, 0.0, 0.0, 0.0, 0.0, 1.6820971772601185E9, 0.0, 2023-04-21 12:12:57.260
84.0, -48976.673063835275, -31497.3853823406, 187500.0, 187500.0, 187500.0, 187500.0, 187500.0, 187500.0, 0.028, 0.978, -0.032, 192.0, 0.0, 0.0, 0.0, 0.0, 0.0, 0.0, 0.0, 0.0, 0.0, 1.6820971772601469E9, 0.0, 2023-04-21 12:12:57.260
85.0, -49015.63215442088, -31483.482597289396, 187500.0, 187500.0, 187500.0, 187500.0, 187500.0, 187500.0, 0.028, 0.978, -0.032, 192.0, 0.0, 0.0, 0.0, 0.0, 0.0, 0.0, 0.0, 0.0, 0.0, 1.6820971772601588E9, 0.0, 2023-04-21 12:12:57.260
86.0, -49080.1839924078, -31459.856803400136, 187500.0, 187500.0, 187500.0, 187500.0, 187500.0, 187500.0, 0.028, 0.978, -0.032, 192.0, 0.0, 0.0, 0.0, 0.0, 0.0, 0.0, 0.0, 0.0, 0.0, 1.6820971772601705E9, 0.0, 2023-04-21 12:12:57.260
87.0, -49042.43189602279, -31416.203846478922, 187500.0, 187500.0, 187500.0, 187500.0, 187500.0, 187500.0, 0.028, 0.978, -0.032, 192.0, 0.0, 0.0, 0.0, 0.0, 0.0, 0.0, 0.0, 0.0, 0.0, 1.682097177260182E9, 0.0, 2023-04-21 12:12:57.260
88.0, -49007.63022990587, -31481.649754244063, 187500.0, 187500.0, 187500.0, 187500.0, 187500.0, 187500.0, 0.028, 0.978, -0.032, 192.0, 0.0, 0.0, 0.0, 0.0, 0.0, 0.0, 0.0, 0.0, 0.0, 1.6820971776732562E9, 0.0, 2023-04-21 12:12:57.673
89.0, -49012.324096241486, -31490.456341559453, 187500.0, 187500.0, 187500.0, 187500.0, 187500.0, 187500.0, 0.028, 0.978, -0.032, 192.0, 0.0, 0.0, 0.0, 0.0, 0.0, 0.0, 0.0, 0.0, 0.0, 1.6820971776732862E9, 0.0, 2023-04-21 12:12:57.673
90.0, -49079.75930926315, -31479.794559454273, 187500.0, 187500.0, 187500.0, 187500.0, 187500.0, 187500.0, 0.016, 0.9580000000000001, -0.048, 192.0, 0.0, 128.0, 29.0, 240.0, 254.0, 128.0, 0.0, 0.0, 0.0, 1.682097177673308E9, 0.0, 2023-04-21 12:12:57.673
91.0, -49064.73893698918, -31425.122192516592, 187500.0, 187500.0, 187500.0, 187500.0, 187500.0, 187500.0, 0.016, 0.9580000000000001, -0.048, 192.0, 0.0, 0.0, 0.0, 0.0, 0.0, 0.0, 0.0, 0.0, 0.0, 1.6820971776733303E9, 0.0, 2023-04-21 12:12:57.673
92.0, -49007.853747350426, -31468.46222501543, 187500.0, 187500.0, 187500.0, 187500.0, 187500.0, 187500.0, 0.016, 0.9580000000000001, -0.048, 192.0, 0.0, 0.0, 0.0, 0.0, 0.0, 0.0, 0.0, 0.0, 0.0, 1.6820971776733525E9, 0.0, 2023-04-21 12:12:57.673
94.0, -49057.072288641015, -31493.630289272107, 187500.0, 187500.0, 187500.0, 187500.0, 187500.0, 187500.0, 0.016, 0.9580000000000001, -0.048, 192.0, 0.0, 0.0, 0.0, 0.0, 0.0, 0.0, 0.0, 0.0, 0.0, 1.6820971776733718E9, 0.0, 2023-04-21 12:12:57.673
95.0, -49023.63407893587, -31441.103689802134, 187500.0, 187500.0, 187500.0, 187500.0, 187500.0, 187500.0, 0.016, 0.9580000000000001, -0.048, 192.0, 0.0, 0.0, 0.0, 0.0, 0.0, 0.0, 0.0, 0.0, 0.0, 1.682097177673385E9, 0.0, 2023-04-21 12:12:57.673
96.0, -48969.16287769829, -31465.33298079169, 187500.0, 187500.0, 187500.0, 187500.0, 187500.0, 187500.0, 0.016, 0.9580000000000001, -0.048, 192.0, 0.0, 0.0, 0.0, 0.0, 0.0, 0.0, 0.0, 0.0, 0.0, 1.6820971776733978E9, 0.0, 2023-04-21 12:12:57.673
97.0, -48972.18036319976, -31519.513609351354, 187500.0, 187500.0, 187500.0, 187500.0, 187500.0, 187500.0, 0.016, 0.9580000000000001, -0.048, 192.0, 0.0, 0.0, 0.0, 0.0, 0.0, 0.0, 0.0, 0.0, 0.0, 1.6820971776734107E9, 0.0, 2023-04-21 12:12:57.673
98.0, -49021.86829112391, -31498.122989907624, 187500.0, 187500.0, 187500.0, 187500.0, 187500.0, 187500.0, 0.016, 0.9580000000000001, -0.048, 192.0, 0.0, 0.0, 0.0, 0.0, 0.0, 0.0, 0.0, 0.0, 0.0, 1.6820971776734233E9, 0.0, 2023-04-21 12:12:57.673
99.0, -49013.32992474198, -31455.297047531254, 187500.0, 187500.0, 187500.0, 187500.0, 187500.0, 187500.0, 0.016, 0.9580000000000001, -0.048, 192.0, 0.0, 0.0, 0.0, 0.0, 0.0, 0.0, 0.0, 0.0, 0.0, 1.6820971776734357E9, 0.0, 2023-04-21 12:12:57.673
100.0, -48990.17351748628, -31452.03369284078, 187500.0, 187500.0, 187500.0, 187500.0, 187500.0, 187500.0, -0.024, 0.976, -0.066, 192.0, 255.0, 64.0, 30.0, 128.0, 253.0, 240.0, 0.0, 0.0, 0.0, 1.6820971776735995E9, 0.0, 2023-04-21 12:12:57.673
101.0, -48987.312494196, -31525.883856521115, 187500.0, 187500.0, 187500.0, 187500.0, 187500.0, 187500.0, -0.024, 0.976, -0.066, 192.0, 0.0, 0.0, 0.0, 0.0, 0.0, 0.0, 0.0, 0.0, 0.0, 1.6820971776736145E9, 0.0, 2023-04-21 12:12:57.673
102.0, -49035.681669197285, -31523.76044079786, 187500.0, 187500.0, 187500.0, 187500.0, 187500.0, 187500.0, -0.024, 0.976, -0.066, 192.0, 0.0, 0.0, 0.0, 0.0, 0.0, 0.0, 0.0, 0.0, 0.0, 1.6820971776736271E9, 0.0, 2023-04-21 12:12:57.673
103.0, -49039.36970703241, -31485.13662637909, 187500.0, 187500.0, 187500.0, 187500.0, 187500.0, 187500.0, -0.024, 0.976, -0.066, 192.0, 0.0, 0.0, 0.0, 0.0, 0.0, 0.0, 0.0, 0.0, 0.0, 1.6820971776736405E9, 0.0, 2023-04-21 12:12:57.673
104.0, -48983.75856682761, -31431.380680964077, 187500.0, 187500.0, 187500.0, 187500.0, 187500.0, 187500.0, -0.024, 0.976, -0.066, 192.0, 0.0, 0.0, 0.0, 0.0, 0.0, 0.0, 0.0, 0.0, 0.0, 1.6820971776736531E9, 0.0, 2023-04-21 12:12:57.673
105.0, -48970.21340968769, -31514.886798249103, 187500.0, 187500.0, 187500.0, 187500.0, 187500.0, 187500.0, -0.024, 0.976, -0.066, 192.0, 0.0, 0.0, 0.0, 0.0, 0.0, 0.0, 0.0, 0.0, 0.0, 1.6820971776736665E9, 0.0, 2023-04-21 12:12:57.673
106.0, -49026.36099175942, -31521.346452396687, 187500.0, 187500.0, 187500.0, 187500.0, 187500.0, 187500.0, -0.024, 0.976, -0.066, 192.0, 0.0, 0.0, 0.0, 0.0, 0.0, 0.0, 0.0, 0.0, 0.0, 1.6820971776736937E9, 0.0, 2023-04-21 12:12:57.673
107.0, -49055.08298338449, -31489.94225143698, 187500.0, 187500.0, 187500.0, 187500.0, 187500.0, 187500.0, -0.024, 0.976, -0.066, 192.0, 0.0, 0.0, 0.0, 0.0, 0.0, 0.0, 0.0, 0.0, 0.0, 1.6820971776737063E9, 0.0, 2023-04-21 12:12:57.673
108.0, -49000.63413389136, -31412.158180732513, 187500.0, 187500.0, 187500.0, 187500.0, 187500.0, 187500.0, -0.024, 0.976, -0.066, 192.0, 0.0, 0.0, 0.0, 0.0, 0.0, 0.0, 0.0, 0.0, 0.0, 1.6820971776737187E9, 0.0, 2023-04-21 12:12:57.673
109.0, -48995.24736347763, -31511.62344355863, 187500.0, 187500.0, 187500.0, 187500.0, 187500.0, 187500.0, -0.024, 0.976, -0.066, 192.0, 0.0, 0.0, 0.0, 0.0, 0.0, 0.0, 0.0, 0.0, 0.0, 1.6820971776737316E9, 0.0, 2023-04-21 12:12:57.673
110.0, -49062.01202416563, -31551.63306613363, 187500.0, 187500.0, 187500.0, 187500.0, 187500.0, 187500.0, -0.028, 0.9440000000000001, -0.09, 192.0, 255.0, 32.0, 29.0, 128.0, 253.0, 48.0, 0.0, 0.0, 0.0, 1.682097177673744E9, 0.0, 2023-04-21 12:12:57.673
111.0, -49094.4891088592, -31510.75172552487, 187500.0, 187500.0, 187500.0, 187500.0, 187500.0, 187500.0, -0.028, 0.9440000000000001, -0.09, 192.0, 0.0, 0.0, 0.0, 0.0, 0.0, 0.0, 0.0, 0.0, 0.0, 1.6820971776737587E9, 0.0, 2023-04-21 12:12:57.673
112.0, -49018.403770733334, -31419.042518024748, 187500.0, 187500.0, 187500.0, 187500.0, 187500.0, 187500.0, -0.028, 0.9440000000000001, -0.09, 192.0, 0.0, 0.0, 0.0, 0.0, 0.0, 0.0, 0.0, 0.0, 0.0, 1.6820971776737728E9, 0.0, 2023-04-21 12:12:57.673
113.0, -48976.98598825765, -31499.218225385932, 187500.0, 187500.0, 187500.0, 187500.0, 187500.0, 187500.0, -0.028, 0.9440000000000001, -0.09, 192.0, 0.0, 0.0, 0.0, 0.0, 0.0, 0.0, 0.0, 0.0, 0.0, 1.6820971776737869E9, 0.0, 2023-04-21 12:12:57.673
114.0, -49011.9664683302, -31547.207420731476, 187500.0, 187500.0, 187500.0, 187500.0, 187500.0, 187500.0, -0.028, 0.9440000000000001, -0.09, 192.0, 0.0, 0.0, 0.0, 0.0, 0.0, 0.0, 0.0, 0.0, 0.0, 1.6820971776738007E9, 0.0, 2023-04-21 12:12:57.673
115.0, -49053.33954731698, -31502.168655654034, 187500.0, 187500.0, 187500.0, 187500.0, 187500.0, 187500.0, -0.028, 0.9440000000000001, -0.09, 192.0, 0.0, 0.0, 0.0, 0.0, 0.0, 0.0, 0.0, 0.0, 0.0, 1.682097177673834E9, 0.0, 2023-04-21 12:12:57.673
116.0, -49025.77984640358, -31400.3117561712, 187500.0, 187500.0, 187500.0, 187500.0, 187500.0, 187500.0, -0.028, 0.9440000000000001, -0.09, 192.0, 0.0, 0.0, 0.0, 0.0, 0.0, 0.0, 0.0, 0.0, 0.0, 1.6820971776738489E9, 0.0, 2023-04-21 12:12:57.673
117.0, -48982.97625577167, -31467.098768603657, 187500.0, 187500.0, 187500.0, 187500.0, 187500.0, 187500.0, -0.028, 0.9440000000000001, -0.09, 192.0, 0.0, 0.0, 0.0, 0.0, 0.0, 0.0, 0.0, 0.0, 0.0, 1.682097177673863E9, 0.0, 2023-04-21 12:12:57.673
118.0, -49003.27163973709, -31552.638894634118, 187500.0, 187500.0, 187500.0, 187500.0, 187500.0, 187500.0, -0.028, 0.9440000000000001, -0.09, 192.0, 0.0, 0.0, 0.0, 0.0, 0.0, 0.0, 0.0, 0.0, 0.0, 1.6820971776738772E9, 0.0, 2023-04-21 12:12:57.673
119.0, -49049.383288548386, -31529.124859467134, 187500.0, 187500.0, 187500.0, 187500.0, 187500.0, 187500.0, -0.028, 0.9440000000000001, -0.09, 192.0, 0.0, 0.0, 0.0, 0.0, 0.0, 0.0, 0.0, 0.0, 0.0, 1.6820971776738913E9, 0.0, 2023-04-21 12:12:57.673
120.0, -49001.05881703601, -31422.149410504033, 187500.0, 187500.0, 187500.0, 187500.0, 187500.0, 187500.0, -0.028, 0.9440000000000001, -0.09, 192.0, 0.0, 0.0, 0.0, 0.0, 0.0, 0.0, 0.0, 0.0, 0.0, 1.6820971776739051E9, 0.0, 2023-04-21 12:12:57.673
121.0, -48959.462220604684, -31447.742157905363, 187500.0, 187500.0, 187500.0, 187500.0, 187500.0, 187500.0, -0.044, 0.934, -0.108, 192.0, 254.0, 160.0, 29.0, 48.0, 252.0, 160.0, 0.0, 0.0, 0.0, 1.6820971776739192E9, 0.0, 2023-04-21 12:12:57.673
122.0, -49014.38045673138, -31580.802092647806, 187500.0, 187500.0, 187500.0, 187500.0, 187500.0, 187500.0, -0.044, 0.934, -0.108, 192.0, 0.0, 0.0, 0.0, 0.0, 0.0, 0.0, 0.0, 0.0, 0.0, 1.6820971776739345E9, 0.0, 2023-04-21 12:12:57.673
123.0, -49085.63781805489, -31570.028551820345, 187500.0, 187500.0, 187500.0, 187500.0, 187500.0, 187500.0, -0.044, 0.934, -0.108, 192.0, 0.0, 0.0, 0.0, 0.0, 0.0, 0.0, 0.0, 0.0, 0.0, 1.6820971776739485E9, 0.0, 2023-04-21 12:12:57.673
124.0, -49043.1248001009, -31472.396132039565, 187500.0, 187500.0, 187500.0, 187500.0, 187500.0, 187500.0, -0.044, 0.934, -0.108, 192.0, 0.0, 0.0, 0.0, 0.0, 0.0, 0.0, 0.0, 0.0, 0.0, 1.6820971776739626E9, 0.0, 2023-04-21 12:12:57.673
125.0, -48956.66825254777, -31432.386509464566, 187500.0, 187500.0, 187500.0, 187500.0, 187500.0, 187500.0, -0.044, 0.934, -0.108, 192.0, 0.0, 0.0, 0.0, 0.0, 0.0, 0.0, 0.0, 0.0, 0.0, 1.682097177673977E9, 0.0, 2023-04-21 12:12:57.673
126.0, -48985.345540683935, -31553.66707487906, 187500.0, 187500.0, 187500.0, 187500.0, 187500.0, 187500.0, -0.044, 0.934, -0.108, 192.0, 0.0, 0.0, 0.0, 0.0, 0.0, 0.0, 0.0, 0.0, 0.0, 1.6820971776739907E9, 0.0, 2023-04-21 12:12:57.673
127.0, -49072.51734405963, -31564.664133151073, 187500.0, 187500.0, 187500.0, 187500.0, 187500.0, 187500.0, -0.044, 0.934, -0.108, 192.0, 0.0, 0.0, 0.0, 0.0, 0.0, 0.0, 0.0, 0.0, 0.0, 1.6820971776740048E9, 0.0, 2023-04-21 12:12:57.674
128.0, -49037.46980875371, -31470.965620394425, 187500.0, 187500.0, 187500.0, 187500.0, 187500.0, 187500.0, -0.044, 0.934, -0.108, 192.0, 0.0, 0.0, 0.0, 0.0, 0.0, 0.0, 0.0, 0.0, 0.0, 1.6820971776740205E9, 0.0, 2023-04-21 12:12:57.674
129.0, -48984.719691839186, -31399.59650034863, 187500.0, 187500.0, 187500.0, 187500.0, 187500.0, 187500.0, -0.044, 0.934, -0.108, 192.0, 0.0, 0.0, 0.0, 0.0, 0.0, 0.0, 0.0, 0.0, 0.0, 1.6820971776740348E9, 0.0, 2023-04-21 12:12:57.674
130.0, -49026.2715847816, -31538.065557249258, 187500.0, 187500.0, 187500.0, 187500.0, 187500.0, 187500.0, -0.044, 0.934, -0.108, 192.0, 0.0, 0.0, 0.0, 0.0, 0.0, 0.0, 0.0, 0.0, 0.0, 1.6820971776740649E9, 0.0, 2023-04-21 12:12:57.674
131.0, -49095.9866757377, -31576.599964690206, 187500.0, 187500.0, 187500.0, 187500.0, 187500.0, 187500.0, -0.052000000000000005, 0.9420000000000001, -0.10200000000000001, 192.0, 254.0, 96.0, 29.0, 112.0, 252.0, 208.0, 0.0, 0.0, 0.0, 1.682097177674079E9, 0.0, 2023-04-21 12:12:57.674
132.0, -49092.49980360267, -31513.47863834842, 187500.0, 187500.0, 187500.0, 187500.0, 187500.0, 187500.0, -0.052000000000000005, 0.9420000000000001, -0.10200000000000001, 192.0, 0.0, 0.0, 0.0, 0.0, 0.0, 0.0, 0.0, 0.0, 0.0, 1.682097177674094E9, 0.0, 2023-04-21 12:12:57.674
133.0, -49004.38922695986, -31417.03086102377, 187500.0, 187500.0, 187500.0, 187500.0, 187500.0, 187500.0, -0.052000000000000005, 0.9420000000000001, -0.10200000000000001, 192.0, 0.0, 0.0, 0.0, 0.0, 0.0, 0.0, 0.0, 0.0, 0.0, 1.682097177674108E9, 0.0, 2023-04-21 12:12:57.674
134.0, -49016.83914862146, -31569.71562739797, 187500.0, 187500.0, 187500.0, 187500.0, 187500.0, 187500.0, -0.052000000000000005, 0.9420000000000001, -0.10200000000000001, 192.0, 0.0, 0.0, 0.0, 0.0, 0.0, 0.0, 0.0, 0.0, 0.0, 1.682097177674122E9, 0.0, 2023-04-21 12:12:57.674
135.0, -49085.14607967688, -31631.317035116797, 187500.0, 187500.0, 187500.0, 187500.0, 187500.0, 187500.0, -0.052000000000000005, 0.9420000000000001, -0.10200000000000001, 192.0, 0.0, 0.0, 0.0, 0.0, 0.0, 0.0, 0.0, 0.0, 0.0, 1.682097177674136E9, 0.0, 2023-04-21 12:12:57.674
136.0, -49068.270512613126, -31551.498955666895, 187500.0, 187500.0, 187500.0, 187500.0, 187500.0, 187500.0, -0.052000000000000005, 0.9420000000000001, -0.10200000000000001, 192.0, 0.0, 0.0, 0.0, 0.0, 0.0, 0.0, 0.0, 0.0, 0.0, 1.68209717767415E9, 0.0, 2023-04-21 12:12:57.674
137.0, -48997.437834434255, -31422.2164657374, 187500.0, 187500.0, 187500.0, 187500.0, 187500.0, 187500.0, -0.052000000000000005, 0.9420000000000001, -0.10200000000000001, 192.0, 0.0, 0.0, 0.0, 0.0, 0.0, 0.0, 0.0, 0.0, 0.0, 1.682097177674164E9, 0.0, 2023-04-21 12:12:57.674
138.0, -49016.861500365914, -31557.891554581114, 187500.0, 187500.0, 187500.0, 187500.0, 187500.0, 187500.0, -0.052000000000000005, 0.9420000000000001, -0.10200000000000001, 192.0, 0.0, 0.0, 0.0, 0.0, 0.0, 0.0, 0.0, 0.0, 0.0, 1.682097177674178E9, 0.0, 2023-04-21 12:12:57.674
139.0, -49094.2879431591, -31665.850480300247, 187500.0, 187500.0, 187500.0, 187500.0, 187500.0, 187500.0, -0.052000000000000005, 0.9420000000000001, -0.10200000000000001, 192.0, 0.0, 0.0, 0.0, 0.0, 0.0, 0.0, 0.0, 0.0, 0.0, 1.682097177674192E9, 0.0, 2023-04-21 12:12:57.674
140.0, -49138.38793496942, -31619.91764544459, 187500.0, 187500.0, 187500.0, 187500.0, 187500.0, 187500.0, -0.052000000000000005, 0.9420000000000001, -0.10200000000000001, 192.0, 0.0, 0.0, 0.0, 0.0, 0.0, 0.0, 0.0, 0.0, 0.0, 1.6820971776742058E9, 0.0, 2023-04-21 12:12:57.674
141.0, -49056.80406770755, -31486.09775139067, 187500.0, 187500.0, 187500.0, 187500.0, 187500.0, 187500.0, -0.064, 0.964, -0.07200000000000001, 192.0, 254.0, 0.0, 30.0, 32.0, 253.0, 192.0, 0.0, 0.0, 0.0, 1.68209717767422E9, 0.0, 2023-04-21 12:12:57.674
142.0, -49043.1248001009, -31575.951764101002, 187500.0, 187500.0, 187500.0, 187500.0, 187500.0, 187500.0, -0.064, 0.964, -0.07200000000000001, 192.0, 0.0, 0.0, 0.0, 0.0, 0.0, 0.0, 0.0, 0.0, 0.0, 1.6820971776742346E9, 0.0, 2023-04-21 12:12:57.674
143.0, -49144.15468503889, -31730.80464968737, 187500.0, 187500.0, 187500.0, 187500.0, 187500.0, 187500.0, -0.064, 0.964, -0.07200000000000001, 192.0, 0.0, 0.0, 0.0, 0.0, 0.0, 0.0, 0.0, 0.0, 0.0, 1.6820971776742487E9, 0.0, 2023-04-21 12:12:57.674
144.0, -49220.307078398124, -31704.541349952386, 187500.0, 187500.0, 187500.0, 187500.0, 187500.0, 187500.0, -0.064, 0.964, -0.07200000000000001, 192.0, 0.0, 0.0, 0.0, 0.0, 0.0, 0.0, 0.0, 0.0, 0.0, 1.6820971776742628E9, 0.0, 2023-04-21 12:12:57.674
145.0, -49156.87282763396, -31566.63108666314, 187500.0, 187500.0, 187500.0, 187500.0, 187500.0, 187500.0, -0.064, 0.964, -0.07200000000000001, 192.0, 0.0, 0.0, 0.0, 0.0, 0.0, 0.0, 0.0, 0.0, 0.0, 1.6820971776742768E9, 0.0, 2023-04-21 12:12:57.674
146.0, -49115.87972830293, -31584.758351416393, 187500.0, 187500.0, 187500.0, 187500.0, 187500.0, 187500.0, -0.064, 0.964, -0.07200000000000001, 192.0, 0.0, 0.0, 0.0, 0.0, 0.0, 0.0, 0.0, 0.0, 0.0, 1.6820971776743057E9, 0.0, 2023-04-21 12:12:57.674
147.0, -49188.83582220505, -31738.448946291086, 187500.0, 187500.0, 187500.0, 187500.0, 187500.0, 187500.0, -0.064, 0.964, -0.07200000000000001, 192.0, 0.0, 0.0, 0.0, 0.0, 0.0, 0.0, 0.0, 0.0, 0.0, 1.6820971776743195E9, 0.0, 2023-04-21 12:12:57.674
148.0, -49264.6752911419, -31741.824059703835, 187500.0, 187500.0, 187500.0, 187500.0, 187500.0, 187500.0, -0.064, 0.964, -0.07200000000000001, 192.0, 0.0, 0.0, 0.0, 0.0, 0.0, 0.0, 0.0, 0.0, 0.0, 1.6820971776743336E9, 0.0, 2023-04-21 12:12:57.674
149.0, -49190.19927861682, -31588.1558165736, 187500.0, 187500.0, 187500.0, 187500.0, 187500.0, 187500.0, -0.064, 0.964, -0.07200000000000001, 192.0, 0.0, 0.0, 0.0, 0.0, 0.0, 0.0, 0.0, 0.0, 0.0, 1.6820971776743493E9, 0.0, 2023-04-21 12:12:57.674
150.0, -49118.36077193746, -31532.544676368798, 187500.0, 187500.0, 187500.0, 187500.0, 187500.0, 187500.0, -0.064, 0.964, -0.07200000000000001, 192.0, 0.0, 0.0, 0.0, 0.0, 0.0, 0.0, 0.0, 0.0, 0.0, 1.6820971776743634E9, 0.0, 2023-04-21 12:12:57.674
151.0, -49167.84753416151, -31709.27991977691, 187500.0, 187500.0, 187500.0, 187500.0, 187500.0, 187500.0, -0.046, 0.972, -0.042, 192.0, 254.0, 144.0, 30.0, 96.0, 254.0, 176.0, 0.0, 0.0, 0.0, 1.6820971776743772E9, 0.0, 2023-04-21 12:12:57.674
152.0, -49243.97757577629, -31740.460603292064, 187500.0, 187500.0, 187500.0, 187500.0, 187500.0, 187500.0, -0.046, 0.972, -0.042, 192.0, 0.0, 0.0, 0.0, 0.0, 0.0, 0.0, 0.0, 0.0, 0.0, 1.6820971776743922E9, 0.0, 2023-04-21 12:12:57.674
153.0, -49185.080729136556, -31606.17132260458, 187500.0, 187500.0, 187500.0, 187500.0, 187500.0, 187500.0, -0.046, 0.972, -0.042, 192.0, 0.0, 0.0, 0.0, 0.0, 0.0, 0.0, 0.0, 0.0, 0.0, 1.6820971776744063E9, 0.0, 2023-04-21 12:12:57.674
154.0, -49071.35505334796, -31481.47094028842, 187500.0, 187500.0, 187500.0, 187500.0, 187500.0, 187500.0, -0.046, 0.972, -0.042, 192.0, 0.0, 0.0, 0.0, 0.0, 0.0, 0.0, 0.0, 0.0, 0.0, 1.6820971776744204E9, 0.0, 2023-04-21 12:12:57.674
155.0, -49092.09747220248, -31653.378206894187, 187500.0, 187500.0, 187500.0, 187500.0, 187500.0, 187500.0, -0.046, 0.972, -0.042, 192.0, 0.0, 0.0, 0.0, 0.0, 0.0, 0.0, 0.0, 0.0, 0.0, 1.6820971776744344E9, 0.0, 2023-04-21 12:12:57.674
156.0, -49174.083670864544, -31695.31007949234, 187500.0, 187500.0, 187500.0, 187500.0, 187500.0, 187500.0, -0.046, 0.972, -0.042, 192.0, 0.0, 0.0, 0.0, 0.0, 0.0, 0.0, 0.0, 0.0, 0.0, 1.6820971776744485E9, 0.0, 2023-04-21 12:12:57.674
157.0, -49130.117789520955, -31570.229717520444, 187500.0, 187500.0, 187500.0, 187500.0, 187500.0, 187500.0, -0.046, 0.972, -0.042, 192.0, 0.0, 0.0, 0.0, 0.0, 0.0, 0.0, 0.0, 0.0, 0.0, 1.6820971776744623E9, 0.0, 2023-04-21 12:12:57.674
158.0, -49014.4698637092, -31419.668366869497, 187500.0, 187500.0, 187500.0, 187500.0, 187500.0, 187500.0, -0.046, 0.972, -0.042, 192.0, 0.0, 0.0, 0.0, 0.0, 0.0, 0.0, 0.0, 0.0, 0.0, 1.6820971776744764E9, 0.0, 2023-04-21 12:12:57.674
159.0, -49081.05571044156, -31610.88754068465, 187500.0, 187500.0, 187500.0, 187500.0, 187500.0, 187500.0, -0.046, 0.972, -0.042, 192.0, 0.0, 0.0, 0.0, 0.0, 0.0, 0.0, 0.0, 0.0, 0.0, 1.6820971776744905E9, 0.0, 2023-04-21 12:12:57.674
160.0, -49172.29553130812, -31707.80470464286, 187500.0, 187500.0, 187500.0, 187500.0, 187500.0, 187500.0, -0.046, 0.972, -0.042, 192.0, 0.0, 0.0, 0.0, 0.0, 0.0, 0.0, 0.0, 0.0, 0.0, 1.6820971776745045E9, 0.0, 2023-04-21 12:12:57.674
161.0, -49145.83106587304, -31600.024592879367, 187500.0, 187500.0, 187500.0, 187500.0, 187500.0, 187500.0, -0.046, 0.972, -0.042, 192.0, 0.0, 0.0, 0.0, 0.0, 0.0, 0.0, 0.0, 0.0, 0.0, 1.6820971776745336E9, 0.0, 2023-04-21 12:12:57.674
162.0, -49010.155977029324, -31419.02016628029, 187500.0, 187500.0, 187500.0, 187500.0, 187500.0, 187500.0, -0.026000000000000002, 0.992, -0.004, 192.0, 255.0, 48.0, 31.0, 0.0, 255.0, 224.0, 0.0, 0.0, 0.0, 1.6820971776745527E9, 0.0, 2023-04-21 12:12:57.674
163.0, -49017.643811421854, -31550.649589377594, 187500.0, 187500.0, 187500.0, 187500.0, 187500.0, 187500.0, -0.026000000000000002, 0.992, -0.004, 192.0, 0.0, 0.0, 0.0, 0.0, 0.0, 0.0, 0.0, 0.0, 0.0, 1.682097177674568E9, 0.0, 2023-04-21 12:12:57.674
164.0, -49092.99154198069, -31667.9738960235, 187500.0, 187500.0, 187500.0, 187500.0, 187500.0, 187500.0, -0.026000000000000002, 0.992, -0.004, 192.0, 0.0, 0.0, 0.0, 0.0, 0.0, 0.0, 0.0, 0.0, 0.0, 1.682097177674582E9, 0.0, 2023-04-21 12:12:57.674
165.0, -49105.642629342394, -31600.739848701938, 187500.0, 187500.0, 187500.0, 187500.0, 187500.0, 187500.0, -0.026000000000000002, 0.992, -0.004, 192.0, 0.0, 0.0, 0.0, 0.0, 0.0, 0.0, 0.0, 0.0, 0.0, 1.6820971776745963E9, 0.0, 2023-04-21 12:12:57.674
166.0, -48999.71771236869, -31419.51190465831, 187500.0, 187500.0, 187500.0, 187500.0, 187500.0, 187500.0, -0.026000000000000002, 0.992, -0.004, 192.0, 0.0, 0.0, 0.0, 0.0, 0.0, 0.0, 0.0, 0.0, 0.0, 1.6820971776746104E9, 0.0, 2023-04-21 12:12:57.674
167.0, -48994.442700677246, -31508.27068189033, 187500.0, 187500.0, 187500.0, 187500.0, 187500.0, 187500.0, -0.026000000000000002, 0.992, -0.004, 192.0, 0.0, 0.0, 0.0, 0.0, 0.0, 0.0, 0.0, 0.0, 0.0, 1.6820971776746244E9, 0.0, 2023-04-21 12:12:57.674
168.0, -49085.92839073281, -31661.223669198, 187500.0, 187500.0, 187500.0, 187500.0, 187500.0, 187500.0, -0.026000000000000002, 0.992, -0.004, 192.0, 0.0, 0.0, 0.0, 0.0, 0.0, 0.0, 0.0, 0.0, 0.0, 1.6820971776746387E9, 0.0, 2023-04-21 12:12:57.674
169.0, -49126.139179007914, -31626.01967168089, 187500.0, 187500.0, 187500.0, 187500.0, 187500.0, 187500.0, -0.026000000000000002, 0.992, -0.004, 192.0, 0.0, 0.0, 0.0, 0.0, 0.0, 0.0, 0.0, 0.0, 0.0, 1.6820971776746528E9, 0.0, 2023-04-21 12:12:57.674
170.0, -49010.580660173975, -31456.973428365403, 187500.0, 187500.0, 187500.0, 187500.0, 187500.0, 187500.0, -0.026000000000000002, 0.992, -0.004, 192.0, 0.0, 0.0, 0.0, 0.0, 0.0, 0.0, 0.0, 0.0, 0.0, 1.6820971776746683E9, 0.0, 2023-04-21 12:12:57.674
171.0, -48944.17362739726, -31479.928669921002, 187500.0, 187500.0, 187500.0, 187500.0, 187500.0, 187500.0, -0.026000000000000002, 0.992, -0.004, 192.0, 0.0, 0.0, 0.0, 0.0, 0.0, 0.0, 0.0, 0.0, 0.0, 1.6820971776746821E9, 0.0, 2023-04-21 12:12:57.674
172.0, -49055.90999792934, -31652.394730138152, 187500.0, 187500.0, 187500.0, 187500.0, 187500.0, 187500.0, -0.026000000000000002, 0.992, -0.004, 192.0, 0.0, 0.0, 31.0, 96.0, 0.0, 240.0, 0.0, 0.0, 0.0, 1.6820971776746964E9, 0.0, 2023-04-21 12:12:57.674
173.0, -49130.05073428759, -31643.87871550068, 187500.0, 187500.0, 187500.0, 187500.0, 187500.0, 187500.0, -0.026000000000000002, 0.992, -0.004, 192.0, 0.0, 0.0, 0.0, 0.0, 0.0, 0.0, 0.0, 0.0, 0.0, 1.6820971776747108E9, 0.0, 2023-04-21 12:12:57.674
174.0, -49039.257948310136, -31487.46120780244, 187500.0, 187500.0, 187500.0, 187500.0, 187500.0, 187500.0, -0.026000000000000002, 0.992, -0.004, 192.0, 0.0, 0.0, 0.0, 0.0, 0.0, 0.0, 0.0, 0.0, 0.0, 1.682097177674725E9, 0.0, 2023-04-21 12:12:57.674
175.0, -48965.564246840986, -31445.41757648201, 187500.0, 187500.0, 187500.0, 187500.0, 187500.0, 187500.0, -0.026000000000000002, 0.992, -0.004, 192.0, 0.0, 0.0, 0.0, 0.0, 0.0, 0.0, 0.0, 0.0, 0.0, 1.682097177674739E9, 0.0, 2023-04-21 12:12:57.674
176.0, -49046.20934083573, -31623.15864839061, 187500.0, 187500.0, 187500.0, 187500.0, 187500.0, 187500.0, -0.026000000000000002, 0.992, -0.004, 192.0, 0.0, 0.0, 0.0, 0.0, 0.0, 0.0, 0.0, 0.0, 0.0, 1.6820971776747684E9, 0.0, 2023-04-21 12:12:57.674
177.0, -49103.60862059696, -31628.59012229325, 187500.0, 187500.0, 187500.0, 187500.0, 187500.0, 187500.0, -0.026000000000000002, 0.992, -0.004, 192.0, 0.0, 0.0, 0.0, 0.0, 0.0, 0.0, 0.0, 0.0, 0.0, 1.6820971776747825E9, 0.0, 2023-04-21 12:12:57.674
178.0, -49039.034430865584, -31509.075344690722, 187500.0, 187500.0, 187500.0, 187500.0, 187500.0, 187500.0, -0.026000000000000002, 0.992, -0.004, 192.0, 0.0, 0.0, 0.0, 0.0, 0.0, 0.0, 0.0, 0.0, 0.0, 1.682097177674795E9, 0.0, 2023-04-21 12:12:57.674
179.0, -48958.94813048222, -31418.662538369008, 187500.0, 187500.0, 187500.0, 187500.0, 187500.0, 187500.0, -0.026000000000000002, 0.992, -0.004, 192.0, 0.0, 0.0, 0.0, 0.0, 0.0, 0.0, 0.0, 0.0, 0.0, 1.682097177674806E9, 0.0, 2023-04-21 12:12:57.674
180.0, -49017.777921888584, -31613.435639552554, 187500.0, 187500.0, 187500.0, 187500.0, 187500.0, 187500.0, -0.026000000000000002, 0.992, -0.004, 192.0, 0.0, 0.0, 0.0, 0.0, 0.0, 0.0, 0.0, 0.0, 0.0, 1.6820971776748176E9, 0.0, 2023-04-21 12:12:57.674
181.0, -49082.41916685333, -31663.302381432342, 187500.0, 187500.0, 187500.0, 187500.0, 187500.0, 187500.0, -0.026000000000000002, 0.992, -0.004, 192.0, 0.0, 0.0, 0.0, 0.0, 0.0, 0.0, 0.0, 0.0, 0.0, 1.682097177674829E9, 0.0, 2023-04-21 12:12:57.674
182.0, -49049.69621297076, -31528.744879811395, 187500.0, 187500.0, 187500.0, 187500.0, 187500.0, 187500.0, -0.006, 1.006, 0.056, 192.0, 255.0, 208.0, 31.0, 112.0, 1.0, 192.0, 0.0, 0.0, 0.0, 1.6820971776748388E9, 0.0, 2023-04-21 12:12:57.674
183.0, -48945.6041390424, -31381.536290828742, 187500.0, 187500.0, 187500.0, 187500.0, 187500.0, 187500.0, -0.006, 1.006, 0.056, 192.0, 0.0, 0.0, 0.0, 0.0, 0.0, 0.0, 0.0, 0.0, 0.0, 1.6820971776748493E9, 0.0, 2023-04-21 12:12:57.674
184.0, -49000.88000308037, -31577.67284842406, 187500.0, 187500.0, 187500.0, 187500.0, 187500.0, 187500.0, -0.006, 1.006, 0.056, 192.0, 0.0, 0.0, 0.0, 0.0, 0.0, 0.0, 0.0, 0.0, 0.0, 1.682097177674859E9, 0.0, 2023-04-21 12:12:57.674
185.0, -49076.09362317248, -31674.299439704355, 187500.0, 187500.0, 187500.0, 187500.0, 187500.0, 187500.0, -0.006, 1.006, 0.056, 192.0, 0.0, 0.0, 0.0, 0.0, 0.0, 0.0, 0.0, 0.0, 0.0, 1.6820971776748688E9, 0.0, 2023-04-21 12:12:57.674
186.0, -49059.7768497201, -31580.600926947707, 187500.0, 187500.0, 187500.0, 187500.0, 187500.0, 187500.0, -0.006, 1.006, 0.056, 192.0, 0.0, 0.0, 0.0, 0.0, 0.0, 0.0, 0.0, 0.0, 0.0, 1.6820971776748784E9, 0.0, 2023-04-21 12:12:57.674
187.0, -48944.84417973092, -31401.004660249313, 187500.0, 187500.0, 187500.0, 187500.0, 187500.0, 187500.0, -0.006, 1.006, 0.056, 192.0, 0.0, 0.0, 0.0, 0.0, 0.0, 0.0, 0.0, 0.0, 0.0, 1.682097177674888E9, 0.0, 2023-04-21 12:12:57.674
188.0, -48994.152127999325, -31557.668037136562, 187500.0, 187500.0, 187500.0, 187500.0, 187500.0, 187500.0, -0.006, 1.006, 0.056, 192.0, 0.0, 0.0, 0.0, 0.0, 0.0, 0.0, 0.0, 0.0, 0.0, 1.682097177674898E9, 0.0, 2023-04-21 12:12:57.674
189.0, -49091.00223672417, -31663.70471283254, 187500.0, 187500.0, 187500.0, 187500.0, 187500.0, 187500.0, -0.006, 1.006, 0.056, 192.0, 0.0, 0.0, 0.0, 0.0, 0.0, 0.0, 0.0, 0.0, 0.0, 1.6820971776749074E9, 0.0, 2023-04-21 12:12:57.674
190.0, -49107.833100299016, -31582.322011270764, 187500.0, 187500.0, 187500.0, 187500.0, 187500.0, 187500.0, -0.006, 1.006, 0.056, 192.0, 0.0, 0.0, 0.0, 0.0, 0.0, 0.0, 0.0, 0.0, 0.0, 1.6820971776749167E9, 0.0, 2023-04-21 12:12:57.674
191.0, -48995.67204662228, -31415.846218567636, 187500.0, 187500.0, 187500.0, 187500.0, 187500.0, 187500.0, -0.006, 1.006, 0.056, 192.0, 0.0, 0.0, 0.0, 0.0, 0.0, 0.0, 0.0, 0.0, 0.0, 1.6820971776749368E9, 0.0, 2023-04-21 12:12:57.674
192.0, -49003.67397113729, -31521.122934952135, 187500.0, 187500.0, 187500.0, 187500.0, 187500.0, 187500.0, 0.052000000000000005, 0.992, 0.08600000000000001, 192.0, 1.0, 160.0, 31.0, 0.0, 2.0, 176.0, 0.0, 0.0, 0.0, 1.682097178144019E9, 0.0, 2023-04-21 12:12:58.144
193.0, -49092.231582669214, -31676.55696589434, 187500.0, 187500.0, 187500.0, 187500.0, 187500.0, 187500.0, 0.052000000000000005, 0.992, 0.08600000000000001, 192.0, 0.0, 0.0, 0.0, 0.0, 0.0, 0.0, 0.0, 0.0, 0.0, 1.6820971781440477E9, 0.0, 2023-04-21 12:12:58.144
194.0, -49111.454082900775, -31608.853531939214, 187500.0, 187500.0, 187500.0, 187500.0, 187500.0, 187500.0, 0.052000000000000005, 0.992, 0.08600000000000001, 192.0, 0.0, 0.0, 0.0, 0.0, 0.0, 0.0, 0.0, 0.0, 0.0, 1.6820971781440687E9, 0.0, 2023-04-21 12:12:58.144
195.0, -49012.815834619505, -31431.872419342093, 187500.0, 187500.0, 187500.0, 187500.0, 187500.0, 187500.0, 0.052000000000000005, 0.992, 0.08600000000000001, 192.0, 0.0, 0.0, 0.0, 0.0, 0.0, 0.0, 0.0, 0.0, 0.0, 1.6820971781440897E9, 0.0, 2023-04-21 12:12:58.144
196.0, -49003.13752927036, -31460.572059222708, 187500.0, 187500.0, 187500.0, 187500.0, 187500.0, 187500.0, 0.052000000000000005, 0.992, 0.08600000000000001, 192.0, 0.0, 0.0, 0.0, 0.0, 0.0, 0.0, 0.0, 0.0, 0.0, 1.682097178144111E9, 0.0, 2023-04-21 12:12:58.144
197.0, -49084.475527343224, -31652.662951071616, 187500.0, 187500.0, 187500.0, 187500.0, 187500.0, 187500.0, 0.052000000000000005, 0.992, 0.08600000000000001, 192.0, 0.0, 0.0, 0.0, 0.0, 0.0, 0.0, 0.0, 0.0, 0.0, 1.6820971781441295E9, 0.0, 2023-04-21 12:12:58.144
198.0, -49110.11297823346, -31622.666910012595, 187500.0, 187500.0, 187500.0, 187500.0, 187500.0, 187500.0, 0.052000000000000005, 0.992, 0.08600000000000001, 192.0, 0.0, 0.0, 0.0, 0.0, 0.0, 0.0, 0.0, 0.0, 0.0, 1.6820971781441483E9, 0.0, 2023-04-21 12:12:58.144
199.0, -49025.332811514476, -31452.19015505197, 187500.0, 187500.0, 187500.0, 187500.0, 187500.0, 187500.0, 0.052000000000000005, 0.992, 0.08600000000000001, 192.0, 0.0, 0.0, 0.0, 0.0, 0.0, 0.0, 0.0, 0.0, 0.0, 1.6820971781441648E9, 0.0, 2023-04-21 12:12:58.144
200.0, -48968.67113932027, -31425.904503572525, 187500.0, 187500.0, 187500.0, 187500.0, 187500.0, 187500.0, 0.052000000000000005, 0.992, 0.08600000000000001, 192.0, 0.0, 0.0, 0.0, 0.0, 0.0, 0.0, 0.0, 0.0, 0.0, 1.6820971781441772E9, 0.0, 2023-04-21 12:12:58.144
201.0, -49039.92850064379, -31640.950636977035, 187500.0, 187500.0, 187500.0, 187500.0, 187500.0, 187500.0, 0.052000000000000005, 0.992, 0.08600000000000001, 192.0, 0.0, 0.0, 0.0, 0.0, 0.0, 0.0, 0.0, 0.0, 0.0, 1.6820971781441894E9, 0.0, 2023-04-21 12:12:58.144
202.0, -49123.47932141773, -31648.304360902832, 187500.0, 187500.0, 187500.0, 187500.0, 187500.0, 187500.0, -0.016, 0.924, 0.058, 192.0, 255.0, 128.0, 28.0, 224.0, 1.0, 208.0, 0.0, 0.0, 0.0, 1.6820971781442015E9, 0.0, 2023-04-21 12:12:58.144
203.0, -49036.03929710857, -31486.61184151314, 187500.0, 187500.0, 187500.0, 187500.0, 187500.0, 187500.0, -0.016, 0.924, 0.058, 192.0, 0.0, 0.0, 0.0, 0.0, 0.0, 0.0, 0.0, 0.0, 0.0, 1.682097178144215E9, 0.0, 2023-04-21 12:12:58.144
204.0, -48942.02785992955, -31393.53917760124, 187500.0, 187500.0, 187500.0, 187500.0, 187500.0, 187500.0, -0.016, 0.924, 0.058, 192.0, 0.0, 0.0, 0.0, 0.0, 0.0, 0.0, 0.0, 0.0, 0.0, 1.6820971781442273E9, 0.0, 2023-04-21 12:12:58.144
205.0, -49016.34741024344, -31611.379279062665, 187500.0, 187500.0, 187500.0, 187500.0, 187500.0, 187500.0, -0.016, 0.924, 0.058, 192.0, 0.0, 0.0, 0.0, 0.0, 0.0, 0.0, 0.0, 0.0, 0.0, 1.6820971781442397E9, 0.0, 2023-04-21 12:12:58.144
206.0, -49093.416225125344, -31641.844706755248, 187500.0, 187500.0, 187500.0, 187500.0, 187500.0, 187500.0, -0.016, 0.924, 0.058, 192.0, 0.0, 0.0, 0.0, 0.0, 0.0, 0.0, 0.0, 0.0, 0.0, 1.6820971781443055E9, 0.0, 2023-04-21 12:12:58.144
207.0, -49061.34147183198, -31506.326080122722, 187500.0, 187500.0, 187500.0, 187500.0, 187500.0, 187500.0, -0.016, 0.924, 0.058, 192.0, 0.0, 0.0, 0.0, 0.0, 0.0, 0.0, 0.0, 0.0, 0.0, 1.6820971781443179E9, 0.0, 2023-04-21 12:12:58.144
208.0, -48952.26495889008, -31359.87745045155, 187500.0, 187500.0, 187500.0, 187500.0, 187500.0, 187500.0, -0.016, 0.924, 0.058, 192.0, 0.0, 0.0, 0.0, 0.0, 0.0, 0.0, 0.0, 0.0, 0.0, 1.6820971781443303E9, 0.0, 2023-04-21 12:12:58.144
209.0, -49000.991761802645, -31562.473662194454, 187500.0, 187500.0, 187500.0, 187500.0, 187500.0, 187500.0, -0.016, 0.924, 0.058, 192.0, 0.0, 0.0, 0.0, 0.0, 0.0, 0.0, 0.0, 0.0, 0.0, 1.6820971781443424E9, 0.0, 2023-04-21 12:12:58.144
210.0, -49105.35205666448, -31636.703805530527, 187500.0, 187500.0, 187500.0, 187500.0, 187500.0, 187500.0, -0.016, 0.924, 0.058, 192.0, 0.0, 0.0, 0.0, 0.0, 0.0, 0.0, 0.0, 0.0, 0.0, 1.6820971781443548E9, 0.0, 2023-04-21 12:12:58.144
211.0, -49088.14121343389, -31521.167638441046, 187500.0, 187500.0, 187500.0, 187500.0, 187500.0, 187500.0, -0.016, 0.924, 0.058, 192.0, 0.0, 0.0, 0.0, 0.0, 0.0, 0.0, 0.0, 0.0, 0.0, 1.6820971781443672E9, 0.0, 2023-04-21 12:12:58.144
212.0, -48953.471953090666, -31325.746336668297, 187500.0, 187500.0, 187500.0, 187500.0, 187500.0, 187500.0, -0.016, 0.924, 0.058, 192.0, 0.0, 0.0, 0.0, 0.0, 0.0, 0.0, 0.0, 0.0, 0.0, 1.6820971781443796E9, 0.0, 2023-04-21 12:12:58.144
213.0, -48988.02775001857, -31496.156036395558, 187500.0, 187500.0, 187500.0, 187500.0, 187500.0, 187500.0, -0.074, 0.882, 0.0, 192.0, 253.0, 176.0, 27.0, 144.0, 0.0, 0.0, 0.0, 0.0, 0.0, 1.6820971781443975E9, 0.0, 2023-04-21 12:12:58.144
214.0, -49069.81278298054, -31620.92347394508, 187500.0, 187500.0, 187500.0, 187500.0, 187500.0, 187500.0, -0.074, 0.882, 0.0, 192.0, 0.0, 0.0, 0.0, 0.0, 0.0, 0.0, 0.0, 0.0, 0.0, 1.6820971781444108E9, 0.0, 2023-04-21 12:12:58.144
215.0, -49082.799146509074, -31540.367786928153, 187500.0, 187500.0, 187500.0, 187500.0, 187500.0, 187500.0, -0.074, 0.882, 0.0, 192.0, 0.0, 0.0, 0.0, 0.0, 0.0, 0.0, 0.0, 0.0, 0.0, 1.6820971781444232E9, 0.0, 2023-04-21 12:12:58.144
216.0, -48967.68766256424, -31351.473194536353, 187500.0, 187500.0, 187500.0, 187500.0, 187500.0, 187500.0, -0.074, 0.882, 0.0, 192.0, 0.0, 0.0, 0.0, 0.0, 0.0, 0.0, 0.0, 0.0, 0.0, 1.6820971781444356E9, 0.0, 2023-04-21 12:12:58.144
217.0, -48964.49136310713, -31472.642001228574, 187500.0, 187500.0, 187500.0, 187500.0, 187500.0, 187500.0, -0.074, 0.882, 0.0, 192.0, 0.0, 0.0, 0.0, 0.0, 0.0, 0.0, 0.0, 0.0, 0.0, 1.6820971781444485E9, 0.0, 2023-04-21 12:12:58.144
218.0, -49043.571834990005, -31644.459860856517, 187500.0, 187500.0, 187500.0, 187500.0, 187500.0, 187500.0, -0.074, 0.882, 0.0, 192.0, 0.0, 0.0, 0.0, 0.0, 0.0, 0.0, 0.0, 0.0, 0.0, 1.6820971781444604E9, 0.0, 2023-04-21 12:12:58.144
219.0, -49078.21703889573, -31580.64563043662, 187500.0, 187500.0, 187500.0, 187500.0, 187500.0, 187500.0, -0.074, 0.882, 0.0, 192.0, 0.0, 0.0, 0.0, 0.0, 0.0, 0.0, 0.0, 0.0, 0.0, 1.6820971781444728E9, 0.0, 2023-04-21 12:12:58.144
220.0, -48983.49034589414, -31393.852102023615, 187500.0, 187500.0, 187500.0, 187500.0, 187500.0, 187500.0, -0.074, 0.882, 0.0, 192.0, 0.0, 0.0, 0.0, 0.0, 0.0, 0.0, 0.0, 0.0, 0.0, 1.682097178144485E9, 0.0, 2023-04-21 12:12:58.144
221.0, -48973.253246933615, -31431.60419840863, 187500.0, 187500.0, 187500.0, 187500.0, 187500.0, 187500.0, -0.074, 0.882, 0.0, 192.0, 0.0, 0.0, 0.0, 0.0, 0.0, 0.0, 0.0, 0.0, 0.0, 1.6820971781445928E9, 0.0, 2023-04-21 12:12:58.144
222.0, -49089.437614612296, -31668.80091056835, 187500.0, 187500.0, 187500.0, 187500.0, 187500.0, 187500.0, -0.074, 0.882, 0.0, 192.0, 0.0, 0.0, 0.0, 0.0, 0.0, 0.0, 0.0, 0.0, 0.0, 1.6820971781446054E9, 0.0, 2023-04-21 12:12:58.144
223.0, -49108.324838677036, -31638.134317175667, 187500.0, 187500.0, 187500.0, 187500.0, 187500.0, 187500.0, -0.028, 1.014, -0.02, 192.0, 255.0, 32.0, 31.0, 176.0, 255.0, 96.0, 0.0, 0.0, 0.0, 1.6820971781446176E9, 0.0, 2023-04-21 12:12:58.144
224.0, -49009.70894214022, -31430.93364607497, 187500.0, 187500.0, 187500.0, 187500.0, 187500.0, 187500.0, -0.028, 1.014, -0.02, 192.0, 0.0, 0.0, 0.0, 0.0, 0.0, 0.0, 0.0, 0.0, 0.0, 1.682097178144631E9, 0.0, 2023-04-21 12:12:58.144
225.0, -48951.52735132306, -31384.240851907834, 187500.0, 187500.0, 187500.0, 187500.0, 187500.0, 187500.0, -0.028, 1.014, -0.02, 192.0, 0.0, 0.0, 0.0, 0.0, 0.0, 0.0, 0.0, 0.0, 0.0, 1.6820971781446555E9, 0.0, 2023-04-21 12:12:58.144
226.0, -49060.87208519842, -31667.99624776796, 187500.0, 187500.0, 187500.0, 187500.0, 187500.0, 187500.0, -0.028, 1.014, -0.02, 192.0, 0.0, 0.0, 0.0, 0.0, 0.0, 0.0, 0.0, 0.0, 0.0, 1.6820971781446705E9, 0.0, 2023-04-21 12:12:58.144
227.0, -49122.45114117279, -31684.245965986964, 187500.0, 187500.0, 187500.0, 187500.0, 187500.0, 187500.0, -0.028, 1.014, -0.02, 192.0, 0.0, 0.0, 0.0, 0.0, 0.0, 0.0, 0.0, 0.0, 0.0, 1.6820971781446855E9, 0.0, 2023-04-21 12:12:58.144
228.0, -49037.51451224262, -31513.500990092874, 187500.0, 187500.0, 187500.0, 187500.0, 187500.0, 187500.0, -0.028, 1.014, -0.02, 192.0, 0.0, 0.0, 0.0, 0.0, 0.0, 0.0, 0.0, 0.0, 0.0, 1.6820971781447036E9, 0.0, 2023-04-21 12:12:58.144
229.0, -48934.20474937019, -31396.243738680332, 187500.0, 187500.0, 187500.0, 187500.0, 187500.0, 187500.0, -0.028, 1.014, -0.02, 192.0, 0.0, 0.0, 0.0, 0.0, 0.0, 0.0, 0.0, 0.0, 0.0, 1.682097178144716E9, 0.0, 2023-04-21 12:12:58.144
230.0, -49013.70990439772, -31634.89331422965, 187500.0, 187500.0, 187500.0, 187500.0, 187500.0, 187500.0, -0.028, 1.014, -0.02, 192.0, 0.0, 0.0, 0.0, 0.0, 0.0, 0.0, 0.0, 0.0, 0.0, 1.6820971781447282E9, 0.0, 2023-04-21 12:12:58.144
231.0, -49079.22286739622, -31675.729951349495, 187500.0, 187500.0, 187500.0, 187500.0, 187500.0, 187500.0, -0.028, 1.014, -0.02, 192.0, 0.0, 0.0, 0.0, 0.0, 0.0, 0.0, 0.0, 0.0, 0.0, 1.6820971781447403E9, 0.0, 2023-04-21 12:12:58.144
232.0, -49041.94015764477, -31534.15400196958, 187500.0, 187500.0, 187500.0, 187500.0, 187500.0, 187500.0, -0.028, 1.014, -0.02, 192.0, 0.0, 0.0, 0.0, 0.0, 0.0, 0.0, 0.0, 0.0, 0.0, 1.6820971781447532E9, 0.0, 2023-04-21 12:12:58.144
233.0, -48947.45933383219, -31371.030970934746, 187500.0, 187500.0, 187500.0, 187500.0, 187500.0, 187500.0, 0.042, 1.026, -0.004, 192.0, 1.0, 80.0, 32.0, 16.0, 255.0, 224.0, 0.0, 0.0, 0.0, 1.6820971781447656E9, 0.0, 2023-04-21 12:12:58.144
234.0, -49014.55927068702, -31596.984755633446, 187500.0, 187500.0, 187500.0, 187500.0, 187500.0, 187500.0, 0.042, 1.026, -0.004, 192.0, 0.0, 0.0, 0.0, 0.0, 0.0, 0.0, 0.0, 0.0, 0.0, 1.6820971781447806E9, 0.0, 2023-04-21 12:12:58.144
235.0, -49102.356922907464, -31676.40050368315, 187500.0, 187500.0, 187500.0, 187500.0, 187500.0, 187500.0, 0.042, 1.026, -0.004, 192.0, 0.0, 0.0, 0.0, 0.0, 0.0, 0.0, 0.0, 0.0, 0.0, 1.682097178144793E9, 0.0, 2023-04-21 12:12:58.144
236.0, -49087.135384933405, -31551.968342300457, 187500.0, 187500.0, 187500.0, 187500.0, 187500.0, 187500.0, 0.042, 1.026, -0.004, 192.0, 0.0, 0.0, 0.0, 0.0, 0.0, 0.0, 0.0, 0.0, 0.0, 1.682097178144823E9, 0.0, 2023-04-21 12:12:58.144
237.0, -48958.18817117073, -31365.86771796557, 187500.0, 187500.0, 187500.0, 187500.0, 187500.0, 187500.0, 0.042, 1.026, -0.004, 192.0, 0.0, 0.0, 0.0, 0.0, 0.0, 0.0, 0.0, 0.0, 0.0, 1.682097178144836E9, 0.0, 2023-04-21 12:12:58.144
238.0, -49000.20945074671, -31549.487298665917, 187500.0, 187500.0, 187500.0, 187500.0, 187500.0, 187500.0, 0.042, 1.026, -0.004, 192.0, 0.0, 0.0, 0.0, 0.0, 0.0, 0.0, 0.0, 0.0, 0.0, 1.6820971781448488E9, 0.0, 2023-04-21 12:12:58.144
239.0, -49094.19853618128, -31687.93400382209, 187500.0, 187500.0, 187500.0, 187500.0, 187500.0, 187500.0, 0.042, 1.026, -0.004, 192.0, 0.0, 0.0, 0.0, 0.0, 0.0, 0.0, 0.0, 0.0, 0.0, 1.6820971781448612E9, 0.0, 2023-04-21 12:12:58.144
240.0, -49101.66401882935, -31592.1567788311, 187500.0, 187500.0, 187500.0, 187500.0, 187500.0, 187500.0, 0.042, 1.026, -0.004, 192.0, 0.0, 0.0, 0.0, 0.0, 0.0, 0.0, 0.0, 0.0, 0.0, 1.6820971781448736E9, 0.0, 2023-04-21 12:12:58.144
241.0, -48990.93347679776, -31396.958994502904, 187500.0, 187500.0, 187500.0, 187500.0, 187500.0, 187500.0, 0.042, 1.026, -0.004, 192.0, 0.0, 0.0, 0.0, 0.0, 0.0, 0.0, 0.0, 0.0, 0.0, 1.6820971781448858E9, 0.0, 2023-04-21 12:12:58.144
242.0, -48993.034540776556, -31506.706059778462, 187500.0, 187500.0, 187500.0, 187500.0, 187500.0, 187500.0, 0.042, 1.026, -0.004, 192.0, 0.0, 0.0, 0.0, 0.0, 0.0, 0.0, 0.0, 0.0, 0.0, 1.6820971781448982E9, 0.0, 2023-04-21 12:12:58.144
243.0, -49085.63781805489, -31684.447131687062, 187500.0, 187500.0, 187500.0, 187500.0, 187500.0, 187500.0, 0.032, 1.018, -0.01, 192.0, 1.0, 0.0, 31.0, 208.0, 255.0, 176.0, 0.0, 0.0, 0.0, 1.6820971781449106E9, 0.0, 2023-04-21 12:12:58.144
244.0, -49100.837004284505, -31616.855456454214, 187500.0, 187500.0, 187500.0, 187500.0, 187500.0, 187500.0, 0.032, 1.018, -0.01, 192.0, 0.0, 0.0, 0.0, 0.0, 0.0, 0.0, 0.0, 0.0, 0.0, 1.682097178144924E9, 0.0, 2023-04-21 12:12:58.144
245.0, -49005.23859324916, -31425.613930894608, 187500.0, 187500.0, 187500.0, 187500.0, 187500.0, 187500.0, 0.032, 1.018, -0.01, 192.0, 0.0, 0.0, 0.0, 0.0, 0.0, 0.0, 0.0, 0.0, 0.0, 1.6820971781449363E9, 0.0, 2023-04-21 12:12:58.144
246.0, -48976.91893302428, -31467.54580349276, 187500.0, 187500.0, 187500.0, 187500.0, 187500.0, 187500.0, 0.032, 1.018, -0.01, 192.0, 0.0, 0.0, 0.0, 0.0, 0.0, 0.0, 0.0, 0.0, 0.0, 1.6820971781449487E9, 0.0, 2023-04-21 12:12:58.144
247.0, -49076.71947201723, -31683.46365493103, 187500.0, 187500.0, 187500.0, 187500.0, 187500.0, 187500.0, 0.032, 1.018, -0.01, 192.0, 0.0, 0.0, 0.0, 0.0, 0.0, 0.0, 0.0, 0.0, 0.0, 1.682097178144961E9, 0.0, 2023-04-21 12:12:58.144
248.0, -49094.37735013692, -31634.69214852955, 187500.0, 187500.0, 187500.0, 187500.0, 187500.0, 187500.0, 0.032, 1.018, -0.01, 192.0, 0.0, 0.0, 0.0, 0.0, 0.0, 0.0, 0.0, 0.0, 0.0, 1.6820971781449735E9, 0.0, 2023-04-21 12:12:58.144
249.0, -48985.345540683935, -31442.243628769356, 187500.0, 187500.0, 187500.0, 187500.0, 187500.0, 187500.0, 0.032, 1.018, -0.01, 192.0, 0.0, 0.0, 0.0, 0.0, 0.0, 0.0, 0.0, 0.0, 0.0, 1.682097178144986E9, 0.0, 2023-04-21 12:12:58.144
250.0, -48921.57601375294, -31404.670346339986, 187500.0, 187500.0, 187500.0, 187500.0, 187500.0, 187500.0, 0.032, 1.018, -0.01, 192.0, 0.0, 0.0, 0.0, 0.0, 0.0, 0.0, 0.0, 0.0, 0.0, 1.6820971781449983E9, 0.0, 2023-04-21 12:12:58.144
251.0, -49043.28126231209, -31654.45109062804, 187500.0, 187500.0, 187500.0, 187500.0, 187500.0, 187500.0, 0.032, 1.018, -0.01, 192.0, 0.0, 0.0, 0.0, 0.0, 0.0, 0.0, 0.0, 0.0, 0.0, 1.6820971781450286E9, 0.0, 2023-04-21 12:12:58.145
252.0, -49103.228640941226, -31660.083730230777, 187500.0, 187500.0, 187500.0, 187500.0, 187500.0, 187500.0, 0.032, 1.018, -0.01, 192.0, 0.0, 0.0, 0.0, 0.0, 0.0, 0.0, 0.0, 0.0, 0.0, 1.6820971781450412E9, 0.0, 2023-04-21 12:12:58.145
253.0, -49027.1209510709, -31489.718733992428, 187500.0, 187500.0, 187500.0, 187500.0, 187500.0, 187500.0, 0.032, 1.018, -0.01, 192.0, 0.0, 0.0, 0.0, 0.0, 0.0, 0.0, 0.0, 0.0, 0.0, 1.6820971781450536E9, 0.0, 2023-04-21 12:12:58.145
254.0, -48900.274801287036, -31361.97851443035, 187500.0, 187500.0, 187500.0, 187500.0, 187500.0, 187500.0, 0.014, 0.998, -0.01, 192.0, 0.0, 112.0, 31.0, 48.0, 255.0, 176.0, 0.0, 0.0, 0.0, 1.682097178145066E9, 0.0, 2023-04-21 12:12:58.145
255.0, -49028.23853829367, -31623.471572812985, 187500.0, 187500.0, 187500.0, 187500.0, 187500.0, 187500.0, 0.014, 0.998, -0.01, 192.0, 0.0, 0.0, 0.0, 0.0, 0.0, 0.0, 0.0, 0.0, 0.0, 1.6820971781450803E9, 0.0, 2023-04-21 12:12:58.145
0.0, -49111.63289685642, -31672.488948403472, 187500.0, 187500.0, 187500.0, 187500.0, 187500.0, 187500.0, 0.014, 0.998, -0.01, 192.0, 0.0, 0.0, 0.0, 0.0, 0.0, 0.0, 0.0, 0.0, 0.0, 1.6820971781450944E9, 0.0, 2023-04-21 12:12:58.145
1.0, -49056.40173630736, -31526.912036766058, 187500.0, 187500.0, 187500.0, 187500.0, 187500.0, 187500.0, 0.014, 0.998, -0.01, 192.0, 0.0, 0.0, 0.0, 0.0, 0.0, 0.0, 0.0, 0.0, 0.0, 1.6820971781451068E9, 0.0, 2023-04-21 12:12:58.145
2.0, -48930.69552549071, -31358.804566717696, 187500.0, 187500.0, 187500.0, 187500.0, 187500.0, 187500.0, 0.014, 0.998, -0.01, 192.0, 0.0, 0.0, 0.0, 0.0, 0.0, 0.0, 0.0, 0.0, 0.0, 1.6820971781451197E9, 0.0, 2023-04-21 12:12:58.145
3.0, -48988.921819796786, -31580.265650780875, 187500.0, 187500.0, 187500.0, 187500.0, 187500.0, 187500.0, 0.014, 0.998, -0.01, 192.0, 0.0, 0.0, 0.0, 0.0, 0.0, 0.0, 0.0, 0.0, 0.0, 1.682097178145132E9, 0.0, 2023-04-21 12:12:58.145
4.0, -49085.14607967688, -31667.884489045682, 187500.0, 187500.0, 187500.0, 187500.0, 187500.0, 187500.0, 0.014, 0.998, -0.01, 192.0, 0.0, 0.0, 0.0, 0.0, 0.0, 0.0, 0.0, 0.0, 0.0, 1.6820971781451445E9, 0.0, 2023-04-21 12:12:58.145
5.0, -49076.87593422842, -31537.015025259858, 187500.0, 187500.0, 187500.0, 187500.0, 187500.0, 187500.0, 0.014, 0.998, -0.01, 192.0, 0.0, 0.0, 0.0, 0.0, 0.0, 0.0, 0.0, 0.0, 0.0, 1.682097178145157E9, 0.0, 2023-04-21 12:12:58.145
6.0, -48939.122133150355, -31338.844458919106, 187500.0, 187500.0, 187500.0, 187500.0, 187500.0, 187500.0, 0.014, 0.998, -0.01, 192.0, 0.0, 0.0, 0.0, 0.0, 0.0, 0.0, 0.0, 0.0, 0.0, 1.6820971781451695E9, 0.0, 2023-04-21 12:12:58.145
7.0, -48981.88102029336, -31524.453344875976, 187500.0, 187500.0, 187500.0, 187500.0, 187500.0, 187500.0, 0.014, 0.998, -0.01, 192.0, 0.0, 0.0, 0.0, 0.0, 0.0, 0.0, 0.0, 0.0, 0.0, 1.6820971781451817E9, 0.0, 2023-04-21 12:12:58.145
8.0, -49072.67380627082, -31668.46563440152, 187500.0, 187500.0, 187500.0, 187500.0, 187500.0, 187500.0, -0.002, 0.99, -0.01, 192.0, 255.0, 240.0, 30.0, 240.0, 255.0, 176.0, 0.0, 0.0, 0.0, 1.682097178145194E9, 0.0, 2023-04-21 12:12:58.145
9.0, -49062.05672765455, -31567.525156441352, 187500.0, 187500.0, 187500.0, 187500.0, 187500.0, 187500.0, -0.002, 0.99, -0.01, 192.0, 0.0, 0.0, 0.0, 0.0, 0.0, 0.0, 0.0, 0.0, 0.0, 1.6820971781452072E9, 0.0, 2023-04-21 12:12:58.145
10.0, -48942.54195005202, -31375.523671570263, 187500.0, 187500.0, 187500.0, 187500.0, 187500.0, 187500.0, -0.002, 0.99, -0.01, 192.0, 0.0, 0.0, 0.0, 0.0, 0.0, 0.0, 0.0, 0.0, 0.0, 1.682097178145234E9, 0.0, 2023-04-21 12:12:58.145
11.0, -48966.65948231929, -31492.110370649145, 187500.0, 187500.0, 187500.0, 187500.0, 187500.0, 187500.0, -0.002, 0.99, -0.01, 192.0, 0.0, 0.0, 0.0, 0.0, 0.0, 0.0, 0.0, 0.0, 0.0, 1.6820971781452467E9, 0.0, 2023-04-21 12:12:58.145
12.0, -49050.72439321571, -31693.253719002452, 187500.0, 187500.0, 187500.0, 187500.0, 187500.0, 187500.0, -0.002, 0.99, -0.01, 192.0, 0.0, 0.0, 0.0, 0.0, 0.0, 0.0, 0.0, 0.0, 0.0, 1.6820971781452591E9, 0.0, 2023-04-21 12:12:58.145
13.0, -49044.66707046832, -31625.25971236941, 187500.0, 187500.0, 187500.0, 187500.0, 187500.0, 187500.0, -0.002, 0.99, -0.01, 192.0, 0.0, 0.0, 0.0, 0.0, 0.0, 0.0, 0.0, 0.0, 0.0, 1.6820971781452715E9, 0.0, 2023-04-21 12:12:58.145
14.0, -48939.99385118412, -31413.07460225518, 187500.0, 187500.0, 187500.0, 187500.0, 187500.0, 187500.0, -0.002, 0.99, -0.01, 192.0, 0.0, 0.0, 0.0, 0.0, 0.0, 0.0, 0.0, 0.0, 0.0, 1.682097178145284E9, 0.0, 2023-04-21 12:12:58.145
15.0, -48904.25341180008, -31450.89375387356, 187500.0, 187500.0, 187500.0, 187500.0, 187500.0, 187500.0, -0.002, 0.99, -0.01, 192.0, 0.0, 0.0, 0.0, 0.0, 0.0, 0.0, 0.0, 0.0, 0.0, 1.6820971781452963E9, 0.0, 2023-04-21 12:12:58.145
16.0, -49015.051009065035, -31677.160462994634, 187500.0, 187500.0, 187500.0, 187500.0, 187500.0, 187500.0, -0.002, 0.99, -0.01, 192.0, 0.0, 0.0, 0.0, 0.0, 0.0, 0.0, 0.0, 0.0, 0.0, 1.6820971781453087E9, 0.0, 2023-04-21 12:12:58.145
17.0, -49049.249178081656, -31630.15474440512, 187500.0, 187500.0, 187500.0, 187500.0, 187500.0, 187500.0, -0.002, 0.99, -0.01, 192.0, 0.0, 0.0, 0.0, 0.0, 0.0, 0.0, 0.0, 0.0, 0.0, 1.6820971781453211E9, 0.0, 2023-04-21 12:12:58.145
18.0, -48940.820865728965, -31445.194059037458, 187500.0, 187500.0, 187500.0, 187500.0, 187500.0, 187500.0, -0.03, 0.996, -0.024, 192.0, 255.0, 16.0, 31.0, 32.0, 255.0, 64.0, 0.0, 0.0, 0.0, 1.6820971781453333E9, 0.0, 2023-04-21 12:12:58.145
19.0, -48880.78408012201, -31397.182511947456, 187500.0, 187500.0, 187500.0, 187500.0, 187500.0, 187500.0, -0.03, 0.996, -0.024, 192.0, 0.0, 0.0, 0.0, 0.0, 0.0, 0.0, 0.0, 0.0, 0.0, 1.6820971781453464E9, 0.0, 2023-04-21 12:12:58.145
20.0, -49006.4679391942, -31647.946732991546, 187500.0, 187500.0, 187500.0, 187500.0, 187500.0, 187500.0, -0.03, 0.996, -0.024, 192.0, 0.0, 0.0, 0.0, 0.0, 0.0, 0.0, 0.0, 0.0, 0.0, 1.6820971781453588E9, 0.0, 2023-04-21 12:12:58.145
21.0, -49066.99646317917, -31650.159555692622, 187500.0, 187500.0, 187500.0, 187500.0, 187500.0, 187500.0, -0.03, 0.996, -0.024, 192.0, 0.0, 0.0, 0.0, 0.0, 0.0, 0.0, 0.0, 0.0, 0.0, 1.6820971781453724E9, 0.0, 2023-04-21 12:12:58.145
22.0, -48995.627343133376, -31486.47773104641, 187500.0, 187500.0, 187500.0, 187500.0, 187500.0, 187500.0, -0.03, 0.996, -0.024, 192.0, 0.0, 0.0, 0.0, 0.0, 0.0, 0.0, 0.0, 0.0, 0.0, 1.6820971781453857E9, 0.0, 2023-04-21 12:12:58.145
23.0, -48885.947333091186, -31370.047494178714, 187500.0, 187500.0, 187500.0, 187500.0, 187500.0, 187500.0, -0.03, 0.996, -0.024, 192.0, 0.0, 0.0, 0.0, 0.0, 0.0, 0.0, 0.0, 0.0, 0.0, 1.6820971781453984E9, 0.0, 2023-04-21 12:12:58.145
24.0, -48999.91887806879, -31616.363718076198, 187500.0, 187500.0, 187500.0, 187500.0, 187500.0, 187500.0, -0.03, 0.996, -0.024, 192.0, 0.0, 0.0, 0.0, 0.0, 0.0, 0.0, 0.0, 0.0, 0.0, 1.6820971781454108E9, 0.0, 2023-04-21 12:12:58.145
25.0, -49082.463870342246, -31656.84272728476, 187500.0, 187500.0, 187500.0, 187500.0, 187500.0, 187500.0, -0.03, 0.996, -0.024, 192.0, 0.0, 0.0, 0.0, 0.0, 0.0, 0.0, 0.0, 0.0, 0.0, 1.6820971781454232E9, 0.0, 2023-04-21 12:12:58.145
26.0, -49037.17923607579, -31508.628309801617, 187500.0, 187500.0, 187500.0, 187500.0, 187500.0, 187500.0, -0.03, 0.996, -0.024, 192.0, 0.0, 0.0, 0.0, 0.0, 0.0, 0.0, 0.0, 0.0, 0.0, 1.6820971781454496E9, 0.0, 2023-04-21 12:12:58.145
27.0, -48916.81509218396, -31356.21176436088, 187500.0, 187500.0, 187500.0, 187500.0, 187500.0, 187500.0, -0.03, 0.996, -0.024, 192.0, 0.0, 0.0, 0.0, 0.0, 0.0, 0.0, 0.0, 0.0, 0.0, 1.682097178145462E9, 0.0, 2023-04-21 12:12:58.145
28.0, -48996.83433733396, -31593.654345709605, 187500.0, 187500.0, 187500.0, 187500.0, 187500.0, 187500.0, -0.008, 0.996, -0.038, 192.0, 255.0, 192.0, 31.0, 32.0, 254.0, 208.0, 0.0, 0.0, 0.0, 1.6820971781454744E9, 0.0, 2023-04-21 12:12:58.145
29.0, -49103.25099268568, -31681.429646185596, 187500.0, 187500.0, 187500.0, 187500.0, 187500.0, 187500.0, -0.008, 0.996, -0.038, 192.0, 0.0, 0.0, 0.0, 0.0, 0.0, 0.0, 0.0, 0.0, 0.0, 1.6820971781454875E9, 0.0, 2023-04-21 12:12:58.145
30.0, -49074.819573738525, -31541.977112528937, 187500.0, 187500.0, 187500.0, 187500.0, 187500.0, 187500.0, -0.008, 0.996, -0.038, 192.0, 0.0, 0.0, 0.0, 0.0, 0.0, 0.0, 0.0, 0.0, 0.0, 1.6820971781455E9, 0.0, 2023-04-21 12:12:58.145
31.0, -48932.08133364694, -31342.085461865125, 187500.0, 187500.0, 187500.0, 187500.0, 187500.0, 187500.0, -0.008, 0.996, -0.038, 192.0, 0.0, 0.0, 0.0, 0.0, 0.0, 0.0, 0.0, 0.0, 0.0, 1.6820971781455123E9, 0.0, 2023-04-21 12:12:58.145
32.0, -48969.63226433185, -31522.978129741925, 187500.0, 187500.0, 187500.0, 187500.0, 187500.0, 187500.0, -0.008, 0.996, -0.038, 192.0, 0.0, 0.0, 0.0, 0.0, 0.0, 0.0, 0.0, 0.0, 0.0, 1.6820971781455247E9, 0.0, 2023-04-21 12:12:58.145
33.0, -49075.870105727925, -31674.232384470986, 187500.0, 187500.0, 187500.0, 187500.0, 187500.0, 187500.0, -0.008, 0.996, -0.038, 192.0, 0.0, 0.0, 0.0, 0.0, 0.0, 0.0, 0.0, 0.0, 0.0, 1.6820971781455374E9, 0.0, 2023-04-21 12:12:58.145
34.0, -49057.89930318586, -31567.122825041155, 187500.0, 187500.0, 187500.0, 187500.0, 187500.0, 187500.0, -0.008, 0.996, -0.038, 192.0, 0.0, 0.0, 0.0, 0.0, 0.0, 0.0, 0.0, 0.0, 0.0, 1.6820971781455498E9, 0.0, 2023-04-21 12:12:58.145
35.0, -48940.64205177332, -31377.088293682136, 187500.0, 187500.0, 187500.0, 187500.0, 187500.0, 187500.0, -0.008, 0.996, -0.038, 192.0, 0.0, 0.0, 0.0, 0.0, 0.0, 0.0, 0.0, 0.0, 0.0, 1.6820971781455622E9, 0.0, 2023-04-21 12:12:58.145
36.0, -48942.899577963304, -31491.819797971228, 187500.0, 187500.0, 187500.0, 187500.0, 187500.0, 187500.0, -0.008, 0.996, -0.038, 192.0, 0.0, 0.0, 0.0, 0.0, 0.0, 0.0, 0.0, 0.0, 0.0, 1.6820971781455746E9, 0.0, 2023-04-21 12:12:58.145
37.0, -49050.88085542689, -31684.938870065078, 187500.0, 187500.0, 187500.0, 187500.0, 187500.0, 187500.0, -0.008, 0.996, -0.038, 192.0, 0.0, 0.0, 0.0, 0.0, 0.0, 0.0, 0.0, 0.0, 0.0, 1.6820971781455872E9, 0.0, 2023-04-21 12:12:58.145
38.0, -49065.744765489675, -31626.980796692467, 187500.0, 187500.0, 187500.0, 187500.0, 187500.0, 187500.0, -0.008, 0.996, -0.038, 192.0, 0.0, 0.0, 0.0, 0.0, 0.0, 0.0, 0.0, 0.0, 0.0, 1.6820971781455996E9, 0.0, 2023-04-21 12:12:58.145
39.0, -48960.31158689399, -31420.1154017586, 187500.0, 187500.0, 187500.0, 187500.0, 187500.0, 187500.0, -0.01, 1.002, -0.044, 192.0, 255.0, 176.0, 31.0, 80.0, 254.0, 160.0, 0.0, 0.0, 0.0, 1.6820971781456127E9, 0.0, 2023-04-21 12:12:58.145
40.0, -48930.114380134866, -31449.820870139705, 187500.0, 187500.0, 187500.0, 187500.0, 187500.0, 187500.0, -0.01, 1.002, -0.044, 192.0, 0.0, 0.0, 0.0, 0.0, 0.0, 0.0, 0.0, 0.0, 0.0, 1.682097178145626E9, 0.0, 2023-04-21 12:12:58.145
41.0, -49046.432858280285, -31684.737704364983, 187500.0, 187500.0, 187500.0, 187500.0, 187500.0, 187500.0, -0.01, 1.002, -0.044, 192.0, 0.0, 0.0, 0.0, 0.0, 0.0, 0.0, 0.0, 0.0, 0.0, 1.6820971781456556E9, 0.0, 2023-04-21 12:12:58.145
42.0, -49085.12372793243, -31650.181907437076, 187500.0, 187500.0, 187500.0, 187500.0, 187500.0, 187500.0, -0.01, 1.002, -0.044, 192.0, 0.0, 0.0, 0.0, 0.0, 0.0, 0.0, 0.0, 0.0, 0.0, 1.68209717814567E9, 0.0, 2023-04-21 12:12:58.145
43.0, -48992.69926460973, -31463.61189646863, 187500.0, 187500.0, 187500.0, 187500.0, 187500.0, 187500.0, -0.01, 1.002, -0.044, 192.0, 0.0, 0.0, 0.0, 0.0, 0.0, 0.0, 0.0, 0.0, 0.0, 1.6820971781456833E9, 0.0, 2023-04-21 12:12:58.145
44.0, -48917.955031151185, -31416.963805790405, 187500.0, 187500.0, 187500.0, 187500.0, 187500.0, 187500.0, -0.01, 1.002, -0.044, 192.0, 0.0, 0.0, 0.0, 0.0, 0.0, 0.0, 0.0, 0.0, 0.0, 1.6820971781456957E9, 0.0, 2023-04-21 12:12:58.145
45.0, -49023.298802769044, -31678.83684382878, 187500.0, 187500.0, 187500.0, 187500.0, 187500.0, 187500.0, -0.01, 1.002, -0.044, 192.0, 0.0, 0.0, 0.0, 0.0, 0.0, 0.0, 0.0, 0.0, 0.0, 1.682097178145708E9, 0.0, 2023-04-21 12:12:58.145
46.0, -49124.35103945149, -31707.02239358692, 187500.0, 187500.0, 187500.0, 187500.0, 187500.0, 187500.0, -0.01, 1.002, -0.044, 192.0, 0.0, 0.0, 0.0, 0.0, 0.0, 0.0, 0.0, 0.0, 0.0, 1.6820971781457205E9, 0.0, 2023-04-21 12:12:58.145
47.0, -49051.86433218293, -31529.1919147005, 187500.0, 187500.0, 187500.0, 187500.0, 187500.0, 187500.0, -0.01, 1.002, -0.044, 192.0, 0.0, 0.0, 0.0, 0.0, 0.0, 0.0, 0.0, 0.0, 0.0, 1.682097178145733E9, 0.0, 2023-04-21 12:12:58.145
48.0, -48953.44960134621, -31403.373945161577, 187500.0, 187500.0, 187500.0, 187500.0, 187500.0, 187500.0, -0.01, 1.002, -0.044, 192.0, 0.0, 0.0, 0.0, 0.0, 0.0, 0.0, 0.0, 0.0, 0.0, 1.6820971781457455E9, 0.0, 2023-04-21 12:12:58.145
49.0, -49036.64279420886, -31652.35002664924, 187500.0, 187500.0, 187500.0, 187500.0, 187500.0, 187500.0, 0.02, 0.976, -0.046, 192.0, 0.0, 160.0, 30.0, 128.0, 254.0, 144.0, 0.0, 0.0, 0.0, 1.682097178145758E9, 0.0, 2023-04-21 12:12:58.145
50.0, -49109.844757299994, -31700.741553394982, 187500.0, 187500.0, 187500.0, 187500.0, 187500.0, 187500.0, 0.02, 0.976, -0.046, 192.0, 0.0, 0.0, 0.0, 0.0, 0.0, 0.0, 0.0, 0.0, 0.0, 1.6820971781457713E9, 0.0, 2023-04-21 12:12:58.145
51.0, -49046.2763960691, -31535.159830470067, 187500.0, 187500.0, 187500.0, 187500.0, 187500.0, 187500.0, 0.02, 0.976, -0.046, 192.0, 0.0, 0.0, 0.0, 0.0, 0.0, 0.0, 0.0, 0.0, 0.0, 1.6820971781457837E9, 0.0, 2023-04-21 12:12:58.145
52.0, -48911.2942113035, -31355.004770160293, 187500.0, 187500.0, 187500.0, 187500.0, 187500.0, 187500.0, 0.02, 0.976, -0.046, 192.0, 0.0, 0.0, 0.0, 0.0, 0.0, 0.0, 0.0, 0.0, 0.0, 1.6820971781457963E9, 0.0, 2023-04-21 12:12:58.145
53.0, -48986.105499995414, -31578.76808390237, 187500.0, 187500.0, 187500.0, 187500.0, 187500.0, 187500.0, 0.02, 0.976, -0.046, 192.0, 0.0, 0.0, 0.0, 0.0, 0.0, 0.0, 0.0, 0.0, 0.0, 1.6820971781458087E9, 0.0, 2023-04-21 12:12:58.145
54.0, -49083.00031220917, -31669.516166390917, 187500.0, 187500.0, 187500.0, 187500.0, 187500.0, 187500.0, 0.02, 0.976, -0.046, 192.0, 0.0, 0.0, 0.0, 0.0, 0.0, 0.0, 0.0, 0.0, 0.0, 1.6820971781458209E9, 0.0, 2023-04-21 12:12:58.145
55.0, -49054.43478279529, -31532.38821415761, 187500.0, 187500.0, 187500.0, 187500.0, 187500.0, 187500.0, 0.02, 0.976, -0.046, 192.0, 0.0, 0.0, 0.0, 0.0, 0.0, 0.0, 0.0, 0.0, 0.0, 1.6820971781458309E9, 0.0, 2023-04-21 12:12:58.145
56.0, -48906.0415513565, -31352.92605792595, 187500.0, 187500.0, 187500.0, 187500.0, 187500.0, 187500.0, 0.02, 0.976, -0.046, 192.0, 0.0, 0.0, 0.0, 0.0, 0.0, 0.0, 0.0, 0.0, 0.0, 1.6820971782414148E9, 0.0, 2023-04-21 12:12:58.241
57.0, -48957.11528743688, -31535.226885703432, 187500.0, 187500.0, 187500.0, 187500.0, 187500.0, 187500.0, 0.02, 0.976, -0.046, 192.0, 0.0, 0.0, 0.0, 0.0, 0.0, 0.0, 0.0, 0.0, 0.0, 1.6820971782414489E9, 0.0, 2023-04-21 12:12:58.241
58.0, -49055.19474210677, -31695.26537600343, 187500.0, 187500.0, 187500.0, 187500.0, 187500.0, 187500.0, 0.02, 0.976, -0.046, 192.0, 0.0, 0.0, 0.0, 0.0, 0.0, 0.0, 0.0, 0.0, 0.0, 1.6820971782414615E9, 0.0, 2023-04-21 12:12:58.241
59.0, -49076.20538189475, -31607.087744127246, 187500.0, 187500.0, 187500.0, 187500.0, 187500.0, 187500.0, -0.002, 0.99, -0.042, 192.0, 255.0, 240.0, 30.0, 240.0, 254.0, 176.0, 0.0, 0.0, 0.0, 1.682097178241474E9, 0.0, 2023-04-21 12:12:58.241
60.0, -48941.4020110848, -31385.000811219314, 187500.0, 187500.0, 187500.0, 187500.0, 187500.0, 187500.0, -0.002, 0.99, -0.042, 192.0, 0.0, 0.0, 0.0, 0.0, 0.0, 0.0, 0.0, 0.0, 0.0, 1.6820971782414873E9, 0.0, 2023-04-21 12:12:58.241
61.0, -48934.092990647914, -31489.204643869954, 187500.0, 187500.0, 187500.0, 187500.0, 187500.0, 187500.0, -0.002, 0.99, -0.042, 192.0, 0.0, 0.0, 0.0, 0.0, 0.0, 0.0, 0.0, 0.0, 0.0, 1.6820971782414987E9, 0.0, 2023-04-21 12:12:58.241
62.0, -49050.366765304425, -31690.66091664564, 187500.0, 187500.0, 187500.0, 187500.0, 187500.0, 187500.0, -0.002, 0.99, -0.042, 192.0, 0.0, 0.0, 0.0, 0.0, 0.0, 0.0, 0.0, 0.0, 0.0, 1.6820971782415104E9, 0.0, 2023-04-21 12:12:58.241
63.0, -49065.744765489675, -31628.1654391486, 187500.0, 187500.0, 187500.0, 187500.0, 187500.0, 187500.0, -0.002, 0.99, -0.042, 192.0, 0.0, 0.0, 0.0, 0.0, 0.0, 0.0, 0.0, 0.0, 0.0, 1.6820971782415226E9, 0.0, 2023-04-21 12:12:58.241
64.0, -48953.047269946015, -31431.291273986255, 187500.0, 187500.0, 187500.0, 187500.0, 187500.0, 187500.0, -0.002, 0.99, -0.042, 192.0, 0.0, 0.0, 0.0, 0.0, 0.0, 0.0, 0.0, 0.0, 0.0, 1.68209717824155E9, 0.0, 2023-04-21 12:12:58.241
65.0, -48905.52746123403, -31447.093957316156, 187500.0, 187500.0, 187500.0, 187500.0, 187500.0, 187500.0, -0.002, 0.99, -0.042, 192.0, 0.0, 0.0, 0.0, 0.0, 0.0, 0.0, 0.0, 0.0, 0.0, 1.682097178241562E9, 0.0, 2023-04-21 12:12:58.241
66.0, -49008.904279339826, -31664.531727377384, 187500.0, 187500.0, 187500.0, 187500.0, 187500.0, 187500.0, -0.002, 0.99, -0.042, 192.0, 0.0, 0.0, 0.0, 0.0, 0.0, 0.0, 0.0, 0.0, 0.0, 1.6820971782415736E9, 0.0, 2023-04-21 12:12:58.241
67.0, -49070.79625973657, -31648.88550625867, 187500.0, 187500.0, 187500.0, 187500.0, 187500.0, 187500.0, -0.002, 0.99, -0.042, 192.0, 0.0, 0.0, 0.0, 0.0, 0.0, 0.0, 0.0, 0.0, 0.0, 1.6820971782415853E9, 0.0, 2023-04-21 12:12:58.241
68.0, -48978.39414815833, -31475.681838474495, 187500.0, 187500.0, 187500.0, 187500.0, 187500.0, 187500.0, -0.002, 0.99, -0.042, 192.0, 0.0, 0.0, 0.0, 0.0, 0.0, 0.0, 0.0, 0.0, 0.0, 1.6820971782415967E9, 0.0, 2023-04-21 12:12:58.241
69.0, -48894.955086106675, -31427.2679599843, 187500.0, 187500.0, 187500.0, 187500.0, 187500.0, 187500.0, 0.01, 1.002, -0.032, 192.0, 0.0, 80.0, 31.0, 80.0, 255.0, 0.0, 0.0, 0.0, 0.0, 1.6820971782416084E9, 0.0, 2023-04-21 12:12:58.241
70.0, -49022.114160312914, -31678.65802987314, 187500.0, 187500.0, 187500.0, 187500.0, 187500.0, 187500.0, 0.01, 1.002, -0.032, 192.0, 0.0, 0.0, 0.0, 0.0, 0.0, 0.0, 0.0, 0.0, 0.0, 1.6820971782416203E9, 0.0, 2023-04-21 12:12:58.241
71.0, -49110.4929578892, -31690.325640478808, 187500.0, 187500.0, 187500.0, 187500.0, 187500.0, 187500.0, 0.01, 1.002, -0.032, 192.0, 0.0, 0.0, 0.0, 0.0, 0.0, 0.0, 0.0, 0.0, 0.0, 1.6820971782416928E9, 0.0, 2023-04-21 12:12:58.241
72.0, -49021.555366701534, -31516.831400016716, 187500.0, 187500.0, 187500.0, 187500.0, 187500.0, 187500.0, 0.01, 1.002, -0.032, 192.0, 0.0, 0.0, 0.0, 0.0, 0.0, 0.0, 0.0, 0.0, 0.0, 1.6820971782417047E9, 0.0, 2023-04-21 12:12:58.241
73.0, -48919.87728117434, -31392.846273523126, 187500.0, 187500.0, 187500.0, 187500.0, 187500.0, 187500.0, 0.01, 1.002, -0.032, 192.0, 0.0, 0.0, 0.0, 0.0, 0.0, 0.0, 0.0, 0.0, 0.0, 1.682097178241716E9, 0.0, 2023-04-21 12:12:58.241
74.0, -49018.694343411255, -31638.268427642397, 187500.0, 187500.0, 187500.0, 187500.0, 187500.0, 187500.0, 0.01, 1.002, -0.032, 192.0, 0.0, 0.0, 0.0, 0.0, 0.0, 0.0, 0.0, 0.0, 0.0, 1.6820971782417295E9, 0.0, 2023-04-21 12:12:58.241
75.0, -49105.12853921992, -31704.541349952386, 187500.0, 187500.0, 187500.0, 187500.0, 187500.0, 187500.0, 0.01, 1.002, -0.032, 192.0, 0.0, 0.0, 0.0, 0.0, 0.0, 0.0, 0.0, 0.0, 0.0, 1.6820971782417407E9, 0.0, 2023-04-21 12:12:58.241
76.0, -49054.03245139509, -31550.20255448849, 187500.0, 187500.0, 187500.0, 187500.0, 187500.0, 187500.0, 0.01, 1.002, -0.032, 192.0, 0.0, 0.0, 0.0, 0.0, 0.0, 0.0, 0.0, 0.0, 0.0, 1.6820971782417524E9, 0.0, 2023-04-21 12:12:58.241
77.0, -48923.58767075392, -31374.651953536508, 187500.0, 187500.0, 187500.0, 187500.0, 187500.0, 187500.0, 0.01, 1.002, -0.032, 192.0, 0.0, 0.0, 0.0, 0.0, 0.0, 0.0, 0.0, 0.0, 0.0, 1.6820971782417638E9, 0.0, 2023-04-21 12:12:58.241
78.0, -48988.474784907674, -31582.992563604425, 187500.0, 187500.0, 187500.0, 187500.0, 187500.0, 187500.0, 0.01, 1.002, -0.032, 192.0, 0.0, 0.0, 0.0, 0.0, 0.0, 0.0, 0.0, 0.0, 0.0, 1.6820971783450403E9, 0.0, 2023-04-21 12:12:58.345
79.0, -49081.45804184175, -31694.974803325513, 187500.0, 187500.0, 187500.0, 187500.0, 187500.0, 187500.0, 0.01, 1.002, -0.032, 192.0, 0.0, 0.0, 0.0, 0.0, 0.0, 0.0, 0.0, 0.0, 0.0, 1.6820971783450665E9, 0.0, 2023-04-21 12:12:58.345
80.0, -49041.11314309992, -31578.231642035444, 187500.0, 187500.0, 187500.0, 187500.0, 187500.0, 187500.0, -0.014, 1.018, -0.034, 192.0, 255.0, 144.0, 31.0, 208.0, 254.0, 240.0, 0.0, 0.0, 0.0, 1.6820971783450797E9, 0.0, 2023-04-21 12:12:58.345
81.0, -48890.86471687135, -31375.367209359076, 187500.0, 187500.0, 187500.0, 187500.0, 187500.0, 187500.0, -0.014, 1.018, -0.034, 192.0, 0.0, 0.0, 0.0, 0.0, 0.0, 0.0, 0.0, 0.0, 0.0, 1.6820971783450933E9, 0.0, 2023-04-21 12:12:58.345
82.0, -48945.17945589775, -31547.72151085395, 187500.0, 187500.0, 187500.0, 187500.0, 187500.0, 187500.0, -0.014, 1.018, -0.034, 192.0, 0.0, 0.0, 0.0, 0.0, 0.0, 0.0, 0.0, 0.0, 0.0, 1.6820971783451054E9, 0.0, 2023-04-21 12:12:58.345
83.0, -49069.455155069256, -31709.8834168772, 187500.0, 187500.0, 187500.0, 187500.0, 187500.0, 187500.0, -0.014, 1.018, -0.034, 192.0, 0.0, 0.0, 0.0, 0.0, 0.0, 0.0, 0.0, 0.0, 0.0, 1.6820971783451169E9, 0.0, 2023-04-21 12:12:58.345
84.0, -49062.6825764993, -31612.653328496617, 187500.0, 187500.0, 187500.0, 187500.0, 187500.0, 187500.0, -0.014, 1.018, -0.034, 192.0, 0.0, 0.0, 0.0, 0.0, 0.0, 0.0, 0.0, 0.0, 0.0, 1.6820971783451288E9, 0.0, 2023-04-21 12:12:58.345
85.0, -48917.955031151185, -31411.912311543503, 187500.0, 187500.0, 187500.0, 187500.0, 187500.0, 187500.0, -0.014, 1.018, -0.034, 192.0, 0.0, 0.0, 0.0, 0.0, 0.0, 0.0, 0.0, 0.0, 0.0, 1.6820971783451407E9, 0.0, 2023-04-21 12:12:58.345
86.0, -48919.58670849642, -31490.81396947074, 187500.0, 187500.0, 187500.0, 187500.0, 187500.0, 187500.0, -0.014, 1.018, -0.034, 192.0, 0.0, 0.0, 0.0, 0.0, 0.0, 0.0, 0.0, 0.0, 0.0, 1.6820971783452013E9, 0.0, 2023-04-21 12:12:58.345
87.0, -49036.173407575305, -31676.869890316713, 187500.0, 187500.0, 187500.0, 187500.0, 187500.0, 187500.0, -0.014, 1.018, -0.034, 192.0, 0.0, 0.0, 0.0, 0.0, 0.0, 0.0, 0.0, 0.0, 0.0, 1.6820971783452132E9, 0.0, 2023-04-21 12:12:58.345
88.0, -49096.590172838, -31625.349119347233, 187500.0, 187500.0, 187500.0, 187500.0, 187500.0, 187500.0, -0.014, 1.018, -0.034, 192.0, 0.0, 0.0, 0.0, 0.0, 0.0, 0.0, 0.0, 0.0, 0.0, 1.6820971783452249E9, 0.0, 2023-04-21 12:12:58.345
89.0, -48979.44468014773, -31417.79082033525, 187500.0, 187500.0, 187500.0, 187500.0, 187500.0, 187500.0, -0.014, 1.018, -0.034, 192.0, 0.0, 0.0, 0.0, 0.0, 0.0, 0.0, 0.0, 0.0, 0.0, 1.6820971783452363E9, 0.0, 2023-04-21 12:12:58.345
90.0, -48928.30388883399, -31434.733442632372, 187500.0, 187500.0, 187500.0, 187500.0, 187500.0, 187500.0, 0.02, 0.984, -0.04, 192.0, 0.0, 160.0, 30.0, 192.0, 254.0, 192.0, 0.0, 0.0, 0.0, 1.6820971783452477E9, 0.0, 2023-04-21 12:12:58.345
91.0, -49062.4814107992, -31682.144902008167, 187500.0, 187500.0, 187500.0, 187500.0, 187500.0, 187500.0, 0.02, 0.984, -0.04, 192.0, 0.0, 0.0, 0.0, 0.0, 0.0, 0.0, 0.0, 0.0, 0.0, 1.6820971783452601E9, 0.0, 2023-04-21 12:12:58.345
92.0, -49125.98271679672, -31663.972933766003, 187500.0, 187500.0, 187500.0, 187500.0, 187500.0, 187500.0, 0.02, 0.984, -0.04, 192.0, 0.0, 0.0, 0.0, 0.0, 0.0, 0.0, 0.0, 0.0, 0.0, 1.6820971783452742E9, 0.0, 2023-04-21 12:12:58.345
93.0, -49029.55729121653, -31480.666277488028, 187500.0, 187500.0, 187500.0, 187500.0, 187500.0, 187500.0, 0.02, 0.984, -0.04, 192.0, 0.0, 0.0, 0.0, 0.0, 0.0, 0.0, 0.0, 0.0, 0.0, 1.682097178345286E9, 0.0, 2023-04-21 12:12:58.345
94.0, -48951.63911004533, -31411.711145843405, 187500.0, 187500.0, 187500.0, 187500.0, 187500.0, 187500.0, 0.02, 0.984, -0.04, 192.0, 0.0, 0.0, 0.0, 0.0, 0.0, 0.0, 0.0, 0.0, 0.0, 1.6820971783452973E9, 0.0, 2023-04-21 12:12:58.345
95.0, -49054.345375817466, -31656.12747146219, 187500.0, 187500.0, 187500.0, 187500.0, 187500.0, 187500.0, 0.02, 0.984, -0.04, 192.0, 0.0, 0.0, 0.0, 0.0, 0.0, 0.0, 0.0, 0.0, 0.0, 1.6820971783453088E9, 0.0, 2023-04-21 12:12:58.345
96.0, -49107.72134157674, -31671.50547164744, 187500.0, 187500.0, 187500.0, 187500.0, 187500.0, 187500.0, 0.02, 0.984, -0.04, 192.0, 0.0, 0.0, 0.0, 0.0, 0.0, 0.0, 0.0, 0.0, 0.0, 1.6820971783453205E9, 0.0, 2023-04-21 12:12:58.345
97.0, -49028.86438713842, -31508.561254568252, 187500.0, 187500.0, 187500.0, 187500.0, 187500.0, 187500.0, 0.02, 0.984, -0.04, 192.0, 0.0, 0.0, 0.0, 0.0, 0.0, 0.0, 0.0, 0.0, 0.0, 1.682097178345332E9, 0.0, 2023-04-21 12:12:58.345
98.0, -48907.22619381263, -31390.029953721758, 187500.0, 187500.0, 187500.0, 187500.0, 187500.0, 187500.0, 0.02, 0.984, -0.04, 192.0, 0.0, 0.0, 0.0, 0.0, 0.0, 0.0, 0.0, 0.0, 0.0, 1.682097178345343E9, 0.0, 2023-04-21 12:12:58.345
99.0, -48988.1618604853, -31629.238322882455, 187500.0, 187500.0, 187500.0, 187500.0, 187500.0, 187500.0, 0.02, 0.984, -0.04, 192.0, 0.0, 0.0, 0.0, 0.0, 0.0, 0.0, 0.0, 0.0, 0.0, 1.6820971783453548E9, 0.0, 2023-04-21 12:12:58.345
100.0, -49070.03630042509, -31692.963146324535, 187500.0, 187500.0, 187500.0, 187500.0, 187500.0, 187500.0, -0.042, 1.0, -0.042, 192.0, 254.0, 176.0, 31.0, 64.0, 254.0, 176.0, 0.0, 0.0, 0.0, 1.6820971783453662E9, 0.0, 2023-04-21 12:12:58.345
101.0, -49004.05395079302, -31551.945990556003, 187500.0, 187500.0, 187500.0, 187500.0, 187500.0, 187500.0, -0.042, 1.0, -0.042, 192.0, 0.0, 0.0, 0.0, 0.0, 0.0, 0.0, 0.0, 0.0, 0.0, 1.682097178345394E9, 0.0, 2023-04-21 12:12:58.345
102.0, -48878.928885332214, -31392.60040433412, 187500.0, 187500.0, 187500.0, 187500.0, 187500.0, 187500.0, -0.042, 1.0, -0.042, 192.0, 0.0, 0.0, 0.0, 0.0, 0.0, 0.0, 0.0, 0.0, 0.0, 1.6820971785049005E9, 0.0, 2023-04-21 12:12:58.504
103.0, -48943.033688430034, -31601.83508418025, 187500.0, 187500.0, 187500.0, 187500.0, 187500.0, 187500.0, -0.042, 1.0, -0.042, 192.0, 0.0, 0.0, 0.0, 0.0, 0.0, 0.0, 0.0, 0.0, 0.0, 1.6820971785049415E9, 0.0, 2023-04-21 12:12:58.504
104.0, -49043.34831754545, -31704.474294719017, 187500.0, 187500.0, 187500.0, 187500.0, 187500.0, 187500.0, -0.042, 1.0, -0.042, 192.0, 0.0, 0.0, 0.0, 0.0, 0.0, 0.0, 0.0, 0.0, 0.0, 1.682097178504956E9, 0.0, 2023-04-21 12:12:58.504
105.0, -49019.18608178927, -31575.169453045066, 187500.0, 187500.0, 187500.0, 187500.0, 187500.0, 187500.0, -0.042, 1.0, -0.042, 192.0, 0.0, 0.0, 0.0, 0.0, 0.0, 0.0, 0.0, 0.0, 0.0, 1.6820971785049696E9, 0.0, 2023-04-21 12:12:58.504
106.0, -48885.12031854634, -31378.58586056064, 187500.0, 187500.0, 187500.0, 187500.0, 187500.0, 187500.0, -0.042, 1.0, -0.042, 192.0, 0.0, 0.0, 0.0, 0.0, 0.0, 0.0, 0.0, 0.0, 0.0, 1.6820971785049837E9, 0.0, 2023-04-21 12:12:58.504
107.0, -48920.123150363346, -31539.808993316772, 187500.0, 187500.0, 187500.0, 187500.0, 187500.0, 187500.0, -0.042, 1.0, -0.042, 192.0, 0.0, 0.0, 0.0, 0.0, 0.0, 0.0, 0.0, 0.0, 0.0, 1.6820971785049963E9, 0.0, 2023-04-21 12:12:58.504
108.0, -49017.62145967739, -31687.218747999523, 187500.0, 187500.0, 187500.0, 187500.0, 187500.0, 187500.0, -0.042, 1.0, -0.042, 192.0, 0.0, 0.0, 0.0, 0.0, 0.0, 0.0, 0.0, 0.0, 0.0, 1.6820971785050092E9, 0.0, 2023-04-21 12:12:58.505
109.0, -49028.70792492723, -31605.05373538181, 187500.0, 187500.0, 187500.0, 187500.0, 187500.0, 187500.0, -0.042, 1.0, -0.042, 192.0, 0.0, 0.0, 0.0, 0.0, 0.0, 0.0, 0.0, 0.0, 0.0, 1.6820971785050218E9, 0.0, 2023-04-21 12:12:58.505
110.0, -48934.76354298157, -31399.037706737246, 187500.0, 187500.0, 187500.0, 187500.0, 187500.0, 187500.0, -0.012, 0.9540000000000001, -0.052000000000000005, 192.0, 255.0, 160.0, 29.0, 208.0, 254.0, 96.0, 0.0, 0.0, 0.0, 1.682097178505034E9, 0.0, 2023-04-21 12:12:58.505
111.0, -48947.54874081001, -31476.307687319244, 187500.0, 187500.0, 187500.0, 187500.0, 187500.0, 187500.0, -0.012, 0.9540000000000001, -0.052000000000000005, 192.0, 0.0, 0.0, 0.0, 0.0, 0.0, 0.0, 0.0, 0.0, 0.0, 1.6820971785050492E9, 0.0, 2023-04-21 12:12:58.505
112.0, -49048.93625365928, -31655.07693947279, 187500.0, 187500.0, 187500.0, 187500.0, 187500.0, 187500.0, -0.012, 0.9540000000000001, -0.052000000000000005, 192.0, 0.0, 0.0, 0.0, 0.0, 0.0, 0.0, 0.0, 0.0, 0.0, 1.682097178505062E9, 0.0, 2023-04-21 12:12:58.505
113.0, -49077.25591388415, -31600.96336614649, 187500.0, 187500.0, 187500.0, 187500.0, 187500.0, 187500.0, -0.012, 0.9540000000000001, -0.052000000000000005, 192.0, 0.0, 0.0, 0.0, 0.0, 0.0, 0.0, 0.0, 0.0, 0.0, 1.6820971785050755E9, 0.0, 2023-04-21 12:12:58.505
114.0, -48971.26394167709, -31426.12802101708, 187500.0, 187500.0, 187500.0, 187500.0, 187500.0, 187500.0, -0.012, 0.9540000000000001, -0.052000000000000005, 192.0, 0.0, 0.0, 0.0, 0.0, 0.0, 0.0, 0.0, 0.0, 0.0, 1.682097178505089E9, 0.0, 2023-04-21 12:12:58.505
115.0, -48929.95791792368, -31451.430195740486, 187500.0, 187500.0, 187500.0, 187500.0, 187500.0, 187500.0, -0.012, 0.9540000000000001, -0.052000000000000005, 192.0, 0.0, 0.0, 0.0, 0.0, 0.0, 0.0, 0.0, 0.0, 0.0, 1.6820971785051017E9, 0.0, 2023-04-21 12:12:58.505
116.0, -49028.260890038124, -31656.70861681803, 187500.0, 187500.0, 187500.0, 187500.0, 187500.0, 187500.0, -0.012, 0.9540000000000001, -0.052000000000000005, 192.0, 0.0, 0.0, 0.0, 0.0, 0.0, 0.0, 0.0, 0.0, 0.0, 1.6820971785052168E9, 0.0, 2023-04-21 12:12:58.505
117.0, -49083.51440233164, -31645.331578890276, 187500.0, 187500.0, 187500.0, 187500.0, 187500.0, 187500.0, -0.012, 0.9540000000000001, -0.052000000000000005, 192.0, 0.0, 0.0, 0.0, 0.0, 0.0, 0.0, 0.0, 0.0, 0.0, 1.6820971785052297E9, 0.0, 2023-04-21 12:12:58.505
118.0, -48989.03357851906, -31488.154111880558, 187500.0, 187500.0, 187500.0, 187500.0, 187500.0, 187500.0, -0.012, 0.9540000000000001, -0.052000000000000005, 192.0, 0.0, 0.0, 0.0, 0.0, 0.0, 0.0, 0.0, 0.0, 0.0, 1.682097178505242E9, 0.0, 2023-04-21 12:12:58.505
119.0, -48900.051283842484, -31434.576980421185, 187500.0, 187500.0, 187500.0, 187500.0, 187500.0, 187500.0, -0.012, 0.9540000000000001, -0.052000000000000005, 192.0, 0.0, 0.0, 0.0, 0.0, 0.0, 0.0, 0.0, 0.0, 0.0, 1.6820971785052547E9, 0.0, 2023-04-21 12:12:58.505
120.0, -48989.391206430344, -31661.60364885374, 187500.0, 187500.0, 187500.0, 187500.0, 187500.0, 187500.0, -0.054, 0.982, -0.054, 192.0, 254.0, 80.0, 30.0, 176.0, 254.0, 80.0, 0.0, 0.0, 0.0, 1.6820971785052671E9, 0.0, 2023-04-21 12:12:58.505
121.0, -49056.915826429824, -31672.779521081393, 187500.0, 187500.0, 187500.0, 187500.0, 187500.0, 187500.0, -0.054, 0.982, -0.054, 192.0, 0.0, 0.0, 0.0, 0.0, 0.0, 0.0, 0.0, 0.0, 0.0, 1.6820971785052807E9, 0.0, 2023-04-21 12:12:58.505
122.0, -48977.45537489121, -31521.1899901855, 187500.0, 187500.0, 187500.0, 187500.0, 187500.0, 187500.0, -0.054, 0.982, -0.054, 192.0, 0.0, 0.0, 0.0, 0.0, 0.0, 0.0, 0.0, 0.0, 0.0, 1.6820971785052934E9, 0.0, 2023-04-21 12:12:58.505
123.0, -48869.854077083364, -31408.000756263824, 187500.0, 187500.0, 187500.0, 187500.0, 187500.0, 187500.0, -0.054, 0.982, -0.054, 192.0, 0.0, 0.0, 0.0, 0.0, 0.0, 0.0, 0.0, 0.0, 0.0, 1.6820971785053086E9, 0.0, 2023-04-21 12:12:58.505
124.0, -48948.80043849951, -31637.530820075375, 187500.0, 187500.0, 187500.0, 187500.0, 187500.0, 187500.0, -0.054, 0.982, -0.054, 192.0, 0.0, 0.0, 0.0, 0.0, 0.0, 0.0, 0.0, 0.0, 0.0, 1.682097178505321E9, 0.0, 2023-04-21 12:12:58.505
125.0, -49042.811875678526, -31695.868873103725, 187500.0, 187500.0, 187500.0, 187500.0, 187500.0, 187500.0, -0.054, 0.982, -0.054, 192.0, 0.0, 0.0, 0.0, 0.0, 0.0, 0.0, 0.0, 0.0, 0.0, 1.6820971785053334E9, 0.0, 2023-04-21 12:12:58.505
126.0, -48997.32607571198, -31565.312333740276, 187500.0, 187500.0, 187500.0, 187500.0, 187500.0, 187500.0, -0.054, 0.982, -0.054, 192.0, 0.0, 0.0, 0.0, 0.0, 0.0, 0.0, 0.0, 0.0, 0.0, 1.682097178505346E9, 0.0, 2023-04-21 12:12:58.505
127.0, -48869.11646951634, -31394.679116568463, 187500.0, 187500.0, 187500.0, 187500.0, 187500.0, 187500.0, -0.054, 0.982, -0.054, 192.0, 0.0, 0.0, 0.0, 0.0, 0.0, 0.0, 0.0, 0.0, 0.0, 1.6820971785053587E9, 0.0, 2023-04-21 12:12:58.505
128.0, -48929.287365590026, -31595.06250561029, 187500.0, 187500.0, 187500.0, 187500.0, 187500.0, 187500.0, -0.054, 0.982, -0.054, 192.0, 0.0, 0.0, 0.0, 0.0, 0.0, 0.0, 0.0, 0.0, 0.0, 1.6820971785053723E9, 0.0, 2023-04-21 12:12:58.505
129.0, -49056.46879154072, -31700.674498161618, 187500.0, 187500.0, 187500.0, 187500.0, 187500.0, 187500.0, -0.054, 0.982, -0.054, 192.0, 0.0, 0.0, 0.0, 0.0, 0.0, 0.0, 0.0, 0.0, 0.0, 1.6820971785053856E9, 0.0, 2023-04-21 12:12:58.505
130.0, -49034.04999185205, -31568.463929708476, 187500.0, 187500.0, 187500.0, 187500.0, 187500.0, 187500.0, -0.054, 0.982, -0.054, 192.0, 0.0, 0.0, 0.0, 0.0, 0.0, 0.0, 0.0, 0.0, 0.0, 1.6820971785053988E9, 0.0, 2023-04-21 12:12:58.505
131.0, -48901.77236816554, -31393.181549689958, 187500.0, 187500.0, 187500.0, 187500.0, 187500.0, 187500.0, -0.03, 0.9520000000000001, -0.078, 192.0, 255.0, 16.0, 29.0, 192.0, 253.0, 144.0, 0.0, 0.0, 0.0, 1.6820971785054328E9, 0.0, 2023-04-21 12:12:58.505
132.0, -48928.236833600626, -31557.57863015874, 187500.0, 187500.0, 187500.0, 187500.0, 187500.0, 187500.0, -0.03, 0.9520000000000001, -0.078, 192.0, 0.0, 0.0, 0.0, 0.0, 0.0, 0.0, 0.0, 0.0, 0.0, 1.682097178505447E9, 0.0, 2023-04-21 12:12:58.505
133.0, -49051.484352527186, -31705.703640664062, 187500.0, 187500.0, 187500.0, 187500.0, 187500.0, 187500.0, -0.03, 0.9520000000000001, -0.078, 192.0, 0.0, 0.0, 0.0, 0.0, 0.0, 0.0, 0.0, 0.0, 0.0, 1.6820971785054593E9, 0.0, 2023-04-21 12:12:58.505
134.0, -49060.26858809812, -31617.16838087659, 187500.0, 187500.0, 187500.0, 187500.0, 187500.0, 187500.0, -0.03, 0.9520000000000001, -0.078, 192.0, 0.0, 0.0, 0.0, 0.0, 0.0, 0.0, 0.0, 0.0, 0.0, 1.6820971785054717E9, 0.0, 2023-04-21 12:12:58.505
135.0, -48945.6041390424, -31425.1668960055, 187500.0, 187500.0, 187500.0, 187500.0, 187500.0, 187500.0, -0.03, 0.9520000000000001, -0.078, 192.0, 0.0, 0.0, 0.0, 0.0, 0.0, 0.0, 0.0, 0.0, 0.0, 1.6820971785054843E9, 0.0, 2023-04-21 12:12:58.505
136.0, -48926.8510254444, -31496.51366430684, 187500.0, 187500.0, 187500.0, 187500.0, 187500.0, 187500.0, -0.03, 0.9520000000000001, -0.078, 192.0, 0.0, 0.0, 0.0, 0.0, 0.0, 0.0, 0.0, 0.0, 0.0, 1.6820971785054967E9, 0.0, 2023-04-21 12:12:58.505
137.0, -49030.40665750583, -31681.831977585793, 187500.0, 187500.0, 187500.0, 187500.0, 187500.0, 187500.0, -0.03, 0.9520000000000001, -0.078, 192.0, 0.0, 0.0, 0.0, 0.0, 0.0, 0.0, 0.0, 0.0, 0.0, 1.6820971785055091E9, 0.0, 2023-04-21 12:12:58.505
138.0, -49057.698137485764, -31652.461785371517, 187500.0, 187500.0, 187500.0, 187500.0, 187500.0, 187500.0, -0.03, 0.9520000000000001, -0.078, 192.0, 0.0, 0.0, 0.0, 0.0, 0.0, 0.0, 0.0, 0.0, 0.0, 1.6820971785390682E9, 0.0, 2023-04-21 12:12:58.539
139.0, -48947.34757510991, -31475.883004174593, 187500.0, 187500.0, 187500.0, 187500.0, 187500.0, 187500.0, -0.03, 0.9520000000000001, -0.078, 192.0, 0.0, 0.0, 0.0, 0.0, 0.0, 0.0, 0.0, 0.0, 0.0, 1.6820971785390959E9, 0.0, 2023-04-21 12:12:58.539
140.0, -48902.2417547991, -31466.495271503365, 187500.0, 187500.0, 187500.0, 187500.0, 187500.0, 187500.0, -0.03, 0.9520000000000001, -0.078, 192.0, 0.0, 0.0, 0.0, 0.0, 0.0, 0.0, 0.0, 0.0, 0.0, 1.6820971785391095E9, 0.0, 2023-04-21 12:12:58.539
141.0, -49001.66231413631, -31692.918442835624, 187500.0, 187500.0, 187500.0, 187500.0, 187500.0, 187500.0, -0.05, 0.98, -0.084, 192.0, 254.0, 112.0, 30.0, 160.0, 253.0, 96.0, 0.0, 0.0, 0.0, 1.682097178539122E9, 0.0, 2023-04-21 12:12:58.539
142.0, -49050.61263449343, -31701.45680921755, 187500.0, 187500.0, 187500.0, 187500.0, 187500.0, 187500.0, -0.05, 0.98, -0.084, 192.0, 0.0, 0.0, 0.0, 0.0, 0.0, 0.0, 0.0, 0.0, 0.0, 1.6820971785391364E9, 0.0, 2023-04-21 12:12:58.539
143.0, -48943.190150641225, -31530.33185366772, 187500.0, 187500.0, 187500.0, 187500.0, 187500.0, 187500.0, -0.05, 0.98, -0.084, 192.0, 0.0, 0.0, 0.0, 0.0, 0.0, 0.0, 0.0, 0.0, 0.0, 1.6820971785853124E9, 0.0, 2023-04-21 12:12:58.585
144.0, -48845.13304771579, -31448.256248027832, 187500.0, 187500.0, 187500.0, 187500.0, 187500.0, 187500.0, -0.05, 0.98, -0.084, 192.0, 0.0, 0.0, 0.0, 0.0, 0.0, 0.0, 0.0, 0.0, 0.0, 1.6820971785853424E9, 0.0, 2023-04-21 12:12:58.585
145.0, -48948.26399663258, -31674.16532923762, 187500.0, 187500.0, 187500.0, 187500.0, 187500.0, 187500.0, -0.05, 0.98, -0.084, 192.0, 0.0, 0.0, 0.0, 0.0, 0.0, 0.0, 0.0, 0.0, 0.0, 1.6820971785853572E9, 0.0, 2023-04-21 12:12:58.585
146.0, -49052.93721591678, -31703.624928429716, 187500.0, 187500.0, 187500.0, 187500.0, 187500.0, 187500.0, -0.05, 0.98, -0.084, 192.0, 0.0, 0.0, 0.0, 0.0, 0.0, 0.0, 0.0, 0.0, 0.0, 1.6820971785853713E9, 0.0, 2023-04-21 12:12:58.585
147.0, -48994.21918323269, -31551.81188008927, 187500.0, 187500.0, 187500.0, 187500.0, 187500.0, 187500.0, -0.05, 0.98, -0.084, 192.0, 0.0, 0.0, 0.0, 0.0, 0.0, 0.0, 0.0, 0.0, 0.0, 1.6820971785854414E9, 0.0, 2023-04-21 12:12:58.585
148.0, -48891.736434905106, -31430.710128630417, 187500.0, 187500.0, 187500.0, 187500.0, 187500.0, 187500.0, -0.05, 0.98, -0.084, 192.0, 0.0, 0.0, 0.0, 0.0, 0.0, 0.0, 0.0, 0.0, 0.0, 1.6820971785854552E9, 0.0, 2023-04-21 12:12:58.585
149.0, -48983.60210461642, -31660.039026741866, 187500.0, 187500.0, 187500.0, 187500.0, 187500.0, 187500.0, -0.05, 0.98, -0.084, 192.0, 0.0, 0.0, 0.0, 0.0, 0.0, 0.0, 0.0, 0.0, 0.0, 1.682097178689898E9, 0.0, 2023-04-21 12:12:58.689
150.0, -49092.05276871357, -31734.671501478137, 187500.0, 187500.0, 187500.0, 187500.0, 187500.0, 187500.0, -0.05, 0.98, -0.084, 192.0, 0.0, 0.0, 0.0, 0.0, 0.0, 0.0, 0.0, 0.0, 0.0, 1.6820971786899233E9, 0.0, 2023-04-21 12:12:58.689
151.0, -49051.57375950501, -31610.082877884255, 187500.0, 187500.0, 187500.0, 187500.0, 187500.0, 187500.0, 0.022, 0.966, -0.08600000000000001, 192.0, 0.0, 176.0, 30.0, 48.0, 253.0, 80.0, 0.0, 0.0, 0.0, 1.6820971786899362E9, 0.0, 2023-04-21 12:12:58.689
152.0, -48928.81797895646, -31432.27475074229, 187500.0, 187500.0, 187500.0, 187500.0, 187500.0, 187500.0, 0.022, 0.966, -0.08600000000000001, 192.0, 0.0, 0.0, 0.0, 0.0, 0.0, 0.0, 0.0, 0.0, 0.0, 1.6820971786899495E9, 0.0, 2023-04-21 12:12:58.689
153.0, -49003.18223275927, -31619.224741366477, 187500.0, 187500.0, 187500.0, 187500.0, 187500.0, 187500.0, 0.022, 0.966, -0.08600000000000001, 192.0, 0.0, 0.0, 0.0, 0.0, 0.0, 0.0, 0.0, 0.0, 0.0, 1.6820971786899617E9, 0.0, 2023-04-21 12:12:58.689
154.0, -49138.83496985853, -31746.160298128165, 187500.0, 187500.0, 187500.0, 187500.0, 187500.0, 187500.0, 0.022, 0.966, -0.08600000000000001, 192.0, 0.0, 0.0, 0.0, 0.0, 0.0, 0.0, 0.0, 0.0, 0.0, 1.6820971786899734E9, 0.0, 2023-04-21 12:12:58.689
155.0, -49135.370449467955, -31659.88256453068, 187500.0, 187500.0, 187500.0, 187500.0, 187500.0, 187500.0, 0.022, 0.966, -0.08600000000000001, 192.0, 0.0, 0.0, 0.0, 0.0, 0.0, 0.0, 0.0, 0.0, 0.0, 1.6820971786899848E9, 0.0, 2023-04-21 12:12:58.689
156.0, -49001.617610647394, -31474.027809384803, 187500.0, 187500.0, 187500.0, 187500.0, 187500.0, 187500.0, 0.022, 0.966, -0.08600000000000001, 192.0, 0.0, 0.0, 0.0, 0.0, 0.0, 0.0, 0.0, 0.0, 0.0, 1.6820971786899965E9, 0.0, 2023-04-21 12:12:58.689
157.0, -49002.93636357026, -31588.938127629535, 187500.0, 187500.0, 187500.0, 187500.0, 187500.0, 187500.0, 0.022, 0.966, -0.08600000000000001, 192.0, 0.0, 0.0, 0.0, 0.0, 0.0, 0.0, 0.0, 0.0, 0.0, 1.682097178690008E9, 0.0, 2023-04-21 12:12:58.690
158.0, -49121.69118186131, -31751.547068541895, 187500.0, 187500.0, 187500.0, 187500.0, 187500.0, 187500.0, 0.022, 0.966, -0.08600000000000001, 192.0, 0.0, 0.0, 0.0, 0.0, 0.0, 0.0, 0.0, 0.0, 0.0, 1.6820971786900194E9, 0.0, 2023-04-21 12:12:58.690
159.0, -49123.18874873981, -31677.98747753948, 187500.0, 187500.0, 187500.0, 187500.0, 187500.0, 187500.0, 0.022, 0.966, -0.08600000000000001, 192.0, 0.0, 0.0, 0.0, 0.0, 0.0, 0.0, 0.0, 0.0, 0.0, 1.682097178690031E9, 0.0, 2023-04-21 12:12:58.690
160.0, -48985.65846510631, -31491.61863227113, 187500.0, 187500.0, 187500.0, 187500.0, 187500.0, 187500.0, 0.022, 0.966, -0.08600000000000001, 192.0, 0.0, 0.0, 0.0, 0.0, 0.0, 0.0, 0.0, 0.0, 0.0, 1.6820971786900425E9, 0.0, 2023-04-21 12:12:58.690
161.0, -48951.862627489885, -31559.411473204076, 187500.0, 187500.0, 187500.0, 187500.0, 187500.0, 187500.0, 0.006, 0.986, -0.098, 192.0, 0.0, 48.0, 30.0, 208.0, 252.0, 240.0, 0.0, 0.0, 0.0, 1.682097178690054E9, 0.0, 2023-04-21 12:12:58.690
162.0, -49076.20538189475, -31751.725882497536, 187500.0, 187500.0, 187500.0, 187500.0, 187500.0, 187500.0, 0.006, 0.986, -0.098, 192.0, 0.0, 0.0, 0.0, 0.0, 0.0, 0.0, 0.0, 0.0, 0.0, 1.682097178690125E9, 0.0, 2023-04-21 12:12:58.690
163.0, -49131.01185929917, -31718.690004192595, 187500.0, 187500.0, 187500.0, 187500.0, 187500.0, 187500.0, 0.006, 0.986, -0.098, 192.0, 0.0, 0.0, 0.0, 0.0, 0.0, 0.0, 0.0, 0.0, 0.0, 1.682097178690137E9, 0.0, 2023-04-21 12:12:58.690
164.0, -49001.55055541403, -31530.220094945445, 187500.0, 187500.0, 187500.0, 187500.0, 187500.0, 187500.0, 0.006, 0.986, -0.098, 192.0, 0.0, 0.0, 0.0, 0.0, 0.0, 0.0, 0.0, 0.0, 0.0, 1.6820971786901484E9, 0.0, 2023-04-21 12:12:58.690
165.0, -48923.92294692075, -31500.447571330977, 187500.0, 187500.0, 187500.0, 187500.0, 187500.0, 187500.0, 0.006, 0.986, -0.098, 192.0, 0.0, 0.0, 0.0, 0.0, 0.0, 0.0, 0.0, 0.0, 0.0, 1.68209717869016E9, 0.0, 2023-04-21 12:12:58.690
166.0, -49023.05293358004, -31724.859085662258, 187500.0, 187500.0, 187500.0, 187500.0, 187500.0, 187500.0, 0.006, 0.986, -0.098, 192.0, 0.0, 0.0, 0.0, 0.0, 0.0, 0.0, 0.0, 0.0, 0.0, 1.6820971786901715E9, 0.0, 2023-04-21 12:12:58.690
167.0, -49096.03137922662, -31728.949454897578, 187500.0, 187500.0, 187500.0, 187500.0, 187500.0, 187500.0, 0.006, 0.986, -0.098, 192.0, 0.0, 0.0, 0.0, 0.0, 0.0, 0.0, 0.0, 0.0, 0.0, 1.6820971786901832E9, 0.0, 2023-04-21 12:12:58.690
168.0, -48976.29308417953, -31540.747766583892, 187500.0, 187500.0, 187500.0, 187500.0, 187500.0, 187500.0, 0.006, 0.986, -0.098, 192.0, 0.0, 0.0, 0.0, 0.0, 0.0, 0.0, 0.0, 0.0, 0.0, 1.6820971786901948E9, 0.0, 2023-04-21 12:12:58.690
169.0, -48878.41479520974, -31448.926800361492, 187500.0, 187500.0, 187500.0, 187500.0, 187500.0, 187500.0, 0.006, 0.986, -0.098, 192.0, 0.0, 0.0, 0.0, 0.0, 0.0, 0.0, 0.0, 0.0, 0.0, 1.682097178690206E9, 0.0, 2023-04-21 12:12:58.690
170.0, -48989.10063375242, -31683.307192719843, 187500.0, 187500.0, 187500.0, 187500.0, 187500.0, 187500.0, 0.006, 0.986, -0.098, 192.0, 0.0, 0.0, 0.0, 0.0, 0.0, 0.0, 0.0, 0.0, 0.0, 1.6820971787693439E9, 0.0, 2023-04-21 12:12:58.769
171.0, -49082.32975987551, -31729.172972342134, 187500.0, 187500.0, 187500.0, 187500.0, 187500.0, 187500.0, 0.006, 0.986, -0.098, 192.0, 0.0, 0.0, 0.0, 0.0, 0.0, 0.0, 0.0, 0.0, 0.0, 1.682097178769378E9, 0.0, 2023-04-21 12:12:58.769
172.0, -49047.41633503632, -31594.14608408762, 187500.0, 187500.0, 187500.0, 187500.0, 187500.0, 187500.0, 0.028, 0.986, -0.108, 192.0, 0.0, 224.0, 30.0, 208.0, 252.0, 160.0, 0.0, 0.0, 0.0, 1.6820971787693906E9, 0.0, 2023-04-21 12:12:58.769
173.0, -48925.800493455, -31451.430195740486, 187500.0, 187500.0, 187500.0, 187500.0, 187500.0, 187500.0, 0.028, 0.986, -0.108, 192.0, 0.0, 0.0, 0.0, 0.0, 0.0, 0.0, 0.0, 0.0, 0.0, 1.6820971787694042E9, 0.0, 2023-04-21 12:12:58.769
174.0, -49017.95673584423, -31663.794119810358, 187500.0, 187500.0, 187500.0, 187500.0, 187500.0, 187500.0, 0.028, 0.986, -0.108, 192.0, 0.0, 0.0, 0.0, 0.0, 0.0, 0.0, 0.0, 0.0, 0.0, 1.682097178769416E9, 0.0, 2023-04-21 12:12:58.769
175.0, -49140.62310941495, -31744.953303927578, 187500.0, 187500.0, 187500.0, 187500.0, 187500.0, 187500.0, 0.028, 0.986, -0.108, 192.0, 0.0, 0.0, 0.0, 0.0, 0.0, 0.0, 0.0, 0.0, 0.0, 1.6820971787694275E9, 0.0, 2023-04-21 12:12:58.769
176.0, -49111.319972434045, -31632.099346172734, 187500.0, 187500.0, 187500.0, 187500.0, 187500.0, 187500.0, 0.028, 0.986, -0.108, 192.0, 0.0, 0.0, 0.0, 0.0, 0.0, 0.0, 0.0, 0.0, 0.0, 1.6820971787694392E9, 0.0, 2023-04-21 12:12:58.769
177.0, -48970.392223643335, -31471.70322796145, 187500.0, 187500.0, 187500.0, 187500.0, 187500.0, 187500.0, 0.028, 0.986, -0.108, 192.0, 0.0, 0.0, 0.0, 0.0, 0.0, 0.0, 0.0, 0.0, 0.0, 1.6820971787694986E9, 0.0, 2023-04-21 12:12:58.769
178.0, -49011.60884041892, -31652.461785371517, 187500.0, 187500.0, 187500.0, 187500.0, 187500.0, 187500.0, 0.028, 0.986, -0.108, 192.0, 0.0, 0.0, 0.0, 0.0, 0.0, 0.0, 0.0, 0.0, 0.0, 1.6820971787695105E9, 0.0, 2023-04-21 12:12:58.769
179.0, -49112.34815267899, -31766.410978604676, 187500.0, 187500.0, 187500.0, 187500.0, 187500.0, 187500.0, 0.028, 0.986, -0.108, 192.0, 0.0, 0.0, 0.0, 0.0, 0.0, 0.0, 0.0, 0.0, 0.0, 1.6820971787695224E9, 0.0, 2023-04-21 12:12:58.769
180.0, -49103.04982698558, -31670.2761257024, 187500.0, 187500.0, 187500.0, 187500.0, 187500.0, 187500.0, 0.028, 0.986, -0.108, 192.0, 0.0, 0.0, 0.0, 0.0, 0.0, 0.0, 0.0, 0.0, 0.0, 1.682097178769534E9, 0.0, 2023-04-21 12:12:58.769
181.0, -48968.157049197805, -31476.732370463895, 187500.0, 187500.0, 187500.0, 187500.0, 187500.0, 187500.0, 0.028, 0.986, -0.108, 192.0, 0.0, 0.0, 0.0, 0.0, 0.0, 0.0, 0.0, 0.0, 0.0, 1.6820971787695453E9, 0.0, 2023-04-21 12:12:58.769
182.0, -48977.589485357945, -31618.598892521728, 187500.0, 187500.0, 187500.0, 187500.0, 187500.0, 187500.0, 0.004, 0.976, -0.11, 192.0, 0.0, 32.0, 30.0, 128.0, 252.0, 144.0, 0.0, 0.0, 0.0, 1.6820971787695568E9, 0.0, 2023-04-21 12:12:58.769
183.0, -49100.904059517874, -31783.04067647942, 187500.0, 187500.0, 187500.0, 187500.0, 187500.0, 187500.0, 0.004, 0.976, -0.11, 192.0, 0.0, 0.0, 0.0, 0.0, 0.0, 0.0, 0.0, 0.0, 0.0, 1.6820971787695696E9, 0.0, 2023-04-21 12:12:58.769
184.0, -49111.85641430097, -31707.536483709395, 187500.0, 187500.0, 187500.0, 187500.0, 187500.0, 187500.0, 0.004, 0.976, -0.11, 192.0, 0.0, 0.0, 0.0, 0.0, 0.0, 0.0, 0.0, 0.0, 0.0, 1.6820971787695813E9, 0.0, 2023-04-21 12:12:58.769
185.0, -48972.71680506669, -31509.34356562419, 187500.0, 187500.0, 187500.0, 187500.0, 187500.0, 187500.0, 0.004, 0.976, -0.11, 192.0, 0.0, 0.0, 0.0, 0.0, 0.0, 0.0, 0.0, 0.0, 0.0, 1.6820971787695925E9, 0.0, 2023-04-21 12:12:58.769
186.0, -48951.63911004533, -31578.924546113558, 187500.0, 187500.0, 187500.0, 187500.0, 187500.0, 187500.0, 0.004, 0.976, -0.11, 192.0, 0.0, 0.0, 0.0, 0.0, 0.0, 0.0, 0.0, 0.0, 0.0, 1.6820971787696042E9, 0.0, 2023-04-21 12:12:58.769
187.0, -49061.2297131097, -31768.08735943882, 187500.0, 187500.0, 187500.0, 187500.0, 187500.0, 187500.0, 0.004, 0.976, -0.11, 192.0, 0.0, 0.0, 0.0, 0.0, 0.0, 0.0, 0.0, 0.0, 0.0, 1.6820971787696157E9, 0.0, 2023-04-21 12:12:58.769
188.0, -49103.3403996635, -31727.027204874423, 187500.0, 187500.0, 187500.0, 187500.0, 187500.0, 187500.0, 0.004, 0.976, -0.11, 192.0, 0.0, 0.0, 0.0, 0.0, 0.0, 0.0, 0.0, 0.0, 0.0, 1.6820971791758916E9, 0.0, 2023-04-21 12:12:59.175
189.0, -48969.63226433185, -31537.05972874877, 187500.0, 187500.0, 187500.0, 187500.0, 187500.0, 187500.0, 0.004, 0.976, -0.11, 192.0, 0.0, 0.0, 0.0, 0.0, 0.0, 0.0, 0.0, 0.0, 0.0, 1.6820971791759226E9, 0.0, 2023-04-21 12:12:59.175
190.0, -48889.34479824839, -31506.437838845, 187500.0, 187500.0, 187500.0, 187500.0, 187500.0, 187500.0, 0.004, 0.976, -0.11, 192.0, 0.0, 0.0, 0.0, 0.0, 0.0, 0.0, 0.0, 0.0, 0.0, 1.6820971791759431E9, 0.0, 2023-04-21 12:12:59.175
191.0, -49005.618572904896, -31715.94073962459, 187500.0, 187500.0, 187500.0, 187500.0, 187500.0, 187500.0, 0.004, 0.976, -0.11, 192.0, 0.0, 0.0, 0.0, 0.0, 0.0, 0.0, 0.0, 0.0, 0.0, 1.6820971791759615E9, 0.0, 2023-04-21 12:12:59.175
192.0, -49104.256821186165, -31733.688024722105, 187500.0, 187500.0, 187500.0, 187500.0, 187500.0, 187500.0, -0.004, 0.962, -0.108, 192.0, 255.0, 224.0, 30.0, 16.0, 252.0, 160.0, 0.0, 0.0, 0.0, 1.6820971791760316E9, 0.0, 2023-04-21 12:12:59.176
193.0, -49010.93828808526, -31562.563069172273, 187500.0, 187500.0, 187500.0, 187500.0, 187500.0, 187500.0, -0.004, 0.962, -0.108, 192.0, 0.0, 0.0, 0.0, 0.0, 0.0, 0.0, 0.0, 0.0, 0.0, 1.6820971791760447E9, 0.0, 2023-04-21 12:12:59.176
194.0, -48905.41570251175, -31483.013210655834, 187500.0, 187500.0, 187500.0, 187500.0, 187500.0, 187500.0, -0.004, 0.962, -0.108, 192.0, 0.0, 0.0, 0.0, 0.0, 0.0, 0.0, 0.0, 0.0, 0.0, 1.6820971791760569E9, 0.0, 2023-04-21 12:12:59.176
195.0, -49011.78765437456, -31716.119553580233, 187500.0, 187500.0, 187500.0, 187500.0, 187500.0, 187500.0, -0.004, 0.962, -0.108, 192.0, 0.0, 0.0, 0.0, 0.0, 0.0, 0.0, 0.0, 0.0, 0.0, 1.6820971791760683E9, 0.0, 2023-04-21 12:12:59.176
196.0, -49108.28013518812, -31758.721978512047, 187500.0, 187500.0, 187500.0, 187500.0, 187500.0, 187500.0, -0.004, 0.962, -0.108, 192.0, 0.0, 0.0, 0.0, 0.0, 0.0, 0.0, 0.0, 0.0, 0.0, 1.6820971791760805E9, 0.0, 2023-04-21 12:12:59.176
197.0, -49021.60007019044, -31599.890482412637, 187500.0, 187500.0, 187500.0, 187500.0, 187500.0, 187500.0, -0.004, 0.962, -0.108, 192.0, 0.0, 0.0, 0.0, 0.0, 0.0, 0.0, 0.0, 0.0, 0.0, 1.682097179176092E9, 0.0, 2023-04-21 12:12:59.176
198.0, -48896.18443205171, -31458.649809199553, 187500.0, 187500.0, 187500.0, 187500.0, 187500.0, 187500.0, -0.004, 0.962, -0.108, 192.0, 0.0, 0.0, 0.0, 0.0, 0.0, 0.0, 0.0, 0.0, 0.0, 1.682097179176103E9, 0.0, 2023-04-21 12:12:59.176
199.0, -48986.61959011789, -31671.728989091993, 187500.0, 187500.0, 187500.0, 187500.0, 187500.0, 187500.0, -0.004, 0.962, -0.108, 192.0, 0.0, 0.0, 0.0, 0.0, 0.0, 0.0, 0.0, 0.0, 0.0, 1.6820971791761146E9, 0.0, 2023-04-21 12:12:59.176
200.0, -49102.84866128548, -31752.105862153276, 187500.0, 187500.0, 187500.0, 187500.0, 187500.0, 187500.0, -0.004, 0.962, -0.108, 192.0, 0.0, 0.0, 0.0, 0.0, 0.0, 0.0, 0.0, 0.0, 0.0, 1.682097179176128E9, 0.0, 2023-04-21 12:12:59.176
201.0, -49050.85850368244, -31630.445317083042, 187500.0, 187500.0, 187500.0, 187500.0, 187500.0, 187500.0, -0.004, 0.962, -0.108, 192.0, 0.0, 0.0, 0.0, 0.0, 0.0, 0.0, 0.0, 0.0, 0.0, 1.6820971791761396E9, 0.0, 2023-04-21 12:12:59.176
202.0, -48922.134807364324, -31461.868460401114, 187500.0, 187500.0, 187500.0, 187500.0, 187500.0, 187500.0, -0.004, 0.962, -0.108, 192.0, 0.0, 0.0, 30.0, 160.0, 252.0, 112.0, 0.0, 0.0, 0.0, 1.6820971791761513E9, 0.0, 2023-04-21 12:12:59.176
203.0, -48989.07828200797, -31661.894221531657, 187500.0, 187500.0, 187500.0, 187500.0, 187500.0, 187500.0, -0.004, 0.962, -0.108, 192.0, 0.0, 0.0, 0.0, 0.0, 0.0, 0.0, 0.0, 0.0, 0.0, 1.6820971791761632E9, 0.0, 2023-04-21 12:12:59.176
204.0, -49114.13629223541, -31801.257348210496, 187500.0, 187500.0, 187500.0, 187500.0, 187500.0, 187500.0, -0.004, 0.962, -0.108, 192.0, 0.0, 0.0, 0.0, 0.0, 0.0, 0.0, 0.0, 0.0, 0.0, 1.6820971791761749E9, 0.0, 2023-04-21 12:12:59.176
205.0, -49093.05859721406, -31691.80085561286, 187500.0, 187500.0, 187500.0, 187500.0, 187500.0, 187500.0, -0.004, 0.962, -0.108, 192.0, 0.0, 0.0, 0.0, 0.0, 0.0, 0.0, 0.0, 0.0, 0.0, 1.682097179176186E9, 0.0, 2023-04-21 12:12:59.176
206.0, -48937.6022145274, -31485.918937435024, 187500.0, 187500.0, 187500.0, 187500.0, 187500.0, 187500.0, -0.004, 0.962, -0.108, 192.0, 0.0, 0.0, 0.0, 0.0, 0.0, 0.0, 0.0, 0.0, 0.0, 1.6820971791761975E9, 0.0, 2023-04-21 12:12:59.176
207.0, -48944.62066228636, -31604.45023828152, 187500.0, 187500.0, 187500.0, 187500.0, 187500.0, 187500.0, -0.004, 0.962, -0.108, 192.0, 0.0, 0.0, 0.0, 0.0, 0.0, 0.0, 0.0, 0.0, 0.0, 1.6820971791763096E9, 0.0, 2023-04-21 12:12:59.176
216.0, -49058.99453866417, -31746.562629528362, 187500.0, 187500.0, 187500.0, 187500.0, 187500.0, 187500.0, -0.004, 0.962, -0.108, 192.0, 0.0, 0.0, 0.0, 0.0, 0.0, 0.0, 0.0, 0.0, 0.0, 1.6820971791763215E9, 0.0, 2023-04-21 12:12:59.176
209.0, -49098.26655367215, -31707.1341523092, 187500.0, 187500.0, 187500.0, 187500.0, 187500.0, 187500.0, -0.004, 0.962, -0.108, 192.0, 0.0, 0.0, 0.0, 0.0, 0.0, 0.0, 0.0, 0.0, 0.0, 1.6820971791763334E9, 0.0, 2023-04-21 12:12:59.176
210.0, -48944.531255308546, -31518.2395599174, 187500.0, 187500.0, 187500.0, 187500.0, 187500.0, 187500.0, -0.004, 0.962, -0.108, 192.0, 0.0, 0.0, 0.0, 0.0, 0.0, 0.0, 0.0, 0.0, 0.0, 1.682097179176345E9, 0.0, 2023-04-21 12:12:59.176
211.0, -48912.45650201518, -31563.881822095136, 187500.0, 187500.0, 187500.0, 187500.0, 187500.0, 187500.0, -0.004, 0.962, -0.108, 192.0, 0.0, 0.0, 0.0, 0.0, 0.0, 0.0, 0.0, 0.0, 0.0, 1.6820971791763563E9, 0.0, 2023-04-21 12:12:59.176
212.0, -49043.61653847892, -31757.291466866907, 187500.0, 187500.0, 187500.0, 187500.0, 187500.0, 187500.0, -0.004, 0.962, -0.108, 192.0, 0.0, 0.0, 0.0, 0.0, 0.0, 0.0, 0.0, 0.0, 0.0, 1.6820971791763678E9, 0.0, 2023-04-21 12:12:59.176
213.0, -49087.42595761132, -31731.743422954492, 187500.0, 187500.0, 187500.0, 187500.0, 187500.0, 187500.0, 0.01, 0.966, -0.112, 192.0, 0.0, 80.0, 30.0, 48.0, 252.0, 128.0, 0.0, 0.0, 0.0, 1.6820971791763792E9, 0.0, 2023-04-21 12:12:59.176
214.0, -48955.17068566927, -31554.494089423908, 187500.0, 187500.0, 187500.0, 187500.0, 187500.0, 187500.0, 0.01, 0.966, -0.112, 192.0, 0.0, 0.0, 0.0, 0.0, 0.0, 0.0, 0.0, 0.0, 0.0, 1.6820971791763918E9, 0.0, 2023-04-21 12:12:59.176
217.0, -49139.17024602536, -31760.33130411283, 187500.0, 187500.0, 187500.0, 187500.0, 187500.0, 187500.0, 0.01, 0.966, -0.112, 192.0, 0.0, 0.0, 0.0, 0.0, 0.0, 0.0, 0.0, 0.0, 0.0, 1.6820971791764033E9, 0.0, 2023-04-21 12:12:59.176
218.0, -49030.94309937276, -31594.302546298808, 187500.0, 187500.0, 187500.0, 187500.0, 187500.0, 187500.0, 0.01, 0.966, -0.112, 192.0, 0.0, 0.0, 0.0, 0.0, 0.0, 0.0, 0.0, 0.0, 0.0, 1.6820971791764147E9, 0.0, 2023-04-21 12:12:59.176
219.0, -48911.40597002578, -31490.098713648167, 187500.0, 187500.0, 187500.0, 187500.0, 187500.0, 187500.0, 0.01, 0.966, -0.112, 192.0, 0.0, 0.0, 0.0, 0.0, 0.0, 0.0, 0.0, 0.0, 0.0, 1.6820971791764266E9, 0.0, 2023-04-21 12:12:59.176
220.0, -49006.35618047192, -31706.016565086433, 187500.0, 187500.0, 187500.0, 187500.0, 187500.0, 187500.0, 0.01, 0.966, -0.112, 192.0, 0.0, 0.0, 0.0, 0.0, 0.0, 0.0, 0.0, 0.0, 0.0, 1.682097179176438E9, 0.0, 2023-04-21 12:12:59.176
221.0, -49099.09356821699, -31749.021321418444, 187500.0, 187500.0, 187500.0, 187500.0, 187500.0, 187500.0, 0.01, 0.966, -0.112, 192.0, 0.0, 0.0, 0.0, 0.0, 0.0, 0.0, 0.0, 0.0, 0.0, 1.6820971791764493E9, 0.0, 2023-04-21 12:12:59.176
222.0, -49043.773000690104, -31613.12271513018, 187500.0, 187500.0, 187500.0, 187500.0, 187500.0, 187500.0, 0.01, 0.966, -0.112, 192.0, 0.0, 0.0, 0.0, 0.0, 0.0, 0.0, 0.0, 0.0, 0.0, 1.682097179176463E9, 0.0, 2023-04-21 12:12:59.176
223.0, -48914.75873169408, -31480.621573999117, 187500.0, 187500.0, 187500.0, 187500.0, 187500.0, 187500.0, 0.036000000000000004, 0.992, -0.12, 192.0, 1.0, 32.0, 31.0, 0.0, 252.0, 64.0, 0.0, 0.0, 0.0, 1.6820971791764743E9, 0.0, 2023-04-21 12:12:59.176
224.0, -48979.48938363665, -31688.93983232258, 187500.0, 187500.0, 187500.0, 187500.0, 187500.0, 187500.0, 0.036000000000000004, 0.992, -0.12, 192.0, 0.0, 0.0, 0.0, 0.0, 0.0, 0.0, 0.0, 0.0, 0.0, 1.6820971791765025E9, 0.0, 2023-04-21 12:12:59.176
226.0, -49058.34633807497, -31651.679474315584, 187500.0, 187500.0, 187500.0, 187500.0, 187500.0, 187500.0, 0.036000000000000004, 0.992, -0.12, 192.0, 0.0, 0.0, 0.0, 0.0, 0.0, 0.0, 0.0, 0.0, 0.0, 1.6820971791765141E9, 0.0, 2023-04-21 12:12:59.176
227.0, -48903.02406585504, -31453.955942863937, 187500.0, 187500.0, 187500.0, 187500.0, 187500.0, 187500.0, 0.036000000000000004, 0.992, -0.12, 192.0, 0.0, 0.0, 0.0, 0.0, 0.0, 0.0, 0.0, 0.0, 0.0, 1.6820971791765256E9, 0.0, 2023-04-21 12:12:59.176
228.0, -48956.98117697015, -31633.26163688441, 187500.0, 187500.0, 187500.0, 187500.0, 187500.0, 187500.0, 0.036000000000000004, 0.992, -0.12, 192.0, 0.0, 0.0, 0.0, 0.0, 0.0, 0.0, 0.0, 0.0, 0.0, 1.6820971791765373E9, 0.0, 2023-04-21 12:12:59.176
